Gradient Profiler Text Data File: 20231116_BY4742_30C.csv
Date: 2023-11-16
Time: 16:49:10

User: jared
Experiment name: 20231116_BY4742_30
UV Unit: EM-1
Rotor Manufacturer: Beckman
Rotor Model: SW28.1
Speed: 28 rpm
Gradient: sucrose 10.0% to 50.0% w/v
Time: 4
w2t:  x 10^0
Sample Volume: 18 ml
Number of Tubes: 6
Volume per mm: 0.183 ml/mm

Absorbance Units Full Scale (AUFS): 2.00
Event Mark-triggered gradient; (with distance; auto start and stop)
Delay: No Delay
UV Wavelength: 254 nm
Samples / sec: 10 Hz
EM1 Speed: 0.30 mm/sec
Distance: 3.20 mm
Number: 30
Dead Volume: 0.000000 ml; Distance due to Dead Volume: 0.00 mm
Total Distance: 96.00 mm

Data Columns:
Distance(mm), Absorbance, Fraction Number, Fraction Volume(ml)
0.00, 0.088370, 0, 0.000
0.03, 0.088399, , 
0.06, 0.088405, , 
0.09, 0.088376, , 
0.12, 0.088415, , 
0.15, 0.088415, , 
0.18, 0.088408, , 
0.21, 0.088859, , 
0.24, 0.091726, , 
0.27, 0.095285, , 
0.30, 0.098152, , 
0.33, 0.100036, , 
0.37, 0.100690, , 
0.39, 0.100782, , 
0.42, 0.100446, , 
0.45, 0.100062, , 
0.48, 0.099599, , 
0.51, 0.098983, , 
0.54, 0.098470, , 
0.57, 0.098504, , 
0.60, 0.099856, , 
0.63, 0.108122, , 
0.66, 0.128714, , 
0.69, 0.167833, , 
0.72, 0.236138, , 
0.75, 0.307595, , 
0.78, 0.385051, , 
0.81, 0.481018, , 
0.84, 0.566872, , 
0.87, 0.655033, , 
0.90, 0.759656, , 
0.93, 0.835348, , 
0.96, 0.941858, , 
0.99, 1.033832, , 
1.02, 1.126097, , 
1.05, 1.233940, , 
1.08, 1.326383, , 
1.11, 1.417902, , 
1.14, 1.507005, , 
1.17, 1.601107, , 
1.20, 1.665764, , 
1.23, 1.712217, , 
1.26, 1.746502, , 
1.29, 1.761439, , 
1.32, 1.774222, , 
1.35, 1.780756, , 
1.38, 1.785266, , 
1.41, 1.789206, , 
1.44, 1.792000, , 
1.47, 1.794436, , 
1.50, 1.796901, , 
1.53, 1.798918, , 
1.56, 1.800609, , 
1.59, 1.803178, , 
1.62, 1.805598, , 
1.65, 1.808190, , 
1.68, 1.811362, , 
1.71, 1.813960, , 
1.74, 1.816868, , 
1.77, 1.819295, , 
1.81, 1.821591, , 
1.83, 1.823812, , 
1.86, 1.825861, , 
1.89, 1.828043, , 
1.92, 1.829635, , 
1.95, 1.830822, , 
1.98, 1.831672, , 
2.01, 1.831960, , 
2.04, 1.831970, , 
2.07, 1.831837, , 
2.10, 1.831795, , 
2.13, 1.831843, , 
2.16, 1.831916, , 
2.19, 1.832151, , 
2.22, 1.832319, , 
2.25, 1.832404, , 
2.28, 1.832373, , 
2.31, 1.832221, , 
2.34, 1.832119, , 
2.37, 1.832265, , 
2.40, 1.832646, , 
2.43, 1.833232, , 
2.46, 1.833905, , 
2.49, 1.834679, , 
2.52, 1.835748, , 
2.55, 1.836864, , 
2.58, 1.838349, , 
2.61, 1.839617, , 
2.64, 1.840747, , 
2.67, 1.841682, , 
2.71, 1.841914, , 
2.73, 1.841822, , 
2.76, 1.841546, , 
2.80, 1.841295, , 
2.83, 1.841115, , 
2.85, 1.841023, , 
2.88, 1.840661, , 
2.91, 1.840014, , 
2.94, 1.839027, , 
2.97, 1.837733, , 
3.00, 1.836744, , 
3.03, 1.835760, , 
3.06, 1.834955, , 
3.09, 1.834168, , 
3.12, 1.832731, , 
3.15, 1.830933, , 
3.18, 1.829470, , 
3.19, 1.828839, 1, 0.584
3.21, 1.827266, , 
3.24, 1.825436, , 
3.27, 1.823510, , 
3.31, 1.822936, , 
3.34, 1.819971, , 
3.36, 1.816497, , 
3.39, 1.813804, , 
3.42, 1.810861, , 
3.45, 1.807787, , 
3.48, 1.803997, , 
3.51, 1.800428, , 
3.54, 1.796587, , 
3.57, 1.792457, , 
3.60, 1.787274, , 
3.63, 1.782494, , 
3.66, 1.776569, , 
3.69, 1.772131, , 
3.72, 1.765626, , 
3.75, 1.759691, , 
3.78, 1.752503, , 
3.81, 1.745963, , 
3.85, 1.737811, , 
3.87, 1.731635, , 
3.90, 1.723969, , 
3.93, 1.714767, , 
3.96, 1.706647, , 
3.99, 1.696976, , 
4.02, 1.688373, , 
4.05, 1.680872, , 
4.08, 1.669662, , 
4.11, 1.659467, , 
4.14, 1.647176, , 
4.17, 1.636373, , 
4.20, 1.625211, , 
4.23, 1.613807, , 
4.26, 1.602214, , 
4.29, 1.588422, , 
4.32, 1.576420, , 
4.35, 1.562384, , 
4.38, 1.552285, , 
4.41, 1.538039, , 
4.44, 1.525488, , 
4.47, 1.510453, , 
4.50, 1.497286, , 
4.54, 1.484085, , 
4.56, 1.470832, , 
4.59, 1.457796, , 
4.62, 1.442945, , 
4.65, 1.430397, , 
4.68, 1.417779, , 
4.71, 1.403134, , 
4.74, 1.392584, , 
4.77, 1.377844, , 
4.80, 1.365220, , 
4.83, 1.352484, , 
4.86, 1.337681, , 
4.89, 1.324876, , 
4.92, 1.309933, , 
4.95, 1.299339, , 
4.98, 1.286667, , 
5.01, 1.271959, , 
5.04, 1.259191, , 
5.07, 1.246294, , 
5.10, 1.231072, , 
5.13, 1.217928, , 
5.16, 1.204920, , 
5.19, 1.189771, , 
5.22, 1.176880, , 
5.25, 1.164024, , 
5.28, 1.151165, , 
5.31, 1.138261, , 
5.34, 1.123506, , 
5.37, 1.111024, , 
5.40, 1.098600, , 
5.43, 1.084104, , 
5.46, 1.073617, , 
5.49, 1.058995, , 
5.52, 1.046545, , 
5.55, 1.032316, , 
5.58, 1.020497, , 
5.61, 1.008881, , 
5.64, 0.997228, , 
5.67, 0.985520, , 
5.70, 0.971773, , 
5.73, 0.960119, , 
5.76, 0.948672, , 
5.79, 0.935775, , 
5.82, 0.924943, , 
5.85, 0.914186, , 
5.88, 0.903472, , 
5.91, 0.893087, , 
5.94, 0.881259, , 
5.97, 0.871219, , 
6.00, 0.859569, , 
6.03, 0.851306, , 
6.06, 0.841289, , 
6.09, 0.829524, , 
6.12, 0.817766, , 
6.15, 0.809395, , 
6.18, 0.797995, , 
6.21, 0.788388, , 
6.24, 0.778964, , 
6.27, 0.769648, , 
6.30, 0.758873, , 
6.33, 0.749595, , 
6.36, 0.738912, , 
6.39, 0.729764, 2, 0.586
6.40, 0.728229, , 
6.42, 0.720591, , 
6.45, 0.711468, , 
6.48, 0.700994, , 
6.51, 0.693645, , 
6.54, 0.683812, , 
6.57, 0.675692, , 
6.60, 0.667956, , 
6.63, 0.659280, , 
6.66, 0.652074, , 
6.70, 0.643814, , 
6.72, 0.638054, , 
6.75, 0.631129, , 
6.78, 0.623171, , 
6.81, 0.616551, , 
6.84, 0.610138, , 
6.87, 0.603051, , 
6.90, 0.597079, , 
6.93, 0.591074, , 
6.96, 0.585019, , 
6.99, 0.577828, , 
7.02, 0.571621, , 
7.05, 0.565512, , 
7.08, 0.559368, , 
7.11, 0.552151, , 
7.14, 0.545820, , 
7.17, 0.539467, , 
7.20, 0.533094, , 
7.23, 0.526896, , 
7.26, 0.519775, , 
7.29, 0.513711, , 
7.32, 0.507554, , 
7.35, 0.500135, , 
7.38, 0.493461, , 
7.41, 0.486806, , 
7.44, 0.480272, , 
7.47, 0.472954, , 
7.50, 0.466896, , 
7.53, 0.460080, , 
7.56, 0.454408, , 
7.59, 0.448838, , 
7.62, 0.443322, , 
7.65, 0.437036, , 
7.68, 0.431815, , 
7.71, 0.426714, , 
7.74, 0.421690, , 
7.77, 0.416808, , 
7.80, 0.412037, , 
7.83, 0.407483, , 
7.86, 0.402433, , 
7.89, 0.398192, , 
7.92, 0.394097, , 
7.95, 0.389314, , 
7.98, 0.385171, , 
8.01, 0.381054, , 
8.04, 0.376245, , 
8.07, 0.372087, , 
8.10, 0.367995, , 
8.13, 0.363840, , 
8.16, 0.359624, , 
8.19, 0.354733, , 
8.22, 0.350572, , 
8.25, 0.346594, , 
8.28, 0.342775, , 
8.31, 0.338372, , 
8.34, 0.334436, , 
8.37, 0.330325, , 
8.40, 0.325441, , 
8.43, 0.321374, , 
8.46, 0.317355, , 
8.49, 0.312921, , 
8.53, 0.309254, , 
8.55, 0.306215, , 
8.58, 0.302028, , 
8.61, 0.298384, , 
8.64, 0.294194, , 
8.67, 0.290752, , 
8.70, 0.287406, , 
8.73, 0.284075, , 
8.76, 0.280843, , 
8.79, 0.277100, , 
8.82, 0.274020, , 
8.85, 0.271105, , 
8.88, 0.267832, , 
8.91, 0.265088, , 
8.94, 0.262421, , 
8.97, 0.259318, , 
9.00, 0.257133, , 
9.03, 0.254522, , 
9.06, 0.251534, , 
9.09, 0.249035, , 
9.12, 0.246136, , 
9.15, 0.243674, , 
9.18, 0.241302, , 
9.21, 0.239050, , 
9.24, 0.236563, , 
9.27, 0.234415, , 
9.30, 0.232249, , 
9.33, 0.229949, , 
9.36, 0.227529, , 
9.39, 0.224592, , 
9.42, 0.222080, , 
9.45, 0.219660, , 
9.48, 0.216830, , 
9.51, 0.214505, , 
9.54, 0.212231, , 
9.57, 0.209985, , 
9.59, 0.208862, 3, 0.584
9.60, 0.207784, , 
9.63, 0.205370, , 
9.66, 0.203289, , 
9.69, 0.200866, , 
9.72, 0.198874, , 
9.75, 0.196955, , 
9.78, 0.195118, , 
9.81, 0.193444, , 
9.84, 0.191483, , 
9.87, 0.189901, , 
9.90, 0.188426, , 
9.93, 0.186764, , 
9.96, 0.185612, , 
9.99, 0.184223, , 
10.02, 0.182313, , 
10.05, 0.181127, , 
10.08, 0.179681, , 
10.11, 0.177946, , 
10.15, 0.176245, , 
10.17, 0.175072, , 
10.21, 0.173498, , 
10.23, 0.172135, , 
10.26, 0.170809, , 
10.29, 0.169188, , 
10.32, 0.167694, , 
10.35, 0.166143, , 
10.38, 0.164573, , 
10.41, 0.163018, , 
10.44, 0.161226, , 
10.47, 0.159669, , 
10.50, 0.158156, , 
10.53, 0.156728, , 
10.56, 0.155323, , 
10.59, 0.153706, , 
10.62, 0.152380, , 
10.65, 0.150864, , 
10.68, 0.149519, , 
10.71, 0.148250, , 
10.74, 0.147089, , 
10.77, 0.146058, , 
10.80, 0.144900, , 
10.83, 0.143958, , 
10.86, 0.143048, , 
10.89, 0.141995, , 
10.93, 0.141126, , 
10.95, 0.140317, , 
10.98, 0.139435, , 
11.01, 0.138810, , 
11.04, 0.138027, , 
11.07, 0.137040, , 
11.10, 0.136209, , 
11.13, 0.135457, , 
11.16, 0.134703, , 
11.19, 0.133814, , 
11.22, 0.133126, , 
11.25, 0.132292, , 
11.28, 0.131505, , 
11.31, 0.130712, , 
11.34, 0.129859, , 
11.37, 0.128999, , 
11.40, 0.127994, , 
11.43, 0.127122, , 
11.46, 0.126119, , 
11.49, 0.125263, , 
11.53, 0.124368, , 
11.55, 0.123490, , 
11.58, 0.122630, , 
11.61, 0.121821, , 
11.64, 0.120943, , 
11.67, 0.120185, , 
11.70, 0.119446, , 
11.73, 0.118586, , 
11.76, 0.117866, , 
11.79, 0.117266, , 
11.82, 0.116730, , 
11.85, 0.116217, , 
11.88, 0.115652, , 
11.91, 0.115170, , 
11.94, 0.114646, , 
11.97, 0.114075, , 
12.00, 0.113422, , 
12.03, 0.112823, , 
12.06, 0.112375, , 
12.09, 0.111820, , 
12.12, 0.111132, , 
12.15, 0.110628, , 
12.18, 0.110079, , 
12.21, 0.109400, , 
12.24, 0.108816, , 
12.27, 0.108172, , 
12.30, 0.107437, , 
12.33, 0.106663, , 
12.36, 0.105679, , 
12.39, 0.104826, , 
12.42, 0.103833, , 
12.45, 0.102958, , 
12.48, 0.102076, , 
12.51, 0.101261, , 
12.54, 0.100398, , 
12.57, 0.099741, , 
12.60, 0.098844, , 
12.63, 0.098178, , 
12.66, 0.097562, , 
12.69, 0.096814, , 
12.72, 0.096211, , 
12.75, 0.095643, , 
12.78, 0.095126, , 
12.78, 0.095044, 4, 0.585
12.81, 0.094641, , 
12.84, 0.094153, , 
12.87, 0.093829, , 
12.90, 0.093445, , 
12.93, 0.093185, , 
12.96, 0.092858, , 
12.99, 0.092582, , 
13.02, 0.092253, , 
13.05, 0.091881, , 
13.08, 0.091504, , 
13.11, 0.091231, , 
13.14, 0.090860, , 
13.17, 0.090590, , 
13.20, 0.090286, , 
13.23, 0.089997, , 
13.26, 0.089642, , 
13.29, 0.089239, , 
13.32, 0.088741, , 
13.35, 0.088234, , 
13.39, 0.087831, , 
13.41, 0.087542, , 
13.44, 0.087206, , 
13.47, 0.086867, , 
13.50, 0.086442, , 
13.53, 0.086086, , 
13.56, 0.085782, , 
13.59, 0.085477, , 
13.62, 0.085109, , 
13.65, 0.084913, , 
13.68, 0.084703, , 
13.71, 0.084538, , 
13.74, 0.084335, , 
13.77, 0.084221, , 
13.80, 0.084139, , 
13.83, 0.084056, , 
13.86, 0.083901, , 
13.89, 0.083755, , 
13.92, 0.083698, , 
13.95, 0.083641, , 
13.98, 0.083615, , 
14.01, 0.083593, , 
14.04, 0.083619, , 
14.07, 0.083701, , 
14.10, 0.083866, , 
14.13, 0.083948, , 
14.16, 0.084009, , 
14.19, 0.084069, , 
14.22, 0.084059, , 
14.25, 0.084104, , 
14.29, 0.084285, , 
14.31, 0.084392, , 
14.34, 0.084484, , 
14.37, 0.084532, , 
14.40, 0.084646, , 
14.43, 0.084808, , 
14.46, 0.084938, , 
14.49, 0.085068, , 
14.52, 0.085268, , 
14.55, 0.085423, , 
14.58, 0.085522, , 
14.61, 0.085699, , 
14.64, 0.085861, , 
14.67, 0.085978, , 
14.70, 0.086131, , 
14.73, 0.086296, , 
14.76, 0.086505, , 
14.79, 0.086705, , 
14.82, 0.086870, , 
14.85, 0.087028, , 
14.88, 0.087187, , 
14.91, 0.087263, , 
14.94, 0.087419, , 
14.97, 0.087590, , 
15.00, 0.087748, , 
15.03, 0.087872, , 
15.06, 0.087907, , 
15.09, 0.087942, , 
15.12, 0.087967, , 
15.15, 0.087964, , 
15.18, 0.087942, , 
15.21, 0.087970, , 
15.24, 0.087961, , 
15.27, 0.087964, , 
15.30, 0.087872, , 
15.33, 0.087748, , 
15.36, 0.087631, , 
15.39, 0.087472, , 
15.42, 0.087336, , 
15.45, 0.087162, , 
15.48, 0.086901, , 
15.51, 0.086575, , 
15.54, 0.086296, , 
15.57, 0.086036, , 
15.60, 0.085750, , 
15.63, 0.085461, , 
15.66, 0.085132, , 
15.69, 0.084833, , 
15.72, 0.084431, , 
15.75, 0.084063, , 
15.78, 0.083806, , 
15.81, 0.083473, , 
15.84, 0.083168, , 
15.87, 0.082721, , 
15.90, 0.082315, , 
15.93, 0.081912, , 
15.96, 0.081449, , 
15.99, 0.081071, 5, 0.586
15.99, 0.080995, , 
16.02, 0.080481, , 
16.05, 0.080079, , 
16.08, 0.079638, , 
16.11, 0.079267, , 
16.14, 0.078797, , 
16.17, 0.078267, , 
16.20, 0.077839, , 
16.23, 0.077376, , 
16.26, 0.076853, , 
16.29, 0.076463, , 
16.32, 0.075933, , 
16.35, 0.075356, , 
16.38, 0.074712, , 
16.41, 0.074223, , 
16.44, 0.073744, , 
16.47, 0.073329, , 
16.50, 0.072761, , 
16.53, 0.072314, , 
16.56, 0.071873, , 
16.59, 0.071362, , 
16.62, 0.070978, , 
16.66, 0.070477, , 
16.68, 0.070090, , 
16.71, 0.069576, , 
16.74, 0.069151, , 
16.77, 0.068710, , 
16.80, 0.068238, , 
16.83, 0.067787, , 
16.86, 0.067413, , 
16.89, 0.067036, , 
16.92, 0.066722, , 
16.95, 0.066331, , 
16.98, 0.066002, , 
17.01, 0.065570, , 
17.04, 0.065133, , 
17.07, 0.064596, , 
17.10, 0.064168, , 
17.13, 0.063727, , 
17.16, 0.063350, , 
17.19, 0.062906, , 
17.22, 0.062357, , 
17.25, 0.061942, , 
17.28, 0.061542, , 
17.31, 0.061225, , 
17.34, 0.060936, , 
17.37, 0.060609, , 
17.40, 0.060349, , 
17.43, 0.059972, , 
17.46, 0.059696, , 
17.49, 0.059394, , 
17.52, 0.059144, , 
17.55, 0.058852, , 
17.58, 0.058640, , 
17.61, 0.058433, , 
17.64, 0.058215, , 
17.67, 0.057942, , 
17.70, 0.057713, , 
17.73, 0.057491, , 
17.76, 0.057291, , 
17.79, 0.057168, , 
17.82, 0.057038, , 
17.85, 0.056870, , 
17.88, 0.056682, , 
17.91, 0.056511, , 
17.94, 0.056384, , 
17.97, 0.056273, , 
18.00, 0.056165, , 
18.03, 0.056045, , 
18.06, 0.055921, , 
18.09, 0.055778, , 
18.12, 0.055645, , 
18.15, 0.055515, , 
18.18, 0.055366, , 
18.21, 0.055274, , 
18.24, 0.055223, , 
18.27, 0.055157, , 
18.30, 0.055049, , 
18.34, 0.054881, , 
18.36, 0.054786, , 
18.39, 0.054697, , 
18.42, 0.054649, , 
18.45, 0.054589, , 
18.48, 0.054459, , 
18.51, 0.054354, , 
18.54, 0.054262, , 
18.57, 0.054212, , 
18.60, 0.054202, , 
18.63, 0.054186, , 
18.66, 0.054126, , 
18.69, 0.054028, , 
18.72, 0.053894, , 
18.75, 0.053790, , 
18.78, 0.053710, , 
18.81, 0.053688, , 
18.84, 0.053650, , 
18.87, 0.053596, , 
18.90, 0.053495, , 
18.93, 0.053368, , 
18.96, 0.053238, , 
18.99, 0.053222, , 
19.02, 0.053193, , 
19.05, 0.053184, , 
19.08, 0.053149, , 
19.11, 0.053054, , 
19.14, 0.052943, , 
19.17, 0.052825, , 
19.19, 0.052775, 6, 0.585
19.20, 0.052708, , 
19.23, 0.052676, , 
19.26, 0.052670, , 
19.29, 0.052645, , 
19.32, 0.052515, , 
19.35, 0.052404, , 
19.38, 0.052315, , 
19.41, 0.052239, , 
19.44, 0.052058, , 
19.47, 0.051934, , 
19.50, 0.051833, , 
19.53, 0.051741, , 
19.56, 0.051664, , 
19.59, 0.051623, , 
19.62, 0.051503, , 
19.65, 0.051350, , 
19.68, 0.051265, , 
19.71, 0.051179, , 
19.74, 0.051052, , 
19.77, 0.050919, , 
19.80, 0.050808, , 
19.83, 0.050735, , 
19.86, 0.050722, , 
19.89, 0.050678, , 
19.92, 0.050656, , 
19.95, 0.050615, , 
19.98, 0.050497, , 
20.01, 0.050364, , 
20.04, 0.050256, , 
20.07, 0.050205, , 
20.10, 0.050167, , 
20.13, 0.050170, , 
20.16, 0.050177, , 
20.19, 0.050183, , 
20.22, 0.050161, , 
20.25, 0.050167, , 
20.28, 0.050224, , 
20.31, 0.050358, , 
20.34, 0.050440, , 
20.37, 0.050545, , 
20.40, 0.050634, , 
20.43, 0.050688, , 
20.46, 0.050780, , 
20.49, 0.050919, , 
20.52, 0.051071, , 
20.55, 0.051293, , 
20.58, 0.051477, , 
20.61, 0.051750, , 
20.64, 0.051988, , 
20.67, 0.052223, , 
20.70, 0.052597, , 
20.73, 0.052911, , 
20.76, 0.053419, , 
20.79, 0.053869, , 
20.82, 0.054281, , 
20.85, 0.054789, , 
20.88, 0.055119, , 
20.91, 0.055693, , 
20.94, 0.056175, , 
20.97, 0.056733, , 
21.00, 0.057450, , 
21.03, 0.058018, , 
21.06, 0.058703, , 
21.09, 0.059356, , 
21.12, 0.060194, , 
21.15, 0.060911, , 
21.18, 0.061637, , 
21.21, 0.062348, , 
21.24, 0.063378, , 
21.27, 0.064190, , 
21.30, 0.065085, , 
21.33, 0.065824, , 
21.36, 0.066525, , 
21.39, 0.067381, , 
21.42, 0.068206, , 
21.45, 0.069056, , 
21.48, 0.070087, , 
21.51, 0.070963, , 
21.54, 0.071711, , 
21.57, 0.072669, , 
21.60, 0.073424, , 
21.63, 0.074217, , 
21.66, 0.075159, , 
21.69, 0.075765, , 
21.72, 0.076793, , 
21.75, 0.077541, , 
21.78, 0.078271, , 
21.81, 0.079032, , 
21.84, 0.079841, , 
21.87, 0.080415, , 
21.90, 0.081049, , 
21.93, 0.081785, , 
21.96, 0.082340, , 
21.99, 0.083089, , 
22.02, 0.083606, , 
22.05, 0.084199, , 
22.08, 0.084773, , 
22.11, 0.085189, , 
22.14, 0.085519, , 
22.17, 0.085833, , 
22.20, 0.086207, , 
22.23, 0.086524, , 
22.26, 0.086829, , 
22.29, 0.087066, , 
22.32, 0.087314, , 
22.35, 0.087495, , 
22.38, 0.087650, , 
22.39, 0.087675, 7, 0.586
22.41, 0.087764, , 
22.44, 0.087866, , 
22.47, 0.087904, , 
22.50, 0.087891, , 
22.53, 0.087897, , 
22.56, 0.087926, , 
22.59, 0.087894, , 
22.62, 0.087786, , 
22.65, 0.087656, , 
22.68, 0.087545, , 
22.71, 0.087422, , 
22.74, 0.087222, , 
22.77, 0.087098, , 
22.80, 0.086908, , 
22.83, 0.086635, , 
22.86, 0.086419, , 
22.89, 0.086023, , 
22.92, 0.085668, , 
22.95, 0.085354, , 
22.98, 0.085011, , 
23.01, 0.084779, , 
23.04, 0.084326, , 
23.07, 0.083910, , 
23.10, 0.083422, , 
23.13, 0.083000, , 
23.16, 0.082588, , 
23.19, 0.082201, , 
23.22, 0.081830, , 
23.25, 0.081455, , 
23.28, 0.081024, , 
23.31, 0.080418, , 
23.34, 0.080018, , 
23.37, 0.079517, , 
23.40, 0.078946, , 
23.43, 0.078483, , 
23.46, 0.078058, , 
23.49, 0.077557, , 
23.52, 0.077094, , 
23.55, 0.076393, , 
23.58, 0.075923, , 
23.61, 0.075429, , 
23.65, 0.074816, , 
23.67, 0.074309, , 
23.70, 0.073703, , 
23.73, 0.073053, , 
23.76, 0.072536, , 
23.79, 0.071981, , 
23.82, 0.071340, , 
23.85, 0.070947, , 
23.88, 0.070290, , 
23.91, 0.069754, , 
23.94, 0.069212, , 
23.97, 0.068555, , 
24.00, 0.068063, , 
24.03, 0.067439, , 
24.07, 0.066975, , 
24.09, 0.066604, , 
24.12, 0.066081, , 
24.15, 0.065665, , 
24.18, 0.065183, , 
24.21, 0.064707, , 
24.24, 0.064073, , 
24.27, 0.063499, , 
24.30, 0.062988, , 
24.33, 0.062598, , 
24.36, 0.062237, , 
24.39, 0.061869, , 
24.42, 0.061421, , 
24.45, 0.061050, , 
24.48, 0.060647, , 
24.51, 0.060172, , 
24.54, 0.059743, , 
24.57, 0.059287, , 
24.60, 0.059011, , 
24.64, 0.058640, , 
24.66, 0.058379, , 
24.69, 0.057954, , 
24.72, 0.057628, , 
24.75, 0.057257, , 
24.78, 0.056993, , 
24.81, 0.056721, , 
24.84, 0.056448, , 
24.87, 0.056165, , 
24.90, 0.055921, , 
24.93, 0.055686, , 
24.96, 0.055449, , 
24.99, 0.055233, , 
25.02, 0.054995, , 
25.05, 0.054773, , 
25.08, 0.054557, , 
25.11, 0.054449, , 
25.14, 0.054338, , 
25.17, 0.054237, , 
25.20, 0.054072, , 
25.23, 0.053917, , 
25.26, 0.053863, , 
25.30, 0.053828, , 
25.32, 0.053774, , 
25.35, 0.053767, , 
25.38, 0.053764, , 
25.41, 0.053752, , 
25.44, 0.053767, , 
25.48, 0.053878, , 
25.50, 0.053986, , 
25.53, 0.054154, , 
25.56, 0.054205, , 
25.58, 0.054284, 8, 0.585
25.59, 0.054319, , 
25.62, 0.054484, , 
25.65, 0.054671, , 
25.68, 0.054887, , 
25.71, 0.055223, , 
25.74, 0.055509, , 
25.77, 0.055763, , 
25.80, 0.056156, , 
25.83, 0.056552, , 
25.86, 0.057215, , 
25.89, 0.057770, , 
25.92, 0.058335, , 
25.95, 0.059008, , 
25.98, 0.059689, , 
26.01, 0.060679, , 
26.04, 0.061529, , 
26.07, 0.062538, , 
26.10, 0.063905, , 
26.13, 0.065069, , 
26.16, 0.066569, , 
26.19, 0.068174, , 
26.22, 0.069970, , 
26.25, 0.072257, , 
26.28, 0.074277, , 
26.31, 0.076970, , 
26.34, 0.080190, , 
26.37, 0.083168, , 
26.40, 0.086974, , 
26.43, 0.089623, , 
26.46, 0.093969, , 
26.49, 0.098996, , 
26.52, 0.103643, , 
26.55, 0.108715, , 
26.58, 0.115090, , 
26.61, 0.120514, , 
26.64, 0.128451, , 
26.67, 0.134138, , 
26.70, 0.142575, , 
26.73, 0.150147, , 
26.76, 0.158115, , 
26.79, 0.167342, , 
26.82, 0.175192, , 
26.85, 0.185723, , 
26.88, 0.195007, , 
26.91, 0.204504, , 
26.94, 0.215203, , 
26.97, 0.225753, , 
27.01, 0.237467, , 
27.03, 0.245879, , 
27.06, 0.256070, , 
27.09, 0.267277, , 
27.12, 0.277992, , 
27.15, 0.289604, , 
27.18, 0.299453, , 
27.21, 0.309178, , 
27.24, 0.317914, , 
27.27, 0.327953, , 
27.30, 0.338350, , 
27.33, 0.346895, , 
27.36, 0.355117, , 
27.39, 0.364319, , 
27.42, 0.371180, , 
27.45, 0.378840, , 
27.48, 0.386614, , 
27.51, 0.391775, , 
27.54, 0.398557, , 
27.57, 0.403905, , 
27.60, 0.408342, , 
27.63, 0.413763, , 
27.66, 0.417550, , 
27.69, 0.420913, , 
27.72, 0.423802, , 
27.75, 0.426026, , 
27.78, 0.428506, , 
27.81, 0.429997, , 
27.84, 0.431234, , 
27.87, 0.431811, , 
27.90, 0.432141, , 
27.93, 0.432021, , 
27.96, 0.431472, , 
27.99, 0.430581, , 
28.02, 0.429153, , 
28.05, 0.427577, , 
28.08, 0.425775, , 
28.11, 0.423590, , 
28.14, 0.421217, , 
28.17, 0.418629, , 
28.20, 0.415263, , 
28.23, 0.412704, , 
28.26, 0.408913, , 
28.29, 0.405779, , 
28.32, 0.401913, , 
28.35, 0.397593, , 
28.38, 0.393735, , 
28.41, 0.389691, , 
28.44, 0.385894, , 
28.47, 0.381349, , 
28.50, 0.376337, , 
28.53, 0.371970, , 
28.56, 0.366783, , 
28.59, 0.362679, , 
28.62, 0.358556, , 
28.65, 0.353252, , 
28.68, 0.348599, , 
28.71, 0.343958, , 
28.74, 0.338607, , 
28.77, 0.334376, , 
28.79, 0.331004, 9, 0.587
28.80, 0.328670, , 
28.83, 0.324178, , 
28.86, 0.319645, , 
28.89, 0.315100, , 
28.92, 0.310666, , 
28.95, 0.305908, , 
28.98, 0.301378, , 
29.01, 0.297156, , 
29.04, 0.292291, , 
29.08, 0.288161, , 
29.10, 0.284399, , 
29.13, 0.280085, , 
29.16, 0.276228, , 
29.19, 0.271800, , 
29.22, 0.268114, , 
29.25, 0.263848, , 
29.28, 0.261222, , 
29.31, 0.256778, , 
29.34, 0.253932, , 
29.37, 0.250021, , 
29.40, 0.246691, , 
29.43, 0.242942, , 
29.46, 0.239966, , 
29.49, 0.236474, , 
29.52, 0.232814, , 
29.55, 0.230298, , 
29.58, 0.226860, , 
29.61, 0.223948, , 
29.64, 0.221303, , 
29.67, 0.217760, , 
29.70, 0.215029, , 
29.73, 0.212307, , 
29.76, 0.209649, , 
29.79, 0.206756, , 
29.82, 0.204057, , 
29.85, 0.201104, , 
29.88, 0.199017, , 
29.91, 0.196511, , 
29.94, 0.193869, , 
29.97, 0.191360, , 
30.00, 0.188698, , 
30.03, 0.186370, , 
30.06, 0.184029, , 
30.09, 0.181926, , 
30.12, 0.179487, , 
30.15, 0.176946, , 
30.18, 0.174755, , 
30.21, 0.172620, , 
30.24, 0.170206, , 
30.27, 0.168385, , 
30.30, 0.166228, , 
30.33, 0.163932, , 
30.36, 0.162317, , 
30.39, 0.160110, , 
30.42, 0.158448, , 
30.45, 0.156506, , 
30.48, 0.154337, , 
30.51, 0.152478, , 
30.54, 0.150670, , 
30.57, 0.148960, , 
30.60, 0.147292, , 
30.63, 0.145316, , 
30.66, 0.143613, , 
30.69, 0.141966, , 
30.72, 0.140127, , 
30.75, 0.138693, , 
30.78, 0.137005, , 
30.81, 0.135467, , 
30.84, 0.133738, , 
30.87, 0.132279, , 
30.90, 0.130795, , 
30.93, 0.129104, , 
30.96, 0.127471, , 
30.99, 0.126015, , 
31.02, 0.124581, , 
31.05, 0.123192, , 
31.08, 0.121628, , 
31.11, 0.120391, , 
31.14, 0.118973, , 
31.17, 0.117710, , 
31.20, 0.116315, , 
31.23, 0.115135, , 
31.26, 0.113961, , 
31.29, 0.112597, , 
31.32, 0.111677, , 
31.35, 0.110377, , 
31.38, 0.109273, , 
31.41, 0.108160, , 
31.44, 0.107113, , 
31.47, 0.105768, , 
31.50, 0.104671, , 
31.53, 0.103418, , 
31.56, 0.102409, , 
31.59, 0.101540, , 
31.62, 0.100531, , 
31.65, 0.099462, , 
31.68, 0.098590, , 
31.71, 0.097724, , 
31.74, 0.096884, , 
31.77, 0.095942, , 
31.80, 0.094917, , 
31.83, 0.094080, , 
31.86, 0.093296, , 
31.89, 0.092398, , 
31.92, 0.091707, , 
31.95, 0.090911, , 
31.98, 0.090172, , 
31.99, 0.089928, 10, 0.586
32.01, 0.089430, , 
32.04, 0.088706, , 
32.07, 0.087904, , 
32.10, 0.087263, , 
32.13, 0.086457, , 
32.16, 0.085890, , 
32.19, 0.085408, , 
32.22, 0.084678, , 
32.25, 0.084075, , 
32.28, 0.083263, , 
32.31, 0.082632, , 
32.34, 0.081877, , 
32.37, 0.081357, , 
32.40, 0.080697, , 
32.43, 0.080142, , 
32.46, 0.079387, , 
32.49, 0.078937, , 
32.52, 0.078442, , 
32.55, 0.077896, , 
32.58, 0.077481, , 
32.61, 0.076989, , 
32.64, 0.076475, , 
32.67, 0.076050, , 
32.70, 0.075609, , 
32.73, 0.075140, , 
32.76, 0.074658, , 
32.79, 0.074198, , 
32.82, 0.073694, , 
32.85, 0.073237, , 
32.88, 0.072878, , 
32.91, 0.072428, , 
32.94, 0.071946, , 
32.97, 0.071403, , 
33.00, 0.070985, , 
33.03, 0.070614, , 
33.06, 0.070281, , 
33.09, 0.070008, , 
33.12, 0.069605, , 
33.15, 0.069227, , 
33.18, 0.068809, , 
33.21, 0.068403, , 
33.24, 0.067898, , 
33.27, 0.067445, , 
33.30, 0.067020, , 
33.33, 0.066636, , 
33.36, 0.066290, , 
33.39, 0.065983, , 
33.42, 0.065615, , 
33.45, 0.065272, , 
33.48, 0.064910, , 
33.51, 0.064638, , 
33.54, 0.064282, , 
33.57, 0.063854, , 
33.60, 0.063521, , 
33.63, 0.063264, , 
33.66, 0.062998, , 
33.69, 0.062738, , 
33.72, 0.062455, , 
33.75, 0.062160, , 
33.78, 0.061853, , 
33.82, 0.061599, , 
33.84, 0.061415, , 
33.87, 0.061139, , 
33.90, 0.060812, , 
33.93, 0.060463, , 
33.96, 0.060222, , 
33.99, 0.060010, , 
34.02, 0.059788, , 
34.05, 0.059534, , 
34.08, 0.059306, , 
34.11, 0.059093, , 
34.14, 0.058868, , 
34.17, 0.058617, , 
34.20, 0.058265, , 
34.23, 0.058065, , 
34.26, 0.057891, , 
34.29, 0.057653, , 
34.33, 0.057501, , 
34.35, 0.057291, , 
34.38, 0.057095, , 
34.41, 0.056914, , 
34.44, 0.056749, , 
34.47, 0.056578, , 
34.50, 0.056416, , 
34.53, 0.056162, , 
34.56, 0.056016, , 
34.59, 0.055893, , 
34.62, 0.055823, , 
34.65, 0.055674, , 
34.68, 0.055525, , 
34.71, 0.055430, , 
34.74, 0.055322, , 
34.77, 0.055198, , 
34.80, 0.055084, , 
34.83, 0.054973, , 
34.86, 0.054897, , 
34.89, 0.054789, , 
34.92, 0.054637, , 
34.95, 0.054513, , 
34.98, 0.054405, , 
35.02, 0.054351, , 
35.04, 0.054357, , 
35.07, 0.054319, , 
35.10, 0.054221, , 
35.13, 0.054069, , 
35.16, 0.053980, , 
35.18, 0.053942, 11, 0.584
35.19, 0.053913, , 
35.22, 0.053825, , 
35.26, 0.053831, , 
35.28, 0.053834, , 
35.31, 0.053837, , 
35.34, 0.053780, , 
35.37, 0.053672, , 
35.40, 0.053558, , 
35.43, 0.053450, , 
35.46, 0.053400, , 
35.49, 0.053339, , 
35.52, 0.053327, , 
35.55, 0.053317, , 
35.58, 0.053333, , 
35.61, 0.053380, , 
35.64, 0.053495, , 
35.67, 0.053634, , 
35.70, 0.053710, , 
35.73, 0.053783, , 
35.76, 0.053818, , 
35.79, 0.053850, , 
35.82, 0.053834, , 
35.85, 0.053847, , 
35.88, 0.053926, , 
35.91, 0.054040, , 
35.94, 0.054145, , 
35.97, 0.054253, , 
36.00, 0.054335, , 
36.03, 0.054449, , 
36.06, 0.054589, , 
36.09, 0.054862, , 
36.12, 0.055046, , 
36.15, 0.055220, , 
36.18, 0.055461, , 
36.21, 0.055693, , 
36.24, 0.055972, , 
36.27, 0.056305, , 
36.30, 0.056514, , 
36.34, 0.056838, , 
36.36, 0.057199, , 
36.39, 0.057653, , 
36.42, 0.057983, , 
36.45, 0.058500, , 
36.48, 0.058995, , 
36.51, 0.059693, , 
36.54, 0.060124, , 
36.57, 0.060717, , 
36.60, 0.061260, , 
36.63, 0.061802, , 
36.66, 0.062427, , 
36.69, 0.063160, , 
36.72, 0.063835, , 
36.75, 0.064622, , 
36.79, 0.065263, , 
36.81, 0.066027, , 
36.84, 0.066722, , 
36.87, 0.067467, , 
36.90, 0.068266, , 
36.93, 0.069272, , 
36.96, 0.070071, , 
36.99, 0.070950, , 
37.02, 0.071784, , 
37.05, 0.072536, , 
37.08, 0.073335, , 
37.11, 0.074299, , 
37.14, 0.075061, , 
37.17, 0.075778, , 
37.20, 0.076628, , 
37.23, 0.077370, , 
37.26, 0.078195, , 
37.29, 0.078851, , 
37.32, 0.079635, , 
37.35, 0.080383, , 
37.38, 0.081027, , 
37.41, 0.081687, , 
37.44, 0.082191, , 
37.47, 0.082727, , 
37.50, 0.083254, , 
37.53, 0.083704, , 
37.56, 0.084145, , 
37.59, 0.084589, , 
37.62, 0.085011, , 
37.65, 0.085446, , 
37.68, 0.085775, , 
37.71, 0.086086, , 
37.74, 0.086239, , 
37.77, 0.086369, , 
37.80, 0.086454, , 
37.83, 0.086473, , 
37.86, 0.086480, , 
37.89, 0.086467, , 
37.92, 0.086480, , 
37.95, 0.086467, , 
37.98, 0.086457, , 
38.01, 0.086407, , 
38.04, 0.086308, , 
38.07, 0.086089, , 
38.10, 0.085852, , 
38.13, 0.085569, , 
38.16, 0.085325, , 
38.19, 0.085059, , 
38.22, 0.084656, , 
38.25, 0.084297, , 
38.28, 0.083803, , 
38.32, 0.083400, , 
38.34, 0.083016, , 
38.37, 0.082531, , 
38.39, 0.082448, 12, 0.587
38.40, 0.082194, , 
38.43, 0.081614, , 
38.46, 0.081176, , 
38.49, 0.080776, , 
38.52, 0.080355, , 
38.55, 0.079914, , 
38.58, 0.079327, , 
38.61, 0.078921, , 
38.64, 0.078493, , 
38.67, 0.077925, , 
38.70, 0.077443, , 
38.73, 0.076859, , 
38.76, 0.076320, , 
38.79, 0.075765, , 
38.82, 0.075210, , 
38.85, 0.074883, , 
38.88, 0.074341, , 
38.91, 0.073874, , 
38.94, 0.073357, , 
38.97, 0.072923, , 
39.00, 0.072393, , 
39.03, 0.071920, , 
39.06, 0.071172, , 
39.09, 0.070671, , 
39.12, 0.070122, , 
39.15, 0.069745, , 
39.18, 0.069259, , 
39.21, 0.068952, , 
39.24, 0.068628, , 
39.27, 0.068228, , 
39.30, 0.067848, , 
39.33, 0.067458, , 
39.36, 0.067036, , 
39.39, 0.066614, , 
39.42, 0.066071, , 
39.45, 0.065659, , 
39.48, 0.065393, , 
39.51, 0.065066, , 
39.54, 0.064679, , 
39.57, 0.064317, , 
39.60, 0.063892, , 
39.63, 0.063486, , 
39.66, 0.063210, , 
39.69, 0.062890, , 
39.72, 0.062614, , 
39.75, 0.062319, , 
39.78, 0.061954, , 
39.81, 0.061666, , 
39.84, 0.061336, , 
39.87, 0.061130, , 
39.90, 0.060904, , 
39.93, 0.060606, , 
39.96, 0.060311, , 
39.99, 0.060023, , 
40.02, 0.059731, , 
40.05, 0.059537, , 
40.08, 0.059258, , 
40.11, 0.059042, , 
40.14, 0.058827, , 
40.17, 0.058592, , 
40.20, 0.058379, , 
40.23, 0.058113, , 
40.26, 0.057923, , 
40.29, 0.057780, , 
40.32, 0.057647, , 
40.35, 0.057444, , 
40.38, 0.057209, , 
40.41, 0.057041, , 
40.44, 0.056851, , 
40.47, 0.056673, , 
40.50, 0.056505, , 
40.53, 0.056359, , 
40.56, 0.056112, , 
40.59, 0.055934, , 
40.62, 0.055766, , 
40.65, 0.055604, , 
40.68, 0.055404, , 
40.71, 0.055242, , 
40.74, 0.054995, , 
40.77, 0.054852, , 
40.80, 0.054678, , 
40.83, 0.054491, , 
40.86, 0.054411, , 
40.89, 0.054262, , 
40.92, 0.054043, , 
40.95, 0.053885, , 
40.98, 0.053825, , 
41.01, 0.053755, , 
41.04, 0.053580, , 
41.07, 0.053434, , 
41.10, 0.053361, , 
41.13, 0.053273, , 
41.16, 0.053171, , 
41.19, 0.053038, , 
41.22, 0.052895, , 
41.25, 0.052806, , 
41.28, 0.052711, , 
41.31, 0.052594, , 
41.34, 0.052435, , 
41.38, 0.052362, , 
41.40, 0.052315, , 
41.43, 0.052258, , 
41.46, 0.052264, , 
41.49, 0.052181, , 
41.52, 0.051991, , 
41.55, 0.051871, , 
41.58, 0.051801, , 
41.59, 0.051791, 13, 0.585
41.61, 0.051699, , 
41.64, 0.051604, , 
41.67, 0.051423, , 
41.70, 0.051389, , 
41.73, 0.051338, , 
41.76, 0.051271, , 
41.79, 0.051224, , 
41.83, 0.051100, , 
41.85, 0.050983, , 
41.88, 0.050884, , 
41.91, 0.050792, , 
41.94, 0.050760, , 
41.97, 0.050735, , 
42.00, 0.050659, , 
42.04, 0.050535, , 
42.06, 0.050415, , 
42.09, 0.050316, , 
42.12, 0.050247, , 
42.15, 0.050228, , 
42.18, 0.050237, , 
42.21, 0.050215, , 
42.24, 0.050205, , 
42.27, 0.050199, , 
42.30, 0.050209, , 
42.33, 0.050183, , 
42.36, 0.050161, , 
42.39, 0.050193, , 
42.42, 0.050196, , 
42.45, 0.050202, , 
42.48, 0.050202, , 
42.51, 0.050199, , 
42.54, 0.050228, , 
42.57, 0.050297, , 
42.60, 0.050427, , 
42.63, 0.050529, , 
42.66, 0.050576, , 
42.69, 0.050630, , 
42.72, 0.050634, , 
42.75, 0.050662, , 
42.78, 0.050833, , 
42.81, 0.051005, , 
42.84, 0.051052, , 
42.87, 0.051116, , 
42.90, 0.051249, , 
42.93, 0.051376, , 
42.96, 0.051582, , 
42.99, 0.051795, , 
43.02, 0.052039, , 
43.06, 0.052226, , 
43.08, 0.052429, , 
43.11, 0.052695, , 
43.14, 0.053003, , 
43.17, 0.053323, , 
43.20, 0.053583, , 
43.23, 0.053923, , 
43.26, 0.054304, , 
43.29, 0.054627, , 
43.32, 0.054951, , 
43.35, 0.055201, , 
43.38, 0.055677, , 
43.41, 0.056276, , 
43.44, 0.056768, , 
43.47, 0.057295, , 
43.50, 0.057707, , 
43.53, 0.058294, , 
43.56, 0.058919, , 
43.59, 0.059525, , 
43.62, 0.060229, , 
43.65, 0.060711, , 
43.68, 0.061345, , 
43.71, 0.062160, , 
43.74, 0.062820, , 
43.77, 0.063610, , 
43.80, 0.064197, , 
43.83, 0.065037, , 
43.86, 0.065891, , 
43.89, 0.066528, , 
43.92, 0.067461, , 
43.95, 0.068114, , 
43.98, 0.069056, , 
44.01, 0.069928, , 
44.04, 0.070693, , 
44.08, 0.071660, , 
44.10, 0.072269, , 
44.13, 0.073154, , 
44.16, 0.074011, , 
44.19, 0.074753, , 
44.22, 0.075644, , 
44.25, 0.076358, , 
44.28, 0.076878, , 
44.31, 0.077741, , 
44.34, 0.078410, , 
44.37, 0.079162, , 
44.40, 0.079758, , 
44.43, 0.080240, , 
44.46, 0.080859, , 
44.49, 0.081230, , 
44.52, 0.081738, , 
44.55, 0.082191, , 
44.58, 0.082638, , 
44.61, 0.083082, , 
44.64, 0.083450, , 
44.67, 0.083790, , 
44.70, 0.083980, , 
44.73, 0.084151, , 
44.76, 0.084228, , 
44.79, 0.084278, 14, 0.586
44.79, 0.084297, , 
44.82, 0.084345, , 
44.85, 0.084373, , 
44.88, 0.084405, , 
44.91, 0.084415, , 
44.94, 0.084389, , 
44.97, 0.084256, , 
45.00, 0.084104, , 
45.03, 0.083986, , 
45.06, 0.083850, , 
45.09, 0.083612, , 
45.12, 0.083330, , 
45.15, 0.083076, , 
45.18, 0.082791, , 
45.21, 0.082439, , 
45.24, 0.082061, , 
45.27, 0.081642, , 
45.30, 0.081341, , 
45.33, 0.081005, , 
45.36, 0.080599, , 
45.39, 0.080259, , 
45.42, 0.079860, , 
45.45, 0.079340, , 
45.48, 0.078861, , 
45.51, 0.078306, , 
45.54, 0.077722, , 
45.57, 0.077208, , 
45.60, 0.076647, , 
45.63, 0.076184, , 
45.66, 0.075717, , 
45.69, 0.075194, , 
45.72, 0.074851, , 
45.75, 0.074347, , 
45.78, 0.073833, , 
45.82, 0.073392, , 
45.84, 0.072970, , 
45.87, 0.072631, , 
45.90, 0.072031, , 
45.93, 0.071587, , 
45.96, 0.071178, , 
45.99, 0.070642, , 
46.02, 0.070246, , 
46.05, 0.069830, , 
46.08, 0.069338, , 
46.11, 0.068910, , 
46.14, 0.068517, , 
46.17, 0.068171, , 
46.20, 0.067930, , 
46.23, 0.067537, , 
46.26, 0.067169, , 
46.29, 0.066804, , 
46.32, 0.066541, , 
46.35, 0.066195, , 
46.38, 0.065821, , 
46.41, 0.065507, , 
46.44, 0.065177, , 
46.47, 0.064847, , 
46.50, 0.064536, , 
46.53, 0.064267, , 
46.56, 0.063924, , 
46.59, 0.063556, , 
46.62, 0.063315, , 
46.65, 0.063052, , 
46.68, 0.062703, , 
46.71, 0.062446, , 
46.74, 0.062145, , 
46.77, 0.061891, , 
46.80, 0.061650, , 
46.83, 0.061364, , 
46.86, 0.061126, , 
46.89, 0.060752, , 
46.92, 0.060501, , 
46.95, 0.060257, , 
46.98, 0.060003, , 
47.01, 0.059797, , 
47.04, 0.059601, , 
47.07, 0.059382, , 
47.10, 0.059207, , 
47.13, 0.059017, , 
47.16, 0.058884, , 
47.19, 0.058659, , 
47.22, 0.058421, , 
47.25, 0.058268, , 
47.28, 0.058135, , 
47.31, 0.058005, , 
47.34, 0.057774, , 
47.37, 0.057539, , 
47.40, 0.057393, , 
47.43, 0.057244, , 
47.46, 0.057171, , 
47.49, 0.057057, , 
47.52, 0.056895, , 
47.55, 0.056771, , 
47.58, 0.056670, , 
47.61, 0.056590, , 
47.64, 0.056432, , 
47.67, 0.056254, , 
47.70, 0.056181, , 
47.73, 0.056162, , 
47.76, 0.056156, , 
47.79, 0.056086, , 
47.82, 0.055959, , 
47.85, 0.055848, , 
47.89, 0.055728, , 
47.91, 0.055696, , 
47.94, 0.055633, , 
47.97, 0.055604, , 
47.98, 0.055607, 15, 0.585
48.00, 0.055601, , 
48.03, 0.055588, , 
48.06, 0.055594, , 
48.09, 0.055598, , 
48.12, 0.055594, , 
48.15, 0.055591, , 
48.18, 0.055588, , 
48.21, 0.055610, , 
48.24, 0.055683, , 
48.27, 0.055870, , 
48.30, 0.055969, , 
48.33, 0.056035, , 
48.36, 0.056067, , 
48.39, 0.056115, , 
48.42, 0.056283, , 
48.45, 0.056426, , 
48.48, 0.056530, , 
48.51, 0.056584, , 
48.54, 0.056648, , 
48.57, 0.056920, , 
48.60, 0.057098, , 
48.63, 0.057279, , 
48.66, 0.057529, , 
48.69, 0.057758, , 
48.72, 0.057992, , 
48.75, 0.058215, , 
48.78, 0.058494, , 
48.81, 0.058811, , 
48.84, 0.059109, , 
48.87, 0.059496, , 
48.90, 0.059854, , 
48.93, 0.060175, , 
48.96, 0.060457, , 
48.99, 0.060692, , 
49.02, 0.061180, , 
49.05, 0.061586, , 
49.08, 0.062049, , 
49.11, 0.062690, , 
49.14, 0.063147, , 
49.17, 0.063775, , 
49.20, 0.064235, , 
49.23, 0.064685, , 
49.26, 0.065250, , 
49.29, 0.065665, , 
49.32, 0.066423, , 
49.36, 0.066975, , 
49.38, 0.067426, , 
49.41, 0.068136, , 
49.44, 0.068606, , 
49.47, 0.069310, , 
49.50, 0.069830, , 
49.53, 0.070411, , 
49.56, 0.070994, , 
49.59, 0.071407, , 
49.62, 0.072108, , 
49.65, 0.072666, , 
49.68, 0.073234, , 
49.71, 0.073862, , 
49.74, 0.074410, , 
49.77, 0.074912, , 
49.80, 0.075356, , 
49.83, 0.075771, , 
49.86, 0.076320, , 
49.89, 0.076650, , 
49.92, 0.077211, , 
49.95, 0.077668, , 
49.98, 0.078033, , 
50.01, 0.078448, , 
50.04, 0.078753, , 
50.07, 0.079051, , 
50.10, 0.079317, , 
50.13, 0.079574, , 
50.16, 0.079803, , 
50.19, 0.079977, , 
50.22, 0.080221, , 
50.25, 0.080336, , 
50.28, 0.080377, , 
50.31, 0.080405, , 
50.34, 0.080447, , 
50.38, 0.080450, , 
50.40, 0.080443, , 
50.43, 0.080462, , 
50.46, 0.080447, , 
50.49, 0.080424, , 
50.52, 0.080288, , 
50.55, 0.080101, , 
50.58, 0.079930, , 
50.61, 0.079749, , 
50.64, 0.079603, , 
50.67, 0.079422, , 
50.70, 0.079152, , 
50.73, 0.078877, , 
50.76, 0.078566, , 
50.79, 0.078318, , 
50.82, 0.078030, , 
50.85, 0.077684, , 
50.88, 0.077386, , 
50.91, 0.077015, , 
50.94, 0.076634, , 
50.97, 0.076304, , 
51.00, 0.075844, , 
51.03, 0.075600, , 
51.06, 0.075219, , 
51.09, 0.074861, , 
51.12, 0.074515, , 
51.15, 0.073925, , 
51.18, 0.073506, 16, 0.585
51.19, 0.073427, , 
51.22, 0.073008, , 
51.24, 0.072675, , 
51.27, 0.072428, , 
51.30, 0.072044, , 
51.33, 0.071679, , 
51.36, 0.071213, , 
51.39, 0.070836, , 
51.42, 0.070515, , 
51.45, 0.070068, , 
51.48, 0.069760, , 
51.51, 0.069405, , 
51.54, 0.069034, , 
51.57, 0.068701, , 
51.60, 0.068384, , 
51.63, 0.068076, , 
51.66, 0.067686, , 
51.69, 0.067308, , 
51.72, 0.066979, , 
51.75, 0.066712, , 
51.78, 0.066354, , 
51.81, 0.066014, , 
51.84, 0.065789, , 
51.87, 0.065551, , 
51.90, 0.065320, , 
51.93, 0.065060, , 
51.96, 0.064815, , 
51.99, 0.064619, , 
52.02, 0.064397, , 
52.05, 0.064222, , 
52.08, 0.063978, , 
52.11, 0.063734, , 
52.14, 0.063518, , 
52.17, 0.063302, , 
52.20, 0.063055, , 
52.23, 0.062947, , 
52.26, 0.062823, , 
52.29, 0.062735, , 
52.32, 0.062608, , 
52.35, 0.062490, , 
52.38, 0.062389, , 
52.41, 0.062148, , 
52.45, 0.061999, , 
52.47, 0.061903, , 
52.50, 0.061815, , 
52.53, 0.061700, , 
52.56, 0.061555, , 
52.59, 0.061437, , 
52.62, 0.061364, , 
52.65, 0.061304, , 
52.68, 0.061272, , 
52.71, 0.061272, , 
52.74, 0.061256, , 
52.77, 0.061241, , 
52.80, 0.061269, , 
52.83, 0.061298, , 
52.86, 0.061304, , 
52.89, 0.061301, , 
52.92, 0.061310, , 
52.95, 0.061304, , 
52.98, 0.061326, , 
53.01, 0.061421, , 
53.04, 0.061589, , 
53.07, 0.061685, , 
53.10, 0.061735, , 
53.13, 0.061805, , 
53.16, 0.061967, , 
53.19, 0.062151, , 
53.22, 0.062294, , 
53.25, 0.062487, , 
53.29, 0.062703, , 
53.31, 0.062925, , 
53.34, 0.063118, , 
53.37, 0.063299, , 
53.40, 0.063559, , 
53.43, 0.063753, , 
53.46, 0.064016, , 
53.50, 0.064282, , 
53.52, 0.064514, , 
53.55, 0.064818, , 
53.58, 0.065025, , 
53.61, 0.065386, , 
53.64, 0.065770, , 
53.67, 0.066103, , 
53.70, 0.066389, , 
53.73, 0.066630, , 
53.76, 0.067026, , 
53.79, 0.067473, , 
53.82, 0.067854, , 
53.85, 0.068323, , 
53.88, 0.068682, , 
53.91, 0.069110, , 
53.94, 0.069522, , 
53.97, 0.069836, , 
54.00, 0.070214, , 
54.03, 0.070515, , 
54.06, 0.070972, , 
54.09, 0.071441, , 
54.12, 0.071797, , 
54.15, 0.072273, , 
54.18, 0.072580, , 
54.21, 0.072824, , 
54.24, 0.073310, , 
54.27, 0.073598, , 
54.30, 0.073890, , 
54.33, 0.074144, , 
54.36, 0.074391, , 
54.38, 0.074664, 17, 0.586
54.39, 0.074753, , 
54.42, 0.074994, , 
54.45, 0.075273, , 
54.48, 0.075517, , 
54.51, 0.075673, , 
54.54, 0.075850, , 
54.57, 0.075993, , 
54.60, 0.076180, , 
54.63, 0.076285, , 
54.66, 0.076336, , 
54.69, 0.076472, , 
54.72, 0.076637, , 
54.75, 0.076739, , 
54.78, 0.076815, , 
54.81, 0.076856, , 
54.84, 0.076891, , 
54.87, 0.076900, , 
54.90, 0.076894, , 
54.94, 0.076818, , 
54.96, 0.076742, , 
54.99, 0.076542, , 
55.02, 0.076485, , 
55.05, 0.076377, , 
55.08, 0.076272, , 
55.11, 0.076142, , 
55.14, 0.076038, , 
55.17, 0.075854, , 
55.20, 0.075663, , 
55.23, 0.075448, , 
55.26, 0.075241, , 
55.29, 0.075029, , 
55.32, 0.074797, , 
55.35, 0.074585, , 
55.38, 0.074344, , 
55.41, 0.074144, , 
55.44, 0.073941, , 
55.47, 0.073694, , 
55.50, 0.073364, , 
55.53, 0.073094, , 
55.56, 0.072878, , 
55.59, 0.072561, , 
55.62, 0.072190, , 
55.65, 0.071895, , 
55.68, 0.071641, , 
55.71, 0.071397, , 
55.74, 0.071146, , 
55.77, 0.070864, , 
55.80, 0.070537, , 
55.83, 0.070233, , 
55.86, 0.069935, , 
55.89, 0.069662, , 
55.92, 0.069348, , 
55.96, 0.068993, , 
55.98, 0.068755, , 
56.01, 0.068473, , 
56.04, 0.068200, , 
56.07, 0.067908, , 
56.10, 0.067638, , 
56.13, 0.067337, , 
56.17, 0.067048, , 
56.19, 0.066871, , 
56.22, 0.066655, , 
56.25, 0.066458, , 
56.28, 0.066240, , 
56.31, 0.066024, , 
56.34, 0.065811, , 
56.37, 0.065732, , 
56.40, 0.065516, , 
56.43, 0.065339, , 
56.46, 0.065218, , 
56.49, 0.065158, , 
56.52, 0.065072, , 
56.55, 0.064866, , 
56.58, 0.064774, , 
56.61, 0.064698, , 
56.64, 0.064650, , 
56.67, 0.064615, , 
56.70, 0.064619, , 
56.73, 0.064606, , 
56.76, 0.064603, , 
56.79, 0.064619, , 
56.82, 0.064612, , 
56.85, 0.064704, , 
56.88, 0.064822, , 
56.91, 0.064933, , 
56.94, 0.065031, , 
56.97, 0.065085, , 
57.00, 0.065136, , 
57.03, 0.065224, , 
57.06, 0.065383, , 
57.09, 0.065532, , 
57.12, 0.065589, , 
57.15, 0.065716, , 
57.18, 0.065824, , 
57.21, 0.066011, , 
57.24, 0.066233, , 
57.27, 0.066420, , 
57.30, 0.066569, , 
57.33, 0.066763, , 
57.36, 0.066925, , 
57.39, 0.067105, , 
57.42, 0.067331, , 
57.45, 0.067559, , 
57.48, 0.067803, , 
57.51, 0.068048, , 
57.54, 0.068371, , 
57.57, 0.068657, , 
57.59, 0.068717, 18, 0.586
57.60, 0.068885, , 
57.63, 0.069180, , 
57.66, 0.069421, , 
57.69, 0.069729, , 
57.72, 0.069986, , 
57.75, 0.070242, , 
57.78, 0.070569, , 
57.81, 0.070779, , 
57.84, 0.071042, , 
57.87, 0.071315, , 
57.90, 0.071616, , 
57.93, 0.071924, , 
57.96, 0.072168, , 
57.99, 0.072399, , 
58.02, 0.072615, , 
58.05, 0.072856, , 
58.08, 0.072964, , 
58.11, 0.073145, , 
58.14, 0.073367, , 
58.17, 0.073544, , 
58.20, 0.073744, , 
58.23, 0.073884, , 
58.26, 0.074046, , 
58.29, 0.074252, , 
58.32, 0.074363, , 
58.35, 0.074468, , 
58.38, 0.074518, , 
58.41, 0.074556, , 
58.44, 0.074569, , 
58.47, 0.074566, , 
58.50, 0.074566, , 
58.53, 0.074559, , 
58.56, 0.074559, , 
58.59, 0.074569, , 
58.62, 0.074569, , 
58.65, 0.074559, , 
58.68, 0.074544, , 
58.71, 0.074528, , 
58.74, 0.074420, , 
58.77, 0.074284, , 
58.80, 0.074188, , 
58.83, 0.074138, , 
58.86, 0.074008, , 
58.89, 0.073817, , 
58.92, 0.073722, , 
58.95, 0.073583, , 
58.98, 0.073399, , 
59.01, 0.073237, , 
59.04, 0.072980, , 
59.07, 0.072786, , 
59.10, 0.072558, , 
59.13, 0.072330, , 
59.16, 0.072155, , 
59.19, 0.071841, , 
59.23, 0.071616, , 
59.25, 0.071381, , 
59.28, 0.071146, , 
59.31, 0.070997, , 
59.34, 0.070709, , 
59.37, 0.070471, , 
59.40, 0.070249, , 
59.43, 0.070081, , 
59.46, 0.069909, , 
59.49, 0.069694, , 
59.52, 0.069516, , 
59.55, 0.069316, , 
59.58, 0.069101, , 
59.61, 0.068955, , 
59.64, 0.068790, , 
59.67, 0.068650, , 
59.70, 0.068434, , 
59.73, 0.068270, , 
59.76, 0.068168, , 
59.79, 0.067975, , 
59.82, 0.067813, , 
59.85, 0.067686, , 
59.88, 0.067603, , 
59.91, 0.067530, , 
59.94, 0.067343, , 
59.97, 0.067229, , 
60.00, 0.067182, , 
60.03, 0.067156, , 
60.06, 0.067112, , 
60.09, 0.067083, , 
60.12, 0.067105, , 
60.15, 0.067115, , 
60.18, 0.067112, , 
60.21, 0.067083, , 
60.24, 0.067102, , 
60.27, 0.067134, , 
60.30, 0.067093, , 
60.33, 0.067090, , 
60.36, 0.067102, , 
60.39, 0.067137, , 
60.42, 0.067245, , 
60.45, 0.067388, , 
60.48, 0.067477, , 
60.51, 0.067600, , 
60.54, 0.067661, , 
60.57, 0.067806, , 
60.60, 0.067949, , 
60.63, 0.068108, , 
60.66, 0.068311, , 
60.69, 0.068434, , 
60.72, 0.068707, , 
60.75, 0.068879, , 
60.78, 0.069044, 19, 0.585
60.79, 0.069066, , 
60.81, 0.069202, , 
60.84, 0.069364, , 
60.87, 0.069633, , 
60.90, 0.069846, , 
60.93, 0.070043, , 
60.96, 0.070271, , 
61.00, 0.070366, , 
61.02, 0.070547, , 
61.05, 0.070763, , 
61.08, 0.070890, , 
61.11, 0.070985, , 
61.14, 0.071080, , 
61.17, 0.071191, , 
61.20, 0.071369, , 
61.23, 0.071457, , 
61.26, 0.071476, , 
61.29, 0.071486, , 
61.32, 0.071495, , 
61.35, 0.071518, , 
61.38, 0.071518, , 
61.41, 0.071499, , 
61.44, 0.071502, , 
61.47, 0.071514, , 
61.50, 0.071527, , 
61.53, 0.071533, , 
61.56, 0.071549, , 
61.59, 0.071533, , 
61.62, 0.071530, , 
61.65, 0.071549, , 
61.68, 0.071518, , 
61.71, 0.071511, , 
61.74, 0.071489, , 
61.77, 0.071432, , 
61.80, 0.071346, , 
61.83, 0.071235, , 
61.86, 0.071121, , 
61.89, 0.071035, , 
61.92, 0.070912, , 
61.95, 0.070779, , 
61.98, 0.070607, , 
62.02, 0.070420, , 
62.04, 0.070296, , 
62.07, 0.070157, , 
62.10, 0.070011, , 
62.13, 0.069833, , 
62.16, 0.069697, , 
62.19, 0.069551, , 
62.22, 0.069370, , 
62.25, 0.069259, , 
62.28, 0.069129, , 
62.31, 0.068917, , 
62.34, 0.068726, , 
62.37, 0.068546, , 
62.40, 0.068320, , 
62.43, 0.068228, , 
62.46, 0.068016, , 
62.49, 0.067829, , 
62.52, 0.067692, , 
62.55, 0.067603, , 
62.58, 0.067524, , 
62.61, 0.067350, , 
62.64, 0.067258, , 
62.67, 0.067163, , 
62.70, 0.067086, , 
62.73, 0.067064, , 
62.76, 0.067026, , 
62.79, 0.066912, , 
62.82, 0.066795, , 
62.85, 0.066709, , 
62.88, 0.066646, , 
62.91, 0.066611, , 
62.94, 0.066576, , 
62.97, 0.066563, , 
63.00, 0.066547, , 
63.03, 0.066576, , 
63.06, 0.066684, , 
63.09, 0.066814, , 
63.12, 0.066915, , 
63.15, 0.066982, , 
63.18, 0.067020, , 
63.21, 0.067042, , 
63.24, 0.067093, , 
63.27, 0.067131, , 
63.30, 0.067229, , 
63.33, 0.067404, , 
63.36, 0.067454, , 
63.39, 0.067505, , 
63.42, 0.067540, , 
63.45, 0.067591, , 
63.48, 0.067689, , 
63.51, 0.067768, , 
63.54, 0.067886, , 
63.57, 0.067987, , 
63.60, 0.068041, , 
63.63, 0.068089, , 
63.66, 0.068178, , 
63.69, 0.068343, , 
63.72, 0.068454, , 
63.75, 0.068482, , 
63.78, 0.068526, , 
63.81, 0.068526, , 
63.84, 0.068520, , 
63.87, 0.068523, , 
63.90, 0.068530, , 
63.93, 0.068498, , 
63.96, 0.068507, , 
63.98, 0.068530, 20, 0.586
63.99, 0.068523, , 
64.02, 0.068539, , 
64.05, 0.068546, , 
64.08, 0.068565, , 
64.11, 0.068536, , 
64.14, 0.068412, , 
64.17, 0.068298, , 
64.20, 0.068235, , 
64.23, 0.068130, , 
64.26, 0.068092, , 
64.29, 0.068003, , 
64.32, 0.067832, , 
64.35, 0.067689, , 
64.38, 0.067603, , 
64.41, 0.067565, , 
64.44, 0.067426, , 
64.47, 0.067242, , 
64.50, 0.067185, , 
64.53, 0.067140, , 
64.56, 0.067071, , 
64.59, 0.066991, , 
64.62, 0.066814, , 
64.65, 0.066715, , 
64.68, 0.066646, , 
64.71, 0.066519, , 
64.74, 0.066392, , 
64.77, 0.066227, , 
64.81, 0.066151, , 
64.83, 0.066078, , 
64.86, 0.065954, , 
64.89, 0.065824, , 
64.92, 0.065662, , 
64.95, 0.065637, , 
64.98, 0.065589, , 
65.01, 0.065500, , 
65.04, 0.065383, , 
65.07, 0.065196, , 
65.10, 0.065155, , 
65.13, 0.065091, , 
65.16, 0.065060, , 
65.19, 0.064983, , 
65.22, 0.064828, , 
65.25, 0.064701, , 
65.28, 0.064635, , 
65.31, 0.064584, , 
65.34, 0.064581, , 
65.37, 0.064587, , 
65.40, 0.064476, , 
65.43, 0.064346, , 
65.46, 0.064241, , 
65.49, 0.064194, , 
65.52, 0.064108, , 
65.55, 0.064089, , 
65.58, 0.064105, , 
65.61, 0.064086, , 
65.64, 0.064089, , 
65.67, 0.064076, , 
65.70, 0.064070, , 
65.73, 0.064086, , 
65.76, 0.064079, , 
65.79, 0.064079, , 
65.82, 0.064076, , 
65.85, 0.064073, , 
65.88, 0.064064, , 
65.91, 0.064073, , 
65.94, 0.064089, , 
65.97, 0.064086, , 
66.00, 0.064064, , 
66.03, 0.064070, , 
66.06, 0.064092, , 
66.09, 0.064098, , 
66.12, 0.064092, , 
66.15, 0.064092, , 
66.18, 0.064102, , 
66.21, 0.064086, , 
66.24, 0.064048, , 
66.27, 0.063927, , 
66.30, 0.063800, , 
66.33, 0.063696, , 
66.36, 0.063613, , 
66.39, 0.063537, , 
66.42, 0.063420, , 
66.45, 0.063258, , 
66.48, 0.063163, , 
66.51, 0.063125, , 
66.54, 0.063074, , 
66.57, 0.062966, , 
66.60, 0.062776, , 
66.63, 0.062671, , 
66.66, 0.062627, , 
66.69, 0.062503, , 
66.72, 0.062370, , 
66.75, 0.062202, , 
66.78, 0.062129, , 
66.81, 0.062078, , 
66.85, 0.061992, , 
66.87, 0.061916, , 
66.90, 0.061773, , 
66.93, 0.061631, , 
66.96, 0.061570, , 
66.99, 0.061466, , 
67.02, 0.061288, , 
67.05, 0.061228, , 
67.08, 0.061117, , 
67.11, 0.061095, , 
67.14, 0.061104, , 
67.17, 0.061085, , 
67.19, 0.061079, 21, 0.588
67.20, 0.061050, , 
67.23, 0.060901, , 
67.26, 0.060800, , 
67.29, 0.060692, , 
67.32, 0.060635, , 
67.35, 0.060622, , 
67.38, 0.060622, , 
67.41, 0.060584, , 
67.44, 0.060505, , 
67.47, 0.060359, , 
67.50, 0.060279, , 
67.53, 0.060153, , 
67.56, 0.060092, , 
67.59, 0.060061, , 
67.62, 0.060092, , 
67.65, 0.060089, , 
67.68, 0.060067, , 
67.71, 0.060070, , 
67.74, 0.060095, , 
67.77, 0.060070, , 
67.80, 0.060054, , 
67.83, 0.060054, , 
67.87, 0.060000, , 
67.89, 0.059870, , 
67.92, 0.059724, , 
67.95, 0.059645, , 
67.98, 0.059613, , 
68.01, 0.059588, , 
68.04, 0.059572, , 
68.07, 0.059575, , 
68.10, 0.059493, , 
68.13, 0.059372, , 
68.16, 0.059223, , 
68.19, 0.059141, , 
68.22, 0.059103, , 
68.25, 0.059084, , 
68.28, 0.059030, , 
68.31, 0.058919, , 
68.34, 0.058798, , 
68.37, 0.058681, , 
68.40, 0.058617, , 
68.43, 0.058598, , 
68.46, 0.058506, , 
68.49, 0.058376, , 
68.52, 0.058253, , 
68.55, 0.058183, , 
68.58, 0.058145, , 
68.61, 0.058100, , 
68.64, 0.058088, , 
68.67, 0.058107, , 
68.70, 0.058081, , 
68.73, 0.057992, , 
68.76, 0.057802, , 
68.79, 0.057704, , 
68.82, 0.057669, , 
68.85, 0.057628, , 
68.88, 0.057567, , 
68.91, 0.057396, , 
68.94, 0.057238, , 
68.97, 0.057158, , 
69.00, 0.057127, , 
69.03, 0.057095, , 
69.06, 0.056962, , 
69.09, 0.056819, , 
69.12, 0.056676, , 
69.15, 0.056644, , 
69.18, 0.056613, , 
69.21, 0.056521, , 
69.24, 0.056384, , 
69.27, 0.056254, , 
69.30, 0.056188, , 
69.33, 0.056150, , 
69.36, 0.056118, , 
69.39, 0.056086, , 
69.42, 0.055947, , 
69.45, 0.055813, , 
69.48, 0.055731, , 
69.51, 0.055658, , 
69.54, 0.055636, , 
69.57, 0.055614, , 
69.60, 0.055610, , 
69.63, 0.055541, , 
69.66, 0.055401, , 
69.69, 0.055265, , 
69.72, 0.055182, , 
69.75, 0.055160, , 
69.78, 0.055087, , 
69.81, 0.055017, , 
69.84, 0.054868, , 
69.87, 0.054751, , 
69.90, 0.054668, , 
69.93, 0.054618, , 
69.96, 0.054614, , 
69.99, 0.054640, , 
70.02, 0.054573, , 
70.05, 0.054440, , 
70.08, 0.054326, , 
70.11, 0.054284, , 
70.14, 0.054199, , 
70.17, 0.054139, , 
70.20, 0.054126, , 
70.23, 0.054031, , 
70.26, 0.053904, , 
70.29, 0.053771, , 
70.32, 0.053726, , 
70.35, 0.053701, , 
70.38, 0.053612, 22, 0.584
70.40, 0.053590, , 
70.41, 0.053511, , 
70.44, 0.053374, , 
70.47, 0.053279, , 
70.50, 0.053206, , 
70.53, 0.053146, , 
70.56, 0.053063, , 
70.59, 0.052997, , 
70.62, 0.052806, , 
70.65, 0.052737, , 
70.68, 0.052711, , 
70.71, 0.052702, , 
70.74, 0.052673, , 
70.77, 0.052610, , 
70.80, 0.052527, , 
70.83, 0.052419, , 
70.86, 0.052321, , 
70.89, 0.052261, , 
70.92, 0.052220, , 
70.95, 0.052109, , 
70.98, 0.051975, , 
71.01, 0.051871, , 
71.04, 0.051798, , 
71.07, 0.051788, , 
71.10, 0.051760, , 
71.13, 0.051684, , 
71.16, 0.051582, , 
71.19, 0.051496, , 
71.22, 0.051395, , 
71.25, 0.051373, , 
71.28, 0.051293, , 
71.31, 0.051208, , 
71.34, 0.051027, , 
71.37, 0.050916, , 
71.40, 0.050868, , 
71.43, 0.050846, , 
71.46, 0.050786, , 
71.49, 0.050760, , 
71.52, 0.050732, , 
71.55, 0.050630, , 
71.58, 0.050500, , 
71.61, 0.050418, , 
71.64, 0.050351, , 
71.67, 0.050304, , 
71.70, 0.050262, , 
71.73, 0.050193, , 
71.76, 0.050082, , 
71.79, 0.049936, , 
71.82, 0.049818, , 
71.85, 0.049771, , 
71.89, 0.049790, , 
71.91, 0.049771, , 
71.94, 0.049593, , 
71.97, 0.049454, , 
72.00, 0.049403, , 
72.03, 0.049324, , 
72.06, 0.049270, , 
72.09, 0.049254, , 
72.12, 0.049235, , 
72.15, 0.049181, , 
72.18, 0.049025, , 
72.21, 0.048914, , 
72.24, 0.048838, , 
72.27, 0.048772, , 
72.30, 0.048746, , 
72.33, 0.048683, , 
72.36, 0.048702, , 
72.39, 0.048616, , 
72.42, 0.048429, , 
72.45, 0.048328, , 
72.48, 0.048296, , 
72.51, 0.048286, , 
72.54, 0.048229, , 
72.57, 0.048163, , 
72.60, 0.048147, , 
72.63, 0.048175, , 
72.66, 0.048067, , 
72.69, 0.047915, , 
72.72, 0.047814, , 
72.75, 0.047750, , 
72.78, 0.047690, , 
72.81, 0.047674, , 
72.84, 0.047623, , 
72.87, 0.047455, , 
72.90, 0.047325, , 
72.93, 0.047240, , 
72.96, 0.047186, , 
72.99, 0.047198, , 
73.02, 0.047173, , 
73.05, 0.047065, , 
73.08, 0.046916, , 
73.11, 0.046815, , 
73.14, 0.046773, , 
73.17, 0.046716, , 
73.20, 0.046643, , 
73.23, 0.046494, , 
73.26, 0.046367, , 
73.29, 0.046304, , 
73.32, 0.046244, , 
73.35, 0.046215, , 
73.38, 0.046148, , 
73.41, 0.046037, , 
73.44, 0.045949, , 
73.47, 0.045806, , 
73.50, 0.045704, , 
73.53, 0.045644, , 
73.56, 0.045676, , 
73.58, 0.045666, 23, 0.586
73.59, 0.045644, , 
73.62, 0.045489, , 
73.65, 0.045346, , 
73.68, 0.045232, , 
73.71, 0.045184, , 
73.74, 0.045172, , 
73.77, 0.045152, , 
73.80, 0.045143, , 
73.83, 0.045038, , 
73.86, 0.044911, , 
73.89, 0.044800, , 
73.92, 0.044753, , 
73.95, 0.044705, , 
73.98, 0.044658, , 
74.01, 0.044607, , 
74.04, 0.044496, , 
74.07, 0.044420, , 
74.10, 0.044271, , 
74.14, 0.044204, , 
74.16, 0.044169, , 
74.19, 0.044125, , 
74.22, 0.044074, , 
74.25, 0.043922, , 
74.28, 0.043830, , 
74.32, 0.043750, , 
74.34, 0.043678, , 
74.39, 0.043665, , 
74.40, 0.043649, , 
74.43, 0.043662, , 
74.46, 0.043614, , 
74.49, 0.043487, , 
74.52, 0.043411, , 
74.55, 0.043348, , 
74.58, 0.043224, , 
74.61, 0.043151, , 
74.64, 0.043151, , 
74.67, 0.043164, , 
74.70, 0.043129, , 
74.73, 0.043126, , 
74.76, 0.043097, , 
74.79, 0.042980, , 
74.82, 0.042900, , 
74.85, 0.042770, , 
74.88, 0.042697, , 
74.91, 0.042672, , 
74.94, 0.042624, , 
74.97, 0.042621, , 
75.00, 0.042628, , 
75.03, 0.042612, , 
75.06, 0.042602, , 
75.09, 0.042612, , 
75.12, 0.042640, , 
75.15, 0.042631, , 
75.18, 0.042586, , 
75.21, 0.042593, , 
75.24, 0.042615, , 
75.27, 0.042599, , 
75.30, 0.042583, , 
75.33, 0.042529, , 
75.37, 0.042428, , 
75.39, 0.042288, , 
75.42, 0.042196, , 
75.45, 0.042155, , 
75.48, 0.041971, , 
75.51, 0.041816, , 
75.54, 0.041667, , 
75.57, 0.041540, , 
75.60, 0.041438, , 
75.63, 0.041245, , 
75.66, 0.041159, , 
75.69, 0.041127, , 
75.72, 0.041083, , 
75.75, 0.041070, , 
75.78, 0.041045, , 
75.81, 0.041035, , 
75.84, 0.040934, , 
75.87, 0.040766, , 
75.90, 0.040705, , 
75.93, 0.040648, , 
75.96, 0.040623, , 
75.99, 0.040563, , 
76.02, 0.040550, , 
76.05, 0.040540, , 
76.08, 0.040366, , 
76.11, 0.040246, , 
76.14, 0.040154, , 
76.17, 0.040144, , 
76.20, 0.040125, , 
76.23, 0.040090, , 
76.26, 0.040033, , 
76.29, 0.039960, , 
76.32, 0.039798, , 
76.35, 0.039716, , 
76.38, 0.039630, , 
76.41, 0.039560, , 
76.44, 0.039573, , 
76.47, 0.039570, , 
76.50, 0.039554, , 
76.53, 0.039586, , 
76.56, 0.039589, , 
76.59, 0.039510, , 
76.63, 0.039380, , 
76.65, 0.039310, , 
76.68, 0.039199, , 
76.71, 0.039119, , 
76.74, 0.039088, , 
76.77, 0.039056, , 
76.79, 0.039053, 24, 0.586
76.80, 0.039059, , 
76.83, 0.038986, , 
76.86, 0.038882, , 
76.89, 0.038764, , 
76.92, 0.038694, , 
76.95, 0.038593, , 
76.98, 0.038568, , 
77.01, 0.038564, , 
77.04, 0.038564, , 
77.07, 0.038542, , 
77.10, 0.038444, , 
77.13, 0.038288, , 
77.16, 0.038181, , 
77.19, 0.038092, , 
77.22, 0.038031, , 
77.25, 0.038000, , 
77.28, 0.038019, , 
77.31, 0.038006, , 
77.34, 0.037978, , 
77.37, 0.037990, , 
77.40, 0.037981, , 
77.43, 0.037987, , 
77.46, 0.037911, , 
77.49, 0.037797, , 
77.52, 0.037698, , 
77.55, 0.037578, , 
77.58, 0.037511, , 
77.61, 0.037486, , 
77.64, 0.037470, , 
77.67, 0.037445, , 
77.70, 0.037359, , 
77.73, 0.037223, , 
77.76, 0.037172, , 
77.79, 0.037020, , 
77.82, 0.037001, , 
77.85, 0.036994, , 
77.88, 0.036975, , 
77.91, 0.036940, , 
77.94, 0.036794, , 
77.97, 0.036690, , 
78.00, 0.036598, , 
78.03, 0.036544, , 
78.06, 0.036499, , 
78.09, 0.036493, , 
78.12, 0.036471, , 
78.15, 0.036436, , 
78.18, 0.036404, , 
78.21, 0.036287, , 
78.24, 0.036185, , 
78.27, 0.036122, , 
78.30, 0.036033, , 
78.33, 0.036008, , 
78.36, 0.035982, , 
78.39, 0.035960, , 
78.42, 0.035960, , 
78.45, 0.035976, , 
78.48, 0.035982, , 
78.51, 0.035884, , 
78.54, 0.035779, , 
78.57, 0.035687, , 
78.60, 0.035621, , 
78.63, 0.035513, , 
78.66, 0.035491, , 
78.69, 0.035491, , 
78.72, 0.035459, , 
78.75, 0.035440, , 
78.78, 0.035478, , 
78.81, 0.035484, , 
78.84, 0.035450, , 
78.87, 0.035370, , 
78.90, 0.035266, , 
78.94, 0.035139, , 
78.96, 0.035069, , 
78.99, 0.034996, , 
79.02, 0.034986, , 
79.05, 0.035002, , 
79.08, 0.034980, , 
79.11, 0.034926, , 
79.14, 0.034856, , 
79.17, 0.034733, , 
79.20, 0.034574, , 
79.23, 0.034504, , 
79.26, 0.034482, , 
79.29, 0.034479, , 
79.32, 0.034431, , 
79.35, 0.034438, , 
79.38, 0.034450, , 
79.41, 0.034422, , 
79.44, 0.034304, , 
79.47, 0.034190, , 
79.50, 0.034073, , 
79.53, 0.034019, , 
79.56, 0.033933, , 
79.59, 0.033933, , 
79.62, 0.033946, , 
79.65, 0.033946, , 
79.68, 0.033946, , 
79.71, 0.033860, , 
79.74, 0.033759, , 
79.77, 0.033664, , 
79.80, 0.033508, , 
79.83, 0.033477, , 
79.86, 0.033461, , 
79.89, 0.033439, , 
79.92, 0.033400, , 
79.96, 0.033375, , 
79.98, 0.033366, , 
79.99, 0.033359, 25, 0.586
80.01, 0.033239, , 
80.04, 0.033090, , 
80.07, 0.033020, , 
80.10, 0.033001, , 
80.13, 0.032969, , 
80.16, 0.032947, , 
80.19, 0.032918, , 
80.22, 0.032934, , 
80.25, 0.032909, , 
80.28, 0.032880, , 
80.31, 0.032902, , 
80.34, 0.032928, , 
80.37, 0.032918, , 
80.40, 0.032849, , 
80.43, 0.032763, , 
80.46, 0.032677, , 
80.49, 0.032522, , 
80.52, 0.032446, , 
80.55, 0.032430, , 
80.58, 0.032439, , 
80.61, 0.032439, , 
80.64, 0.032389, , 
80.67, 0.032344, , 
80.70, 0.032227, , 
80.73, 0.032084, , 
80.76, 0.031983, , 
80.79, 0.031926, , 
80.82, 0.031894, , 
80.85, 0.031894, , 
80.88, 0.031881, , 
80.91, 0.031878, , 
80.94, 0.031906, , 
80.98, 0.031913, , 
81.00, 0.031903, , 
81.03, 0.031913, , 
81.06, 0.031900, , 
81.09, 0.031878, , 
81.12, 0.031897, , 
81.15, 0.031903, , 
81.18, 0.031906, , 
81.21, 0.031884, , 
81.24, 0.031761, , 
81.27, 0.031643, , 
81.30, 0.031539, , 
81.33, 0.031478, , 
81.36, 0.031437, , 
81.39, 0.031418, , 
81.42, 0.031418, , 
81.45, 0.031405, , 
81.48, 0.031405, , 
81.51, 0.031364, , 
81.54, 0.031231, , 
81.57, 0.031107, , 
81.60, 0.031018, , 
81.63, 0.030971, , 
81.66, 0.030917, , 
81.69, 0.030904, , 
81.72, 0.030895, , 
81.75, 0.030923, , 
81.78, 0.030882, , 
81.81, 0.030876, , 
81.84, 0.030872, , 
81.87, 0.030872, , 
81.90, 0.030869, , 
81.93, 0.030838, , 
81.96, 0.030857, , 
82.00, 0.030879, , 
82.02, 0.030850, , 
82.05, 0.030825, , 
82.08, 0.030844, , 
82.11, 0.030790, , 
82.14, 0.030673, , 
82.17, 0.030533, , 
82.20, 0.030447, , 
82.23, 0.030419, , 
82.26, 0.030400, , 
82.29, 0.030378, , 
82.32, 0.030365, , 
82.35, 0.030289, , 
82.38, 0.030130, , 
82.41, 0.030035, , 
82.44, 0.030003, , 
82.47, 0.029918, , 
82.50, 0.029880, , 
82.53, 0.029883, , 
82.56, 0.029848, , 
82.59, 0.029803, , 
82.62, 0.029639, , 
82.65, 0.029480, , 
82.68, 0.029397, , 
82.71, 0.029356, , 
82.74, 0.029347, , 
82.77, 0.029344, , 
82.80, 0.029356, , 
82.83, 0.029350, , 
82.86, 0.029331, , 
82.89, 0.029337, , 
82.92, 0.029363, , 
82.95, 0.029369, , 
82.98, 0.029369, , 
83.02, 0.029344, , 
83.04, 0.029350, , 
83.07, 0.029344, , 
83.10, 0.029321, , 
83.13, 0.029299, , 
83.16, 0.029280, , 
83.19, 0.029198, 26, 0.586
83.21, 0.029166, , 
83.23, 0.029090, , 
83.25, 0.028976, , 
83.28, 0.028950, , 
83.31, 0.028922, , 
83.34, 0.028890, , 
83.37, 0.028887, , 
83.40, 0.028890, , 
83.43, 0.028884, , 
83.46, 0.028880, , 
83.49, 0.028858, , 
83.52, 0.028814, , 
83.55, 0.028671, , 
83.58, 0.028573, , 
83.61, 0.028478, , 
83.64, 0.028455, , 
83.67, 0.028424, , 
83.70, 0.028382, , 
83.73, 0.028370, , 
83.76, 0.028417, , 
83.79, 0.028424, , 
83.82, 0.028405, , 
83.85, 0.028373, , 
83.88, 0.028379, , 
83.91, 0.028370, , 
83.94, 0.028367, , 
83.97, 0.028357, , 
84.00, 0.028376, , 
84.03, 0.028382, , 
84.06, 0.028373, , 
84.09, 0.028392, , 
84.12, 0.028386, , 
84.15, 0.028363, , 
84.18, 0.028354, , 
84.21, 0.028332, , 
84.25, 0.028322, , 
84.27, 0.028281, , 
84.30, 0.028062, , 
84.33, 0.027980, , 
84.36, 0.027970, , 
84.39, 0.027938, , 
84.42, 0.027916, , 
84.45, 0.027923, , 
84.48, 0.027916, , 
84.51, 0.027907, , 
84.54, 0.027881, , 
84.57, 0.027884, , 
84.60, 0.027869, , 
84.63, 0.027748, , 
84.66, 0.027574, , 
84.69, 0.027491, , 
84.72, 0.027463, , 
84.75, 0.027444, , 
84.78, 0.027412, , 
84.81, 0.027380, , 
84.84, 0.027418, , 
84.87, 0.027409, , 
84.90, 0.027402, , 
84.93, 0.027399, , 
84.96, 0.027393, , 
84.99, 0.027361, , 
85.02, 0.027339, , 
85.05, 0.027345, , 
85.08, 0.027358, , 
85.11, 0.027355, , 
85.14, 0.027371, , 
85.17, 0.027374, , 
85.20, 0.027361, , 
85.23, 0.027323, , 
85.27, 0.027323, , 
85.29, 0.027342, , 
85.32, 0.027355, , 
85.35, 0.027336, , 
85.38, 0.027304, , 
85.41, 0.027174, , 
85.44, 0.027034, , 
85.47, 0.026923, , 
85.50, 0.026879, , 
85.53, 0.026882, , 
85.56, 0.026869, , 
85.59, 0.026812, , 
85.62, 0.026847, , 
85.65, 0.026866, , 
85.68, 0.026850, , 
85.71, 0.026806, , 
85.74, 0.026816, , 
85.77, 0.026869, , 
85.80, 0.026860, , 
85.83, 0.026822, , 
85.86, 0.026857, , 
85.89, 0.026844, , 
85.92, 0.026765, , 
85.95, 0.026673, , 
85.98, 0.026536, , 
86.01, 0.026457, , 
86.04, 0.026422, , 
86.07, 0.026384, , 
86.10, 0.026381, , 
86.13, 0.026378, , 
86.16, 0.026371, , 
86.19, 0.026346, , 
86.22, 0.026352, , 
86.25, 0.026378, , 
86.28, 0.026368, , 
86.31, 0.026324, , 
86.34, 0.026352, , 
86.37, 0.026356, , 
86.38, 0.026346, 27, 0.584
86.40, 0.026359, , 
86.43, 0.026352, , 
86.46, 0.026410, , 
86.49, 0.026406, , 
86.52, 0.026371, , 
86.55, 0.026337, , 
86.58, 0.026330, , 
86.61, 0.026349, , 
86.64, 0.026337, , 
86.67, 0.026343, , 
86.70, 0.026378, , 
86.73, 0.026375, , 
86.76, 0.026330, , 
86.79, 0.026343, , 
86.82, 0.026390, , 
86.85, 0.026359, , 
86.88, 0.026340, , 
86.91, 0.026343, , 
86.94, 0.026362, , 
86.97, 0.026375, , 
87.00, 0.026362, , 
87.03, 0.026356, , 
87.06, 0.026381, , 
87.09, 0.026321, , 
87.12, 0.026197, , 
87.15, 0.026064, , 
87.18, 0.026016, , 
87.21, 0.025940, , 
87.24, 0.025912, , 
87.27, 0.025905, , 
87.30, 0.025918, , 
87.33, 0.025902, , 
87.36, 0.025867, , 
87.39, 0.025899, , 
87.42, 0.025927, , 
87.45, 0.025902, , 
87.48, 0.025899, , 
87.51, 0.025899, , 
87.54, 0.025927, , 
87.57, 0.025940, , 
87.60, 0.025893, , 
87.63, 0.025902, , 
87.66, 0.025915, , 
87.69, 0.025899, , 
87.72, 0.025886, , 
87.75, 0.025816, , 
87.78, 0.025709, , 
87.81, 0.025623, , 
87.84, 0.025502, , 
87.87, 0.025486, , 
87.90, 0.025483, , 
87.93, 0.025448, , 
87.96, 0.025426, , 
87.99, 0.025429, , 
88.02, 0.025439, , 
88.05, 0.025458, , 
88.08, 0.025445, , 
88.11, 0.025433, , 
88.14, 0.025448, , 
88.17, 0.025445, , 
88.20, 0.025407, , 
88.23, 0.025436, , 
88.26, 0.025474, , 
88.29, 0.025474, , 
88.32, 0.025467, , 
88.35, 0.025467, , 
88.38, 0.025461, , 
88.41, 0.025452, , 
88.44, 0.025375, , 
88.47, 0.025249, , 
88.50, 0.025122, , 
88.53, 0.025027, , 
88.56, 0.025014, , 
88.59, 0.024976, , 
88.62, 0.024963, , 
88.65, 0.024960, , 
88.68, 0.024935, , 
88.71, 0.024957, , 
88.74, 0.024960, , 
88.77, 0.024966, , 
88.80, 0.024944, , 
88.83, 0.024982, , 
88.86, 0.024998, , 
88.89, 0.025008, , 
88.92, 0.025128, , 
88.95, 0.025249, , 
88.98, 0.025318, , 
89.01, 0.025353, , 
89.04, 0.025375, , 
89.07, 0.025388, , 
89.10, 0.025429, , 
89.13, 0.025452, , 
89.16, 0.025461, , 
89.19, 0.025464, , 
89.22, 0.025445, , 
89.25, 0.025426, , 
89.28, 0.025464, , 
89.31, 0.025471, , 
89.34, 0.025461, , 
89.37, 0.025436, , 
89.40, 0.025429, , 
89.43, 0.025458, , 
89.46, 0.025445, , 
89.49, 0.025448, , 
89.52, 0.025461, , 
89.55, 0.025467, , 
89.58, 0.025525, , 
89.61, 0.025613, , 
89.64, 0.025712, , 
89.67, 0.025832, , 
89.70, 0.025912, , 
89.73, 0.025902, , 
89.76, 0.025924, , 
89.79, 0.025937, , 
89.82, 0.025937, , 
89.85, 0.025912, , 
89.88, 0.025921, , 
89.91, 0.025946, , 
89.94, 0.025931, , 
89.97, 0.025931, , 
90.00, 0.025988, , 
90.03, 0.026067, , 
90.06, 0.026194, , 
90.09, 0.026305, , 
90.12, 0.026340, , 
90.15, 0.026406, , 
90.18, 0.026425, , 
90.21, 0.026416, , 
90.24, 0.026435, , 
90.27, 0.026441, , 
90.30, 0.026425, , 
90.33, 0.026482, , 
90.36, 0.026609, , 
90.39, 0.026752, , 
90.42, 0.026800, , 
90.45, 0.026888, , 
90.48, 0.026914, , 
90.51, 0.026923, , 
90.54, 0.026923, , 
90.57, 0.026930, , 
90.60, 0.026917, , 
90.63, 0.026917, , 
90.66, 0.026908, , 
90.69, 0.026968, , 
90.72, 0.027047, , 
90.75, 0.027212, , 
90.79, 0.027285, , 
90.81, 0.027307, , 
90.84, 0.027336, , 
90.87, 0.027355, , 
90.90, 0.027383, , 
90.93, 0.027383, , 
90.96, 0.027406, , 
90.99, 0.027421, , 
91.02, 0.027415, , 
91.05, 0.027402, , 
91.08, 0.027418, , 
91.11, 0.027402, , 
91.14, 0.027402, , 
91.17, 0.027428, , 
91.20, 0.027418, , 
91.23, 0.027402, , 
91.26, 0.027386, , 
91.29, 0.027377, , 
91.32, 0.027380, , 
91.35, 0.027383, , 
91.38, 0.027374, , 
91.41, 0.027399, , 
91.44, 0.027421, , 
91.47, 0.027409, , 
91.50, 0.027399, , 
91.53, 0.027402, , 
91.56, 0.027425, , 
91.59, 0.027412, , 
91.62, 0.027402, , 
91.65, 0.027402, , 
91.68, 0.027393, , 
91.71, 0.027396, , 
91.74, 0.027367, , 
91.77, 0.027371, , 
91.81, 0.027390, , 
91.83, 0.027396, , 
91.86, 0.027393, , 
91.89, 0.027393, , 
91.92, 0.027393, , 
91.95, 0.027390, , 
91.98, 0.027374, , 
92.01, 0.027377, , 
92.04, 0.027393, , 
92.07, 0.027377, , 
92.10, 0.027361, , 
92.13, 0.027333, , 
92.16, 0.027222, , 
92.19, 0.027072, , 
92.22, 0.026984, , 
92.25, 0.026949, , 
92.28, 0.026927, , 
92.31, 0.026885, , 
92.34, 0.026879, , 
92.37, 0.026885, , 
92.40, 0.026876, , 
92.43, 0.026863, , 
92.46, 0.026869, , 
92.49, 0.026866, , 
92.52, 0.026888, , 
92.55, 0.026857, , 
92.58, 0.026727, , 
92.61, 0.026628, , 
92.64, 0.026540, , 
92.67, 0.026419, , 
92.70, 0.026406, , 
92.73, 0.026410, , 
92.76, 0.026416, , 
92.79, 0.026384, , 
92.82, 0.026384, , 
92.85, 0.026403, , 
92.88, 0.026422, , 
92.91, 0.026387, , 
92.94, 0.026381, , 
92.97, 0.026410, , 
93.00, 0.026400, , 
93.04, 0.026390, , 
93.06, 0.026375, , 
93.09, 0.026387, , 
93.12, 0.026394, , 
93.15, 0.026314, , 
93.18, 0.026254, , 
93.21, 0.026105, , 
93.24, 0.025984, , 
93.27, 0.025962, , 
93.30, 0.025924, , 
93.33, 0.025912, , 
93.36, 0.025912, , 
93.39, 0.025889, , 
93.42, 0.025940, , 
93.45, 0.025934, , 
93.48, 0.025921, , 
93.51, 0.025912, , 
93.54, 0.025867, , 
93.57, 0.025759, , 
93.60, 0.025610, , 
93.63, 0.025566, , 
93.66, 0.025483, , 
93.69, 0.025414, , 
93.72, 0.025404, , 
93.75, 0.025388, , 
93.78, 0.025401, , 
93.81, 0.025410, , 
93.85, 0.025395, , 
93.87, 0.025395, , 
93.90, 0.025401, , 
93.93, 0.025404, , 
93.96, 0.025398, , 
93.99, 0.025407, , 
94.02, 0.025379, , 
94.05, 0.025312, , 
94.08, 0.025230, , 
94.11, 0.025100, , 
94.14, 0.025014, , 
94.17, 0.024982, , 
94.20, 0.024944, , 
94.23, 0.024909, , 
94.26, 0.024925, , 
94.29, 0.024922, , 
94.32, 0.024931, , 
94.35, 0.024957, , 
94.38, 0.024941, , 
94.41, 0.024944, , 
94.44, 0.024919, , 
94.47, 0.024906, , 
94.50, 0.024916, , 
94.53, 0.024893, , 
94.56, 0.024893, , 
94.59, 0.024890, , 
94.62, 0.024893, , 
94.65, 0.024906, , 
94.68, 0.024903, , 
94.71, 0.024903, , 
94.74, 0.024897, , 
94.77, 0.024906, , 
94.80, 0.024884, , 
94.83, 0.024900, , 
94.86, 0.024887, , 
94.89, 0.024877, , 
94.92, 0.024862, , 
94.95, 0.024868, , 
94.98, 0.024884, , 
95.01, 0.024897, , 
95.04, 0.024887, , 
95.07, 0.024871, , 
95.10, 0.024868, , 
95.13, 0.024893, , 
95.17, 0.024887, , 
95.19, 0.024884, , 
95.22, 0.024919, , 
95.25, 0.024916, , 
95.28, 0.024877, , 
95.31, 0.024871, , 
95.34, 0.024893, , 
95.37, 0.024881, , 
95.40, 0.024900, , 
95.43, 0.024916, , 
95.46, 0.024897, , 
95.49, 0.024919, , 
95.52, 0.024893, , 
95.55, 0.024858, , 
95.58, 0.024871, , 
95.61, 0.024884, , 
95.64, 0.024884, , 
95.67, 0.024839, , 
95.70, 0.024732, , 
95.73, 0.024582, , 
95.76, 0.024551, , 
95.79, 0.024481, , 
95.82, 0.024437, , 
95.85, 0.024392, , 
95.88, 0.024405, , 
95.91, 0.024408, , 
95.94, 0.024427, , 
95.97, 0.024395, , 
96.00, 0.024399, , 
