Gradient Profiler Text Data File: 20240419_BY4742_40.csv
Date: 2024-04-19
Time: 15:29:36

User: jared
Experiment name: 
UV Unit: EM-1
Rotor Manufacturer: Beckman
Rotor Model: SW28.1
Speed: 28 rpm
Gradient: sucrose 10.0% to 50.0% w/v
Time: 4
w2t:  x 10^0
Sample Volume: 18 ml
Number of Tubes: 6
Volume per mm: 0.183 ml/mm

Absorbance Units Full Scale (AUFS): 2.00
Event Mark-triggered gradient; (with distance; auto start and stop)
Delay: No Delay
UV Wavelength: 254 nm
Samples / sec: 10 Hz
EM1 Speed: 0.30 mm/sec
Distance: 3.20 mm
Number: 30
Dead Volume: 0.000000 ml; Distance due to Dead Volume: 0.00 mm
Total Distance: 96.00 mm

Data Columns:
Distance(mm), Absorbance, Fraction Number, Fraction Volume(ml)
0.00, 0.094873, 0, 0.000
0.03, 0.094946, , 
0.06, 0.094980, , 
0.09, 0.094952, , 
0.12, 0.095009, , 
0.15, 0.094990, , 
0.18, 0.094965, , 
0.21, 0.094876, , 
0.24, 0.094898, , 
0.27, 0.094987, , 
0.30, 0.094996, , 
0.33, 0.094949, , 
0.36, 0.094961, , 
0.39, 0.095101, , 
0.42, 0.095228, , 
0.45, 0.095247, , 
0.48, 0.095298, , 
0.51, 0.095418, , 
0.54, 0.095675, , 
0.58, 0.097696, , 
0.60, 0.102593, , 
0.63, 0.116886, , 
0.66, 0.151197, , 
0.69, 0.196162, , 
0.72, 0.262078, , 
0.75, 0.325504, , 
0.78, 0.392273, , 
0.81, 0.460892, , 
0.84, 0.530382, , 
0.87, 0.612091, , 
0.90, 0.682394, , 
0.93, 0.753100, , 
0.96, 0.836106, , 
0.99, 0.895681, , 
1.02, 0.979081, , 
1.05, 1.050719, , 
1.08, 1.122072, , 
1.11, 1.202982, , 
1.14, 1.266357, , 
1.17, 1.326275, , 
1.20, 1.357372, , 
1.23, 1.382830, , 
1.26, 1.400638, , 
1.29, 1.409744, , 
1.32, 1.416589, , 
1.35, 1.420833, , 
1.38, 1.424414, , 
1.41, 1.427900, , 
1.44, 1.431212, , 
1.47, 1.434669, , 
1.50, 1.437283, , 
1.53, 1.439687, , 
1.56, 1.442460, , 
1.59, 1.444556, , 
1.62, 1.446355, , 
1.65, 1.447845, , 
1.68, 1.448838, , 
1.71, 1.449092, , 
1.74, 1.448515, , 
1.77, 1.446948, , 
1.80, 1.444858, , 
1.83, 1.442440, , 
1.86, 1.438260, , 
1.89, 1.433959, , 
1.92, 1.427865, , 
1.95, 1.421690, , 
1.98, 1.414715, , 
2.01, 1.406011, , 
2.04, 1.399331, , 
2.07, 1.388920, , 
2.10, 1.379056, , 
2.13, 1.368290, , 
2.16, 1.354616, , 
2.19, 1.341700, , 
2.22, 1.325599, , 
2.25, 1.313663, , 
2.28, 1.298790, , 
2.31, 1.280691, , 
2.34, 1.264841, , 
2.37, 1.246037, , 
2.40, 1.229692, , 
2.43, 1.213008, , 
2.46, 1.196235, , 
2.49, 1.179357, , 
2.52, 1.159130, , 
2.55, 1.141332, , 
2.58, 1.123496, , 
2.61, 1.102971, , 
2.64, 1.085563, , 
2.67, 1.068419, , 
2.70, 1.051741, , 
2.73, 1.035646, , 
2.76, 1.017322, , 
2.79, 1.001726, , 
2.82, 0.983877, , 
2.85, 0.968750, , 
2.88, 0.956177, , 
2.91, 0.938601, , 
2.94, 0.923696, , 
2.97, 0.909054, , 
3.00, 0.892151, , 
3.03, 0.877789, , 
3.06, 0.861234, , 
3.09, 0.846945, , 
3.12, 0.834936, , 
3.15, 0.818051, , 
3.18, 0.803692, , 
3.19, 0.798960, 1, 0.584
3.21, 0.787176, , 
3.24, 0.775449, , 
3.27, 0.759161, , 
3.30, 0.745408, , 
3.33, 0.729796, , 
3.36, 0.716546, , 
3.39, 0.703637, , 
3.43, 0.689027, , 
3.45, 0.678775, , 
3.48, 0.664374, , 
3.51, 0.652083, , 
3.54, 0.640109, , 
3.57, 0.626470, , 
3.60, 0.615114, , 
3.63, 0.604339, , 
3.66, 0.594179, , 
3.69, 0.584350, , 
3.72, 0.572978, , 
3.75, 0.563409, , 
3.78, 0.552618, , 
3.81, 0.543641, , 
3.84, 0.534795, , 
3.87, 0.524641, , 
3.90, 0.517574, , 
3.93, 0.509099, , 
3.96, 0.499538, , 
3.99, 0.491659, , 
4.02, 0.482873, , 
4.05, 0.475495, , 
4.08, 0.468105, , 
4.11, 0.460670, , 
4.14, 0.453244, , 
4.17, 0.444591, , 
4.20, 0.437229, , 
4.23, 0.430060, , 
4.26, 0.421896, , 
4.30, 0.414880, , 
4.32, 0.407873, , 
4.35, 0.401205, , 
4.38, 0.394900, , 
4.41, 0.387639, , 
4.44, 0.381419, , 
4.47, 0.374383, , 
4.51, 0.368350, , 
4.53, 0.363228, , 
4.56, 0.356215, , 
4.59, 0.350600, , 
4.62, 0.344469, , 
4.65, 0.339242, , 
4.68, 0.334182, , 
4.72, 0.328517, , 
4.74, 0.324546, , 
4.77, 0.319290, , 
4.80, 0.314907, , 
4.83, 0.310777, , 
4.86, 0.306035, , 
4.89, 0.301886, , 
4.93, 0.297144, , 
4.95, 0.293861, , 
4.98, 0.290007, , 
5.01, 0.285779, , 
5.04, 0.282270, , 
5.07, 0.278372, , 
5.10, 0.275010, , 
5.13, 0.272149, , 
5.16, 0.268247, , 
5.19, 0.265044, , 
5.22, 0.261320, , 
5.25, 0.258100, , 
5.28, 0.255020, , 
5.31, 0.251639, , 
5.34, 0.249222, , 
5.37, 0.245863, , 
5.40, 0.243088, , 
5.43, 0.240407, , 
5.46, 0.237172, , 
5.49, 0.234368, , 
5.52, 0.231323, , 
5.55, 0.229280, , 
5.58, 0.226927, , 
5.61, 0.224135, , 
5.64, 0.221870, , 
5.67, 0.219733, , 
5.70, 0.217192, , 
5.73, 0.215035, , 
5.76, 0.212989, , 
5.79, 0.210794, , 
5.82, 0.208827, , 
5.85, 0.206899, , 
5.88, 0.205196, , 
5.91, 0.203454, , 
5.94, 0.201237, , 
5.97, 0.199565, , 
6.00, 0.197723, , 
6.04, 0.196105, , 
6.06, 0.194697, , 
6.09, 0.192657, , 
6.12, 0.191087, , 
6.15, 0.189215, , 
6.18, 0.187474, , 
6.21, 0.185790, , 
6.25, 0.183868, , 
6.27, 0.182491, , 
6.30, 0.180512, , 
6.33, 0.178859, , 
6.36, 0.177241, , 
6.39, 0.175611, 2, 0.585
6.39, 0.175345, , 
6.42, 0.173740, , 
6.45, 0.172217, , 
6.48, 0.170688, , 
6.51, 0.169270, , 
6.54, 0.167618, , 
6.57, 0.166377, , 
6.60, 0.164991, , 
6.63, 0.163656, , 
6.66, 0.162286, , 
6.69, 0.161052, , 
6.72, 0.159935, , 
6.75, 0.158565, , 
6.78, 0.157407, , 
6.81, 0.156338, , 
6.84, 0.155101, , 
6.87, 0.154254, , 
6.90, 0.153036, , 
6.93, 0.152053, , 
6.96, 0.151092, , 
6.99, 0.149836, , 
7.02, 0.148703, , 
7.05, 0.147482, , 
7.08, 0.146699, , 
7.11, 0.145643, , 
7.14, 0.144358, , 
7.17, 0.143429, , 
7.20, 0.142429, , 
7.23, 0.141471, , 
7.26, 0.140564, , 
7.29, 0.139698, , 
7.32, 0.138877, , 
7.35, 0.137748, , 
7.38, 0.136840, , 
7.41, 0.136009, , 
7.44, 0.135064, , 
7.47, 0.134236, , 
7.50, 0.133615, , 
7.53, 0.132895, , 
7.56, 0.132232, , 
7.59, 0.131426, , 
7.62, 0.130801, , 
7.65, 0.130214, , 
7.68, 0.129608, , 
7.71, 0.129012, , 
7.74, 0.128371, , 
7.77, 0.127877, , 
7.80, 0.127242, , 
7.83, 0.126468, , 
7.86, 0.126056, , 
7.89, 0.125640, , 
7.92, 0.125225, , 
7.95, 0.124638, , 
7.98, 0.124105, , 
8.01, 0.123832, , 
8.04, 0.123322, , 
8.07, 0.122792, , 
8.10, 0.122294, , 
8.13, 0.121799, , 
8.16, 0.121177, , 
8.19, 0.120502, , 
8.22, 0.120029, , 
8.25, 0.119655, , 
8.28, 0.119071, , 
8.31, 0.118586, , 
8.34, 0.118256, , 
8.37, 0.117863, , 
8.40, 0.117320, , 
8.43, 0.116806, , 
8.46, 0.116473, , 
8.49, 0.116134, , 
8.52, 0.115722, , 
8.55, 0.115417, , 
8.58, 0.115084, , 
8.61, 0.114637, , 
8.64, 0.114247, , 
8.67, 0.113926, , 
8.70, 0.113708, , 
8.73, 0.113416, , 
8.76, 0.113156, , 
8.79, 0.112965, , 
8.82, 0.112804, , 
8.85, 0.112509, , 
8.88, 0.112163, , 
8.91, 0.111985, , 
8.94, 0.111909, , 
8.97, 0.111757, , 
9.00, 0.111471, , 
9.03, 0.111354, , 
9.06, 0.111227, , 
9.09, 0.110970, , 
9.12, 0.110751, , 
9.15, 0.110621, , 
9.18, 0.110507, , 
9.21, 0.110402, , 
9.24, 0.110288, , 
9.27, 0.110158, , 
9.30, 0.110082, , 
9.33, 0.109942, , 
9.36, 0.109882, , 
9.39, 0.109860, , 
9.42, 0.109879, , 
9.45, 0.109879, , 
9.48, 0.110000, , 
9.51, 0.110180, , 
9.54, 0.110291, , 
9.57, 0.110314, , 
9.59, 0.110345, 3, 0.586
9.60, 0.110364, , 
9.63, 0.110621, , 
9.66, 0.110770, , 
9.69, 0.110818, , 
9.72, 0.110999, , 
9.75, 0.111237, , 
9.78, 0.111474, , 
9.81, 0.111611, , 
9.84, 0.111817, , 
9.87, 0.112106, , 
9.90, 0.112233, , 
9.93, 0.112356, , 
9.96, 0.112547, , 
9.99, 0.112712, , 
10.02, 0.112873, , 
10.05, 0.112934, , 
10.08, 0.113114, , 
10.11, 0.113352, , 
10.14, 0.113505, , 
10.17, 0.113543, , 
10.20, 0.113673, , 
10.23, 0.113863, , 
10.26, 0.113885, , 
10.29, 0.113971, , 
10.32, 0.114110, , 
10.35, 0.114266, , 
10.38, 0.114339, , 
10.41, 0.114380, , 
10.44, 0.114589, , 
10.47, 0.114723, , 
10.50, 0.114675, , 
10.53, 0.114672, , 
10.56, 0.114697, , 
10.59, 0.114767, , 
10.62, 0.114735, , 
10.65, 0.114653, , 
10.68, 0.114719, , 
10.71, 0.114767, , 
10.74, 0.114643, , 
10.77, 0.114485, , 
10.80, 0.114434, , 
10.83, 0.114329, , 
10.86, 0.114180, , 
10.89, 0.114015, , 
10.92, 0.113920, , 
10.95, 0.113790, , 
10.98, 0.113533, , 
11.01, 0.113371, , 
11.04, 0.113210, , 
11.07, 0.112997, , 
11.10, 0.112712, , 
11.13, 0.112483, , 
11.16, 0.112350, , 
11.19, 0.112077, , 
11.22, 0.111776, , 
11.25, 0.111551, , 
11.28, 0.111243, , 
11.31, 0.110999, , 
11.34, 0.110621, , 
11.37, 0.110510, , 
11.40, 0.110320, , 
11.43, 0.109854, , 
11.46, 0.109574, , 
11.49, 0.109333, , 
11.52, 0.109080, , 
11.55, 0.108693, , 
11.58, 0.108303, , 
11.61, 0.108084, , 
11.64, 0.107687, , 
11.67, 0.107367, , 
11.70, 0.107062, , 
11.73, 0.106786, , 
11.76, 0.106368, , 
11.79, 0.105952, , 
11.82, 0.105533, , 
11.85, 0.105159, , 
11.88, 0.104747, , 
11.91, 0.104078, , 
11.94, 0.103754, , 
11.97, 0.103599, , 
12.00, 0.103151, , 
12.03, 0.102726, , 
12.06, 0.102330, , 
12.09, 0.102038, , 
12.12, 0.101565, , 
12.15, 0.100991, , 
12.18, 0.100630, , 
12.21, 0.100208, , 
12.24, 0.099700, , 
12.27, 0.099180, , 
12.30, 0.098768, , 
12.33, 0.098558, , 
12.36, 0.098200, , 
12.39, 0.097813, , 
12.42, 0.097518, , 
12.45, 0.097064, , 
12.48, 0.096643, , 
12.51, 0.096198, , 
12.54, 0.095894, , 
12.57, 0.095596, , 
12.60, 0.095088, , 
12.63, 0.094733, , 
12.66, 0.094340, , 
12.69, 0.093991, , 
12.72, 0.093578, , 
12.75, 0.093195, , 
12.78, 0.092928, 4, 0.584
12.79, 0.092871, , 
12.81, 0.092567, , 
12.84, 0.092113, , 
12.87, 0.091723, , 
12.90, 0.091469, , 
12.93, 0.091123, , 
12.96, 0.090714, , 
12.99, 0.090438, , 
13.02, 0.090089, , 
13.05, 0.089794, , 
13.08, 0.089395, , 
13.11, 0.089106, , 
13.14, 0.088928, , 
13.17, 0.088573, , 
13.20, 0.088237, , 
13.23, 0.087967, , 
13.26, 0.087882, , 
13.29, 0.087618, , 
13.32, 0.087257, , 
13.35, 0.087152, , 
13.38, 0.087032, , 
13.41, 0.086870, , 
13.44, 0.086600, , 
13.47, 0.086445, , 
13.50, 0.086378, , 
13.53, 0.086223, , 
13.56, 0.086048, , 
13.59, 0.085902, , 
13.62, 0.085861, , 
13.65, 0.085630, , 
13.68, 0.085449, , 
13.71, 0.085366, , 
13.74, 0.085277, , 
13.77, 0.085100, , 
13.80, 0.084989, , 
13.83, 0.084929, , 
13.86, 0.084795, , 
13.89, 0.084662, , 
13.92, 0.084532, , 
13.95, 0.084557, , 
13.98, 0.084516, , 
14.01, 0.084358, , 
14.04, 0.084215, , 
14.07, 0.084215, , 
14.10, 0.084186, , 
14.13, 0.083967, , 
14.16, 0.083847, , 
14.19, 0.083875, , 
14.22, 0.083736, , 
14.25, 0.083631, , 
14.28, 0.083619, , 
14.31, 0.083672, , 
14.34, 0.083647, , 
14.37, 0.083406, , 
14.40, 0.083266, , 
14.43, 0.083289, , 
14.46, 0.083174, , 
14.49, 0.082968, , 
14.52, 0.082937, , 
14.55, 0.083035, , 
14.59, 0.082959, , 
14.61, 0.082899, , 
14.64, 0.082807, , 
14.67, 0.082724, , 
14.70, 0.082610, , 
14.73, 0.082432, , 
14.76, 0.082432, , 
14.80, 0.082366, , 
14.82, 0.082223, , 
14.85, 0.082112, , 
14.88, 0.082048, , 
14.91, 0.081903, , 
14.94, 0.081760, , 
14.98, 0.081601, , 
15.00, 0.081516, , 
15.03, 0.081427, , 
15.06, 0.081205, , 
15.09, 0.081043, , 
15.12, 0.080932, , 
15.15, 0.080843, , 
15.18, 0.080608, , 
15.21, 0.080415, , 
15.24, 0.080317, , 
15.27, 0.080183, , 
15.30, 0.080015, , 
15.33, 0.079844, , 
15.36, 0.079777, , 
15.39, 0.079711, , 
15.42, 0.079447, , 
15.45, 0.079340, , 
15.48, 0.079321, , 
15.51, 0.079187, , 
15.54, 0.079060, , 
15.57, 0.078896, , 
15.60, 0.078848, , 
15.63, 0.078743, , 
15.66, 0.078569, , 
15.69, 0.078486, , 
15.72, 0.078363, , 
15.75, 0.078274, , 
15.78, 0.078096, , 
15.81, 0.078080, , 
15.84, 0.078087, , 
15.87, 0.077887, , 
15.90, 0.077643, , 
15.93, 0.077601, , 
15.96, 0.077608, , 
15.99, 0.077547, 5, 0.587
16.00, 0.077544, , 
16.02, 0.077516, , 
16.05, 0.077563, , 
16.08, 0.077630, , 
16.11, 0.077563, , 
16.14, 0.077538, , 
16.17, 0.077595, , 
16.20, 0.077655, , 
16.23, 0.077649, , 
16.26, 0.077763, , 
16.29, 0.077957, , 
16.32, 0.078131, , 
16.35, 0.078198, , 
16.38, 0.078325, , 
16.41, 0.078712, , 
16.44, 0.078924, , 
16.47, 0.079013, , 
16.50, 0.079355, , 
16.53, 0.079717, , 
16.56, 0.080063, , 
16.59, 0.080374, , 
16.62, 0.080713, , 
16.65, 0.081332, , 
16.68, 0.081880, , 
16.71, 0.082337, , 
16.74, 0.082829, , 
16.77, 0.083400, , 
16.80, 0.084161, , 
16.83, 0.084884, , 
16.86, 0.085661, , 
16.89, 0.086438, , 
16.92, 0.087196, , 
16.95, 0.088012, , 
16.98, 0.088887, , 
17.01, 0.089962, , 
17.04, 0.090939, , 
17.07, 0.091812, , 
17.10, 0.093096, , 
17.13, 0.093981, , 
17.16, 0.095110, , 
17.19, 0.096129, , 
17.22, 0.097432, , 
17.25, 0.098898, , 
17.28, 0.100030, , 
17.31, 0.101134, , 
17.34, 0.102609, , 
17.38, 0.103865, , 
17.40, 0.104975, , 
17.43, 0.106136, , 
17.46, 0.107402, , 
17.49, 0.108823, , 
17.52, 0.109901, , 
17.55, 0.111214, , 
17.58, 0.112163, , 
17.61, 0.113251, , 
17.64, 0.114355, , 
17.67, 0.115332, , 
17.70, 0.116670, , 
17.73, 0.117638, , 
17.76, 0.118396, , 
17.79, 0.119097, , 
17.82, 0.119959, , 
17.85, 0.120692, , 
17.88, 0.121399, , 
17.91, 0.122018, , 
17.94, 0.122786, , 
17.97, 0.123322, , 
18.00, 0.123629, , 
18.03, 0.123994, , 
18.06, 0.124276, , 
18.09, 0.124571, , 
18.12, 0.124720, , 
18.15, 0.124949, , 
18.18, 0.125136, , 
18.21, 0.125149, , 
18.24, 0.125044, , 
18.27, 0.125034, , 
18.30, 0.125057, , 
18.33, 0.124828, , 
18.36, 0.124575, , 
18.39, 0.124384, , 
18.42, 0.124169, , 
18.45, 0.123966, , 
18.48, 0.123591, , 
18.51, 0.123322, , 
18.54, 0.122992, , 
18.57, 0.122513, , 
18.60, 0.122005, , 
18.63, 0.121590, , 
18.66, 0.121209, , 
18.69, 0.120797, , 
18.72, 0.120423, , 
18.75, 0.120175, , 
18.78, 0.119810, , 
18.81, 0.119350, , 
18.84, 0.118827, , 
18.87, 0.118440, , 
18.90, 0.118139, , 
18.93, 0.117571, , 
18.96, 0.117101, , 
18.99, 0.116695, , 
19.02, 0.116232, , 
19.05, 0.115741, , 
19.08, 0.115170, , 
19.11, 0.114916, , 
19.14, 0.114491, , 
19.17, 0.113961, , 
19.19, 0.113650, 6, 0.586
19.20, 0.113508, , 
19.23, 0.113073, , 
19.26, 0.112664, , 
19.29, 0.112099, , 
19.32, 0.111684, , 
19.35, 0.111297, , 
19.38, 0.110796, , 
19.41, 0.110314, , 
19.44, 0.109787, , 
19.47, 0.109444, , 
19.50, 0.108975, , 
19.53, 0.108439, , 
19.56, 0.107998, , 
19.59, 0.107617, , 
19.62, 0.107123, , 
19.65, 0.106663, , 
19.68, 0.106311, , 
19.71, 0.106035, , 
19.74, 0.105635, , 
19.77, 0.105219, , 
19.80, 0.104807, , 
19.83, 0.104353, , 
19.86, 0.103944, , 
19.89, 0.103332, , 
19.93, 0.103005, , 
19.95, 0.102729, , 
19.98, 0.102231, , 
20.01, 0.101867, , 
20.04, 0.101619, , 
20.07, 0.101283, , 
20.10, 0.100833, , 
20.14, 0.100278, , 
20.16, 0.099951, , 
20.19, 0.099691, , 
20.22, 0.099228, , 
20.25, 0.098774, , 
20.28, 0.098447, , 
20.31, 0.098159, , 
20.34, 0.097822, , 
20.37, 0.097540, , 
20.40, 0.097204, , 
20.43, 0.096804, , 
20.46, 0.096328, , 
20.49, 0.095967, , 
20.52, 0.095726, , 
20.55, 0.095450, , 
20.58, 0.094996, , 
20.61, 0.094574, , 
20.64, 0.094368, , 
20.67, 0.094073, , 
20.70, 0.093655, , 
20.73, 0.093249, , 
20.76, 0.093115, , 
20.79, 0.092823, , 
20.82, 0.092354, , 
20.85, 0.092078, , 
20.88, 0.091942, , 
20.91, 0.091713, , 
20.94, 0.091374, , 
20.97, 0.091184, , 
21.00, 0.090958, , 
21.03, 0.090670, , 
21.06, 0.090410, , 
21.09, 0.090210, , 
21.12, 0.090083, , 
21.15, 0.089851, , 
21.18, 0.089518, , 
21.21, 0.089280, , 
21.24, 0.089188, , 
21.27, 0.089011, , 
21.30, 0.088808, , 
21.33, 0.088627, , 
21.36, 0.088506, , 
21.39, 0.088395, , 
21.42, 0.088170, , 
21.45, 0.088028, , 
21.48, 0.088123, , 
21.51, 0.088024, , 
21.54, 0.087910, , 
21.57, 0.087872, , 
21.60, 0.087799, , 
21.63, 0.087625, , 
21.66, 0.087482, , 
21.69, 0.087488, , 
21.72, 0.087511, , 
21.75, 0.087583, , 
21.78, 0.087726, , 
21.81, 0.087809, , 
21.84, 0.087923, , 
21.87, 0.088034, , 
21.90, 0.088078, , 
21.93, 0.088313, , 
21.96, 0.088564, , 
21.99, 0.088786, , 
22.02, 0.088973, , 
22.05, 0.089414, , 
22.08, 0.089832, , 
22.11, 0.090210, , 
22.14, 0.090721, , 
22.17, 0.091418, , 
22.20, 0.092376, , 
22.23, 0.093084, , 
22.26, 0.093953, , 
22.29, 0.095031, , 
22.32, 0.096122, , 
22.35, 0.097264, , 
22.38, 0.098596, , 
22.39, 0.099142, 7, 0.586
22.41, 0.100287, , 
22.44, 0.102393, , 
22.47, 0.104315, , 
22.50, 0.106815, , 
22.53, 0.109346, , 
22.56, 0.111617, , 
22.59, 0.114967, , 
22.62, 0.118136, , 
22.65, 0.122300, , 
22.68, 0.126157, , 
22.71, 0.130246, , 
22.74, 0.135461, , 
22.77, 0.139591, , 
22.80, 0.145589, , 
22.83, 0.151051, , 
22.86, 0.156897, , 
22.89, 0.164129, , 
22.92, 0.170666, , 
22.95, 0.178640, , 
22.98, 0.184727, , 
23.01, 0.192356, , 
23.04, 0.201516, , 
23.07, 0.209633, , 
23.10, 0.219526, , 
23.13, 0.228303, , 
23.16, 0.237108, , 
23.19, 0.246136, , 
23.22, 0.255322, , 
23.25, 0.266303, , 
23.28, 0.275812, , 
23.31, 0.285344, , 
23.34, 0.296478, , 
23.37, 0.306082, , 
23.40, 0.315519, , 
23.43, 0.324787, , 
23.46, 0.334147, , 
23.49, 0.344910, , 
23.52, 0.353696, , 
23.55, 0.363593, , 
23.58, 0.372033, , 
23.61, 0.378875, , 
23.64, 0.388074, , 
23.67, 0.395686, , 
23.70, 0.404171, , 
23.73, 0.410997, , 
23.76, 0.417335, , 
23.79, 0.424335, , 
23.82, 0.429163, , 
23.85, 0.435370, , 
23.88, 0.440179, , 
23.91, 0.444597, , 
23.94, 0.449450, , 
23.97, 0.453200, , 
24.00, 0.456936, , 
24.03, 0.459426, , 
24.06, 0.462259, , 
24.09, 0.465028, , 
24.12, 0.466864, , 
24.15, 0.468704, , 
24.18, 0.470106, , 
24.21, 0.471216, , 
24.24, 0.472136, , 
24.27, 0.472574, , 
24.30, 0.472869, , 
24.33, 0.472939, , 
24.36, 0.472542, , 
24.39, 0.471981, , 
24.42, 0.471422, , 
24.45, 0.470614, , 
24.48, 0.469478, , 
24.51, 0.468244, , 
24.54, 0.466906, , 
24.57, 0.465006, , 
24.60, 0.463172, , 
24.63, 0.461187, , 
24.66, 0.458941, , 
24.69, 0.457215, , 
24.72, 0.454519, , 
24.75, 0.452162, , 
24.78, 0.449235, , 
24.81, 0.446494, , 
24.84, 0.443690, , 
24.87, 0.440452, , 
24.90, 0.438136, , 
24.93, 0.434546, , 
24.96, 0.431313, , 
24.99, 0.428164, , 
25.02, 0.424529, , 
25.05, 0.421198, , 
25.08, 0.417779, , 
25.11, 0.414397, , 
25.14, 0.410509, , 
25.17, 0.406997, , 
25.20, 0.402785, , 
25.23, 0.399153, , 
25.26, 0.396086, , 
25.29, 0.391747, , 
25.32, 0.388023, , 
25.35, 0.383636, , 
25.38, 0.379928, , 
25.41, 0.376084, , 
25.44, 0.371576, , 
25.47, 0.368468, , 
25.50, 0.363995, , 
25.53, 0.360348, , 
25.56, 0.356012, , 
25.59, 0.352164, 8, 0.585
25.59, 0.351555, , 
25.62, 0.347819, , 
25.66, 0.343349, , 
25.68, 0.340174, , 
25.71, 0.336390, , 
25.74, 0.332051, , 
25.77, 0.328232, , 
25.80, 0.323943, , 
25.83, 0.320232, , 
25.86, 0.317187, , 
25.89, 0.312978, , 
25.92, 0.309235, , 
25.95, 0.305632, , 
25.98, 0.301461, , 
26.01, 0.297794, , 
26.04, 0.293747, , 
26.07, 0.290416, , 
26.10, 0.287568, , 
26.13, 0.283527, , 
26.16, 0.280199, , 
26.19, 0.276453, , 
26.22, 0.273129, , 
26.25, 0.269757, , 
26.29, 0.266059, , 
26.31, 0.263857, , 
26.34, 0.260419, , 
26.37, 0.256714, , 
26.40, 0.253742, , 
26.43, 0.250767, , 
26.46, 0.247192, , 
26.49, 0.244198, , 
26.52, 0.240988, , 
26.55, 0.238190, , 
26.58, 0.235865, , 
26.61, 0.232658, , 
26.64, 0.230060, , 
26.67, 0.227050, , 
26.70, 0.224379, , 
26.73, 0.221842, , 
26.76, 0.218975, , 
26.79, 0.216983, , 
26.82, 0.214080, , 
26.85, 0.211651, , 
26.88, 0.209398, , 
26.91, 0.206677, , 
26.94, 0.204216, , 
26.97, 0.201497, , 
27.00, 0.199648, , 
27.03, 0.197450, , 
27.06, 0.194744, , 
27.09, 0.192632, , 
27.12, 0.190230, , 
27.15, 0.188181, , 
27.18, 0.186024, , 
27.21, 0.183918, , 
27.24, 0.181885, , 
27.27, 0.179509, , 
27.30, 0.177400, , 
27.33, 0.175478, , 
27.36, 0.173248, , 
27.39, 0.171265, , 
27.42, 0.169305, , 
27.45, 0.167348, , 
27.48, 0.165505, , 
27.51, 0.163253, , 
27.54, 0.161363, , 
27.57, 0.159428, , 
27.60, 0.157693, , 
27.63, 0.156269, , 
27.66, 0.154292, , 
27.69, 0.152710, , 
27.72, 0.150794, , 
27.75, 0.149182, , 
27.78, 0.147584, , 
27.81, 0.145820, , 
27.84, 0.144580, , 
27.87, 0.142683, , 
27.90, 0.141234, , 
27.93, 0.139816, , 
27.96, 0.138109, , 
27.99, 0.136568, , 
28.02, 0.134915, , 
28.05, 0.133906, , 
28.08, 0.132546, , 
28.11, 0.130766, , 
28.14, 0.129351, , 
28.17, 0.127800, , 
28.20, 0.126497, , 
28.23, 0.125234, , 
28.26, 0.124096, , 
28.29, 0.122846, , 
28.32, 0.121412, , 
28.35, 0.120197, , 
28.38, 0.118979, , 
28.41, 0.117783, , 
28.44, 0.116680, , 
28.47, 0.115623, , 
28.50, 0.114529, , 
28.53, 0.113451, , 
28.56, 0.112220, , 
28.59, 0.111087, , 
28.62, 0.109914, , 
28.66, 0.108985, , 
28.68, 0.108204, , 
28.71, 0.107075, , 
28.74, 0.106339, , 
28.77, 0.105489, , 
28.79, 0.105086, 9, 0.586
28.80, 0.104661, , 
28.83, 0.103846, , 
28.87, 0.102869, , 
28.89, 0.102206, , 
28.92, 0.101058, , 
28.95, 0.100227, , 
28.98, 0.099443, , 
29.01, 0.098568, , 
29.04, 0.097848, , 
29.07, 0.097042, , 
29.10, 0.096319, , 
29.13, 0.095631, , 
29.16, 0.095063, , 
29.19, 0.094156, , 
29.22, 0.093505, , 
29.25, 0.092586, , 
29.28, 0.091891, , 
29.31, 0.091228, , 
29.34, 0.090467, , 
29.37, 0.089921, , 
29.40, 0.089122, , 
29.43, 0.088484, , 
29.46, 0.087989, , 
29.49, 0.087269, , 
29.52, 0.086565, , 
29.56, 0.085890, , 
29.58, 0.085401, , 
29.61, 0.084719, , 
29.64, 0.083917, , 
29.67, 0.083279, , 
29.70, 0.082550, , 
29.73, 0.081880, , 
29.76, 0.081214, , 
29.79, 0.080523, , 
29.82, 0.079838, , 
29.85, 0.079013, , 
29.88, 0.078445, , 
29.91, 0.077998, , 
29.94, 0.077462, , 
29.97, 0.076900, , 
30.00, 0.076450, , 
30.03, 0.076069, , 
30.06, 0.075689, , 
30.09, 0.075064, , 
30.12, 0.074585, , 
30.15, 0.074157, , 
30.18, 0.073811, , 
30.21, 0.073278, , 
30.24, 0.072774, , 
30.27, 0.072371, , 
30.30, 0.071895, , 
30.33, 0.071505, , 
30.36, 0.071197, , 
30.39, 0.070950, , 
30.42, 0.070585, , 
30.45, 0.070052, , 
30.48, 0.069722, , 
30.51, 0.069503, , 
30.54, 0.069104, , 
30.57, 0.068641, , 
30.60, 0.068254, , 
30.63, 0.068101, , 
30.66, 0.067845, , 
30.69, 0.067347, , 
30.72, 0.067023, , 
30.75, 0.066734, , 
30.78, 0.066389, , 
30.81, 0.066002, , 
30.84, 0.065719, , 
30.87, 0.065389, , 
30.90, 0.065082, , 
30.93, 0.064749, , 
30.96, 0.064482, , 
30.99, 0.064301, , 
31.02, 0.063889, , 
31.05, 0.063696, , 
31.08, 0.063572, , 
31.11, 0.063353, , 
31.14, 0.062985, , 
31.17, 0.062696, , 
31.20, 0.062557, , 
31.23, 0.062322, , 
31.27, 0.062065, , 
31.29, 0.061913, , 
31.32, 0.061821, , 
31.35, 0.061631, , 
31.38, 0.061355, , 
31.41, 0.061310, , 
31.44, 0.061152, , 
31.48, 0.061003, , 
31.50, 0.060831, , 
31.53, 0.060803, , 
31.56, 0.060800, , 
31.59, 0.060746, , 
31.62, 0.060730, , 
31.65, 0.060676, , 
31.68, 0.060654, , 
31.71, 0.060533, , 
31.74, 0.060308, , 
31.77, 0.060318, , 
31.80, 0.060302, , 
31.83, 0.060153, , 
31.86, 0.060149, , 
31.89, 0.060191, , 
31.92, 0.060099, , 
31.95, 0.059946, , 
31.98, 0.059753, , 
31.99, 0.059740, 10, 0.586
32.01, 0.059721, , 
32.04, 0.059620, , 
32.07, 0.059379, , 
32.10, 0.059179, , 
32.13, 0.058985, , 
32.16, 0.058877, , 
32.19, 0.058693, , 
32.22, 0.058617, , 
32.25, 0.058668, , 
32.28, 0.058640, , 
32.31, 0.058630, , 
32.34, 0.058614, , 
32.37, 0.058703, , 
32.40, 0.058732, , 
32.43, 0.058601, , 
32.46, 0.058573, , 
32.49, 0.058700, , 
32.52, 0.058655, , 
32.56, 0.058582, , 
32.58, 0.058627, , 
32.61, 0.058687, , 
32.64, 0.058655, , 
32.67, 0.058560, , 
32.70, 0.058605, , 
32.73, 0.058725, , 
32.77, 0.058763, , 
32.79, 0.058827, , 
32.82, 0.059049, , 
32.85, 0.059141, , 
32.88, 0.058935, , 
32.91, 0.058703, , 
32.94, 0.058719, , 
32.98, 0.058709, , 
33.00, 0.058649, , 
33.03, 0.058544, , 
33.06, 0.058598, , 
33.09, 0.058646, , 
33.12, 0.058621, , 
33.15, 0.058741, , 
33.18, 0.058868, , 
33.21, 0.059036, , 
33.24, 0.059065, , 
33.27, 0.059036, , 
33.30, 0.059093, , 
33.33, 0.059185, , 
33.36, 0.059106, , 
33.39, 0.059131, , 
33.42, 0.059191, , 
33.45, 0.059207, , 
33.48, 0.059131, , 
33.51, 0.059128, , 
33.54, 0.059195, , 
33.57, 0.059157, , 
33.60, 0.059134, , 
33.63, 0.059125, , 
33.66, 0.059195, , 
33.69, 0.059261, , 
33.72, 0.059274, , 
33.75, 0.059445, , 
33.78, 0.059632, , 
33.81, 0.059639, , 
33.84, 0.059588, , 
33.87, 0.059610, , 
33.90, 0.059715, , 
33.93, 0.059648, , 
33.96, 0.059467, , 
33.99, 0.059455, , 
34.02, 0.059414, , 
34.05, 0.059277, , 
34.08, 0.059153, , 
34.11, 0.059182, , 
34.14, 0.059245, , 
34.17, 0.059172, , 
34.20, 0.059176, , 
34.23, 0.059195, , 
34.26, 0.059115, , 
34.29, 0.058912, , 
34.32, 0.058747, , 
34.35, 0.058700, , 
34.38, 0.058586, , 
34.41, 0.058345, , 
34.44, 0.058230, , 
34.47, 0.058307, , 
34.50, 0.058287, , 
34.53, 0.058126, , 
34.56, 0.058253, , 
34.59, 0.058579, , 
34.62, 0.058827, , 
34.65, 0.058858, , 
34.68, 0.058906, , 
34.71, 0.059023, , 
34.74, 0.058906, , 
34.77, 0.058646, , 
34.80, 0.058582, , 
34.83, 0.058497, , 
34.86, 0.058354, , 
34.89, 0.058126, , 
34.92, 0.058015, , 
34.95, 0.057967, , 
34.98, 0.057758, , 
35.01, 0.057447, , 
35.04, 0.057304, , 
35.07, 0.057060, , 
35.10, 0.056575, , 
35.13, 0.056105, , 
35.16, 0.055693, , 
35.19, 0.055388, 11, 0.585
35.19, 0.055309, , 
35.22, 0.054754, , 
35.25, 0.054418, , 
35.28, 0.054164, , 
35.31, 0.053996, , 
35.34, 0.053767, , 
35.37, 0.053526, , 
35.40, 0.053438, , 
35.43, 0.053361, , 
35.46, 0.053105, , 
35.49, 0.052990, , 
35.52, 0.052917, , 
35.55, 0.052775, , 
35.58, 0.052673, , 
35.61, 0.052775, , 
35.64, 0.052978, , 
35.67, 0.053041, , 
35.70, 0.053066, , 
35.73, 0.053174, , 
35.76, 0.053295, , 
35.79, 0.053254, , 
35.82, 0.053124, , 
35.85, 0.053146, , 
35.89, 0.053247, , 
35.91, 0.053209, , 
35.94, 0.053130, , 
35.97, 0.053139, , 
36.00, 0.053193, , 
36.03, 0.053149, , 
36.06, 0.053035, , 
36.10, 0.052863, , 
36.12, 0.052616, , 
36.15, 0.052388, , 
36.18, 0.052090, , 
36.21, 0.051814, , 
36.24, 0.051661, , 
36.27, 0.051363, , 
36.31, 0.051128, , 
36.33, 0.051046, , 
36.36, 0.050887, , 
36.39, 0.050659, , 
36.42, 0.050459, , 
36.45, 0.050250, , 
36.48, 0.050044, , 
36.51, 0.049841, , 
36.54, 0.049723, , 
36.57, 0.049666, , 
36.60, 0.049707, , 
36.63, 0.049581, , 
36.66, 0.049485, , 
36.69, 0.049431, , 
36.72, 0.049346, , 
36.75, 0.049143, , 
36.78, 0.049076, , 
36.81, 0.048978, , 
36.84, 0.048845, , 
36.87, 0.048724, , 
36.90, 0.048677, , 
36.94, 0.048734, , 
36.96, 0.048689, , 
36.99, 0.048638, , 
37.02, 0.048578, , 
37.05, 0.048556, , 
37.08, 0.048382, , 
37.11, 0.048175, , 
37.15, 0.048153, , 
37.17, 0.048058, , 
37.20, 0.047779, , 
37.23, 0.047690, , 
37.26, 0.047696, , 
37.29, 0.047728, , 
37.32, 0.047674, , 
37.35, 0.047528, , 
37.38, 0.047541, , 
37.41, 0.047436, , 
37.44, 0.047325, , 
37.47, 0.047183, , 
37.50, 0.047176, , 
37.53, 0.047227, , 
37.56, 0.047141, , 
37.59, 0.047065, , 
37.62, 0.047183, , 
37.65, 0.047176, , 
37.68, 0.047081, , 
37.71, 0.047091, , 
37.74, 0.047214, , 
37.77, 0.047198, , 
37.80, 0.047116, , 
37.83, 0.047236, , 
37.86, 0.047424, , 
37.89, 0.047512, , 
37.92, 0.047535, , 
37.95, 0.047550, , 
37.98, 0.047636, , 
38.01, 0.047620, , 
38.04, 0.047554, , 
38.07, 0.047573, , 
38.10, 0.047668, , 
38.13, 0.047630, , 
38.16, 0.047519, , 
38.19, 0.047630, , 
38.22, 0.047804, , 
38.25, 0.047937, , 
38.28, 0.047887, , 
38.31, 0.047811, , 
38.34, 0.047712, , 
38.37, 0.047490, , 
38.39, 0.047401, 12, 0.586
38.40, 0.047335, , 
38.43, 0.047246, , 
38.46, 0.047255, , 
38.49, 0.047335, , 
38.52, 0.047344, , 
38.55, 0.047471, , 
38.58, 0.047592, , 
38.61, 0.047636, , 
38.64, 0.047773, , 
38.67, 0.047998, , 
38.70, 0.048099, , 
38.73, 0.048067, , 
38.76, 0.048080, , 
38.79, 0.048255, , 
38.82, 0.048369, , 
38.85, 0.048454, , 
38.88, 0.048565, , 
38.91, 0.048749, , 
38.95, 0.048899, , 
38.97, 0.048968, , 
39.00, 0.049051, , 
39.03, 0.049184, , 
39.06, 0.049254, , 
39.09, 0.049355, , 
39.12, 0.049565, , 
39.15, 0.049676, , 
39.18, 0.049806, , 
39.21, 0.049831, , 
39.24, 0.049977, , 
39.27, 0.050190, , 
39.30, 0.050243, , 
39.33, 0.050354, , 
39.36, 0.050602, , 
39.39, 0.050833, , 
39.42, 0.050894, , 
39.45, 0.050944, , 
39.48, 0.051087, , 
39.51, 0.051097, , 
39.54, 0.051141, , 
39.58, 0.051138, , 
39.60, 0.051170, , 
39.63, 0.051208, , 
39.66, 0.051090, , 
39.69, 0.051065, , 
39.72, 0.051392, , 
39.75, 0.051553, , 
39.78, 0.051582, , 
39.81, 0.051722, , 
39.84, 0.051975, , 
39.87, 0.052048, , 
39.90, 0.052029, , 
39.93, 0.052181, , 
39.96, 0.052302, , 
39.99, 0.052423, , 
40.02, 0.052565, , 
40.05, 0.052781, , 
40.08, 0.052974, , 
40.11, 0.053060, , 
40.14, 0.053111, , 
40.17, 0.053282, , 
40.21, 0.053444, , 
40.23, 0.053526, , 
40.26, 0.053622, , 
40.29, 0.053821, , 
40.32, 0.054047, , 
40.35, 0.054101, , 
40.38, 0.054015, , 
40.41, 0.054072, , 
40.44, 0.054167, , 
40.47, 0.054072, , 
40.50, 0.054120, , 
40.53, 0.054284, , 
40.56, 0.054475, , 
40.59, 0.054503, , 
40.62, 0.054507, , 
40.65, 0.054570, , 
40.68, 0.054684, , 
40.71, 0.054541, , 
40.74, 0.054519, , 
40.77, 0.054671, , 
40.80, 0.054697, , 
40.83, 0.054697, , 
40.86, 0.054846, , 
40.89, 0.055033, , 
40.92, 0.055097, , 
40.95, 0.055116, , 
40.98, 0.055176, , 
41.01, 0.055372, , 
41.04, 0.055398, , 
41.07, 0.055211, , 
41.10, 0.055163, , 
41.13, 0.055147, , 
41.16, 0.055150, , 
41.19, 0.055116, , 
41.22, 0.055084, , 
41.25, 0.055192, , 
41.28, 0.055214, , 
41.31, 0.055039, , 
41.34, 0.055039, , 
41.37, 0.055093, , 
41.40, 0.054897, , 
41.43, 0.054713, , 
41.46, 0.054668, , 
41.49, 0.054602, , 
41.52, 0.054449, , 
41.55, 0.054313, , 
41.58, 0.054253, , 
41.59, 0.054240, 13, 0.585
41.61, 0.054234, , 
41.64, 0.054129, , 
41.67, 0.054043, , 
41.70, 0.054059, , 
41.73, 0.054081, , 
41.76, 0.053901, , 
41.79, 0.053714, , 
41.82, 0.053596, , 
41.85, 0.053453, , 
41.88, 0.053247, , 
41.91, 0.053066, , 
41.94, 0.053009, , 
41.97, 0.052863, , 
42.00, 0.052638, , 
42.03, 0.052435, , 
42.06, 0.052365, , 
42.09, 0.052280, , 
42.12, 0.052004, , 
42.15, 0.051766, , 
42.18, 0.051601, , 
42.21, 0.051309, , 
42.24, 0.051103, , 
42.27, 0.050992, , 
42.30, 0.050830, , 
42.33, 0.050542, , 
42.36, 0.050285, , 
42.39, 0.050059, , 
42.42, 0.049901, , 
42.45, 0.049634, , 
42.48, 0.049352, , 
42.51, 0.049171, , 
42.54, 0.049235, , 
42.57, 0.049124, , 
42.60, 0.048864, , 
42.63, 0.048686, , 
42.66, 0.048683, , 
42.69, 0.048585, , 
42.72, 0.048483, , 
42.75, 0.048445, , 
42.78, 0.048350, , 
42.81, 0.048106, , 
42.84, 0.048007, , 
42.87, 0.048102, , 
42.90, 0.048144, , 
42.93, 0.048048, , 
42.96, 0.047966, , 
42.99, 0.048106, , 
43.02, 0.048156, , 
43.05, 0.048058, , 
43.08, 0.048071, , 
43.11, 0.048128, , 
43.14, 0.048115, , 
43.17, 0.048029, , 
43.20, 0.048004, , 
43.23, 0.048106, , 
43.26, 0.048150, , 
43.29, 0.048071, , 
43.32, 0.048109, , 
43.35, 0.048207, , 
43.38, 0.048185, , 
43.41, 0.048064, , 
43.44, 0.048058, , 
43.47, 0.048033, , 
43.50, 0.047985, , 
43.53, 0.047890, , 
43.56, 0.048017, , 
43.59, 0.048137, , 
43.62, 0.048112, , 
43.65, 0.048055, , 
43.68, 0.048102, , 
43.71, 0.048093, , 
43.74, 0.048077, , 
43.77, 0.048061, , 
43.80, 0.048134, , 
43.83, 0.048090, , 
43.86, 0.048118, , 
43.89, 0.048198, , 
43.92, 0.048407, , 
43.95, 0.048550, , 
43.98, 0.048531, , 
44.01, 0.048521, , 
44.04, 0.048724, , 
44.07, 0.048899, , 
44.10, 0.048984, , 
44.13, 0.049083, , 
44.16, 0.049216, , 
44.19, 0.049228, , 
44.22, 0.049273, , 
44.25, 0.049416, , 
44.28, 0.049660, , 
44.31, 0.049790, , 
44.34, 0.049720, , 
44.37, 0.049730, , 
44.40, 0.049831, , 
44.43, 0.049980, , 
44.47, 0.050021, , 
44.49, 0.050196, , 
44.52, 0.050348, , 
44.55, 0.050313, , 
44.58, 0.050224, , 
44.61, 0.050278, , 
44.64, 0.050437, , 
44.67, 0.050551, , 
44.70, 0.050624, , 
44.73, 0.050637, , 
44.76, 0.050757, , 
44.79, 0.050843, , 
44.80, 0.050802, 14, 0.587
44.82, 0.050792, , 
44.85, 0.050859, , 
44.88, 0.051027, , 
44.91, 0.051036, , 
44.94, 0.051068, , 
44.97, 0.051239, , 
45.00, 0.051414, , 
45.03, 0.051534, , 
45.06, 0.051601, , 
45.09, 0.051814, , 
45.12, 0.051998, , 
45.15, 0.052067, , 
45.18, 0.052147, , 
45.21, 0.052350, , 
45.24, 0.052502, , 
45.27, 0.052527, , 
45.30, 0.052676, , 
45.33, 0.052895, , 
45.36, 0.053127, , 
45.39, 0.053177, , 
45.43, 0.053212, , 
45.45, 0.053320, , 
45.48, 0.053371, , 
45.51, 0.053406, , 
45.54, 0.053622, , 
45.57, 0.053840, , 
45.60, 0.054040, , 
45.64, 0.054240, , 
45.66, 0.054421, , 
45.69, 0.054668, , 
45.72, 0.054754, , 
45.75, 0.054855, , 
45.78, 0.055049, , 
45.81, 0.055208, , 
45.84, 0.055169, , 
45.87, 0.055236, , 
45.90, 0.055296, , 
45.93, 0.055350, , 
45.96, 0.055300, , 
45.99, 0.055252, , 
46.02, 0.055303, , 
46.05, 0.055249, , 
46.08, 0.055077, , 
46.11, 0.054928, , 
46.14, 0.054814, , 
46.17, 0.054713, , 
46.20, 0.054411, , 
46.23, 0.054294, , 
46.26, 0.054307, , 
46.29, 0.054208, , 
46.32, 0.053929, , 
46.35, 0.053818, , 
46.38, 0.053882, , 
46.41, 0.053882, , 
46.44, 0.053929, , 
46.47, 0.054047, , 
46.50, 0.054402, , 
46.53, 0.054694, , 
46.56, 0.054881, , 
46.59, 0.055084, , 
46.62, 0.055227, , 
46.65, 0.055353, , 
46.68, 0.055430, , 
46.71, 0.055518, , 
46.74, 0.055509, , 
46.77, 0.055452, , 
46.80, 0.055246, , 
46.83, 0.055261, , 
46.86, 0.055261, , 
46.89, 0.055176, , 
46.92, 0.054992, , 
46.95, 0.054690, , 
46.98, 0.054522, , 
47.01, 0.054199, , 
47.04, 0.053866, , 
47.07, 0.053574, , 
47.10, 0.053171, , 
47.13, 0.052752, , 
47.16, 0.052385, , 
47.19, 0.052235, , 
47.22, 0.051975, , 
47.25, 0.051769, , 
47.28, 0.051569, , 
47.31, 0.051490, , 
47.34, 0.051436, , 
47.37, 0.051090, , 
47.40, 0.050957, , 
47.43, 0.050922, , 
47.46, 0.050830, , 
47.49, 0.050653, , 
47.52, 0.050532, , 
47.55, 0.050472, , 
47.58, 0.050364, , 
47.61, 0.050253, , 
47.64, 0.050288, , 
47.67, 0.050323, , 
47.70, 0.050247, , 
47.73, 0.050136, , 
47.76, 0.050031, , 
47.79, 0.049923, , 
47.82, 0.049793, , 
47.85, 0.049695, , 
47.88, 0.049780, , 
47.91, 0.049863, , 
47.94, 0.049761, , 
47.97, 0.049714, , 
47.99, 0.049717, 15, 0.584
48.00, 0.049764, , 
48.03, 0.049828, , 
48.07, 0.049809, , 
48.09, 0.049768, , 
48.12, 0.049856, , 
48.15, 0.049847, , 
48.18, 0.049777, , 
48.21, 0.049745, , 
48.24, 0.049831, , 
48.27, 0.049841, , 
48.30, 0.049711, , 
48.33, 0.049688, , 
48.36, 0.049784, , 
48.39, 0.049812, , 
48.42, 0.049768, , 
48.45, 0.049701, , 
48.48, 0.049790, , 
48.51, 0.049907, , 
48.54, 0.049936, , 
48.57, 0.050047, , 
48.60, 0.050256, , 
48.63, 0.050348, , 
48.66, 0.050228, , 
48.69, 0.050215, , 
48.72, 0.050329, , 
48.75, 0.050478, , 
48.78, 0.050599, , 
48.81, 0.050922, , 
48.84, 0.051128, , 
48.87, 0.051182, , 
48.90, 0.051230, , 
48.93, 0.051236, , 
48.96, 0.051319, , 
48.99, 0.051290, , 
49.02, 0.051217, , 
49.05, 0.051325, , 
49.08, 0.051427, , 
49.11, 0.051423, , 
49.14, 0.051446, , 
49.17, 0.051588, , 
49.20, 0.051747, , 
49.23, 0.051798, , 
49.26, 0.051858, , 
49.29, 0.051912, , 
49.32, 0.051883, , 
49.35, 0.051750, , 
49.38, 0.051753, , 
49.41, 0.051750, , 
49.44, 0.051782, , 
49.47, 0.051915, , 
49.50, 0.052004, , 
49.53, 0.052175, , 
49.56, 0.052334, , 
49.59, 0.052438, , 
49.62, 0.052568, , 
49.65, 0.052740, , 
49.68, 0.052806, , 
49.71, 0.052708, , 
49.75, 0.052863, , 
49.77, 0.053003, , 
49.80, 0.053114, , 
49.83, 0.053206, , 
49.86, 0.053368, , 
49.89, 0.053609, , 
49.92, 0.053679, , 
49.95, 0.053552, , 
49.98, 0.053574, , 
50.01, 0.053720, , 
50.04, 0.053704, , 
50.07, 0.053698, , 
50.10, 0.053752, , 
50.13, 0.053771, , 
50.16, 0.053736, , 
50.19, 0.053672, , 
50.22, 0.053704, , 
50.25, 0.053758, , 
50.28, 0.053710, , 
50.31, 0.053723, , 
50.34, 0.053767, , 
50.37, 0.053733, , 
50.40, 0.053701, , 
50.43, 0.053685, , 
50.46, 0.053720, , 
50.49, 0.053748, , 
50.52, 0.053717, , 
50.55, 0.053704, , 
50.58, 0.053745, , 
50.61, 0.053780, , 
50.64, 0.053685, , 
50.67, 0.053583, , 
50.70, 0.053523, , 
50.73, 0.053431, , 
50.76, 0.053308, , 
50.79, 0.053139, , 
50.82, 0.053292, , 
50.85, 0.053273, , 
50.88, 0.053060, , 
50.91, 0.052902, , 
50.94, 0.052870, , 
50.97, 0.052791, , 
51.00, 0.052695, , 
51.03, 0.052756, , 
51.06, 0.052813, , 
51.09, 0.052794, , 
51.12, 0.052616, , 
51.15, 0.052708, , 
51.18, 0.052765, , 
51.19, 0.052775, 16, 0.585
51.21, 0.052610, , 
51.25, 0.052327, , 
51.27, 0.052340, , 
51.30, 0.052318, , 
51.33, 0.052216, , 
51.36, 0.052213, , 
51.39, 0.052181, , 
51.42, 0.052207, , 
51.45, 0.052223, , 
51.48, 0.052229, , 
51.51, 0.052242, , 
51.54, 0.052248, , 
51.57, 0.052258, , 
51.60, 0.052185, , 
51.63, 0.052242, , 
51.67, 0.052270, , 
51.69, 0.052258, , 
51.72, 0.052191, , 
51.75, 0.052207, , 
51.78, 0.052261, , 
51.81, 0.052210, , 
51.84, 0.052156, , 
51.87, 0.052245, , 
51.90, 0.052258, , 
51.93, 0.052032, , 
51.96, 0.051861, , 
51.99, 0.051855, , 
52.02, 0.051709, , 
52.05, 0.051506, , 
52.08, 0.051398, , 
52.11, 0.051262, , 
52.14, 0.051049, , 
52.17, 0.050852, , 
52.20, 0.050792, , 
52.23, 0.050786, , 
52.26, 0.050773, , 
52.29, 0.050684, , 
52.32, 0.050821, , 
52.35, 0.051008, , 
52.38, 0.051119, , 
52.41, 0.051138, , 
52.44, 0.051182, , 
52.47, 0.051281, , 
52.50, 0.051265, , 
52.53, 0.051287, , 
52.56, 0.051401, , 
52.59, 0.051569, , 
52.62, 0.051661, , 
52.65, 0.051807, , 
52.68, 0.052083, , 
52.71, 0.052537, , 
52.74, 0.052940, , 
52.77, 0.053301, , 
52.80, 0.053885, , 
52.83, 0.054443, , 
52.86, 0.055008, , 
52.89, 0.055417, , 
52.92, 0.056026, , 
52.95, 0.056530, , 
52.98, 0.056949, , 
53.01, 0.057228, , 
53.04, 0.057475, , 
53.07, 0.057697, , 
53.10, 0.057837, , 
53.13, 0.057954, , 
53.16, 0.058015, , 
53.19, 0.057948, , 
53.22, 0.057900, , 
53.25, 0.058072, , 
53.28, 0.058548, , 
53.31, 0.059325, , 
53.34, 0.059899, , 
53.37, 0.060435, , 
53.40, 0.060965, , 
53.43, 0.061390, , 
53.46, 0.061748, , 
53.49, 0.062398, , 
53.52, 0.063496, , 
53.55, 0.064444, , 
53.58, 0.065316, , 
53.61, 0.066316, , 
53.65, 0.067115, , 
53.67, 0.067667, , 
53.70, 0.068009, , 
53.73, 0.068254, , 
53.76, 0.068308, , 
53.79, 0.068016, , 
53.82, 0.067327, , 
53.86, 0.066588, , 
53.88, 0.065960, , 
53.91, 0.065069, , 
53.94, 0.064276, , 
53.97, 0.063496, , 
54.00, 0.062715, , 
54.03, 0.061764, , 
54.07, 0.060619, , 
54.09, 0.060099, , 
54.12, 0.059042, , 
54.15, 0.058078, , 
54.18, 0.057352, , 
54.21, 0.056892, , 
54.24, 0.056657, , 
54.27, 0.056413, , 
54.30, 0.056257, , 
54.33, 0.056058, , 
54.36, 0.055915, , 
54.38, 0.055817, 17, 0.585
54.39, 0.055813, , 
54.42, 0.055655, , 
54.45, 0.055709, , 
54.48, 0.055712, , 
54.51, 0.055518, , 
54.54, 0.055338, , 
54.57, 0.055290, , 
54.60, 0.055204, , 
54.63, 0.055030, , 
54.66, 0.054770, , 
54.69, 0.054735, , 
54.72, 0.054738, , 
54.75, 0.054694, , 
54.78, 0.054538, , 
54.81, 0.054437, , 
54.84, 0.054291, , 
54.87, 0.054085, , 
54.90, 0.053786, , 
54.93, 0.053653, , 
54.96, 0.053457, , 
54.99, 0.053171, , 
55.02, 0.052981, , 
55.05, 0.052882, , 
55.08, 0.052838, , 
55.11, 0.052711, , 
55.14, 0.052673, , 
55.17, 0.052708, , 
55.20, 0.052575, , 
55.23, 0.052391, , 
55.26, 0.052356, , 
55.29, 0.052296, , 
55.32, 0.052258, , 
55.35, 0.052188, , 
55.38, 0.052140, , 
55.41, 0.052216, , 
55.44, 0.052188, , 
55.47, 0.052083, , 
55.50, 0.052124, , 
55.53, 0.052226, , 
55.56, 0.052162, , 
55.59, 0.052112, , 
55.62, 0.052121, , 
55.65, 0.052134, , 
55.68, 0.052147, , 
55.71, 0.052128, , 
55.74, 0.052210, , 
55.77, 0.052251, , 
55.80, 0.052188, , 
55.83, 0.052188, , 
55.86, 0.052461, , 
55.89, 0.052635, , 
55.92, 0.052607, , 
55.95, 0.052581, , 
55.98, 0.052714, , 
56.01, 0.052873, , 
56.04, 0.052987, , 
56.07, 0.053000, , 
56.10, 0.053193, , 
56.13, 0.053333, , 
56.16, 0.053431, , 
56.19, 0.053479, , 
56.22, 0.053650, , 
56.25, 0.053875, , 
56.28, 0.054005, , 
56.31, 0.054056, , 
56.34, 0.054215, , 
56.37, 0.054259, , 
56.40, 0.054132, , 
56.43, 0.054104, , 
56.46, 0.054142, , 
56.49, 0.054177, , 
56.52, 0.054126, , 
56.55, 0.054161, , 
56.58, 0.054310, , 
56.61, 0.054468, , 
56.64, 0.054402, , 
56.67, 0.054269, , 
56.70, 0.054310, , 
56.73, 0.054253, , 
56.76, 0.054101, , 
56.79, 0.054085, , 
56.82, 0.054205, , 
56.85, 0.054202, , 
56.88, 0.054088, , 
56.91, 0.054062, , 
56.94, 0.054180, , 
56.97, 0.054202, , 
57.00, 0.054142, , 
57.03, 0.054120, , 
57.06, 0.054075, , 
57.09, 0.053932, , 
57.12, 0.053745, , 
57.15, 0.053688, , 
57.18, 0.053723, , 
57.21, 0.053704, , 
57.24, 0.053593, , 
57.27, 0.053612, , 
57.30, 0.053761, , 
57.33, 0.053853, , 
57.36, 0.053955, , 
57.39, 0.054218, , 
57.42, 0.054548, , 
57.45, 0.054782, , 
57.48, 0.054846, , 
57.51, 0.054938, , 
57.54, 0.055147, , 
57.57, 0.055093, , 
57.59, 0.055049, 18, 0.587
57.60, 0.055011, , 
57.63, 0.055090, , 
57.66, 0.055192, , 
57.69, 0.055160, , 
57.72, 0.055106, , 
57.75, 0.055185, , 
57.78, 0.055268, , 
57.81, 0.055097, , 
57.84, 0.054821, , 
57.87, 0.054608, , 
57.90, 0.054335, , 
57.93, 0.054015, , 
57.96, 0.053786, , 
57.99, 0.053615, , 
58.02, 0.053438, , 
58.05, 0.053285, , 
58.08, 0.053209, , 
58.11, 0.053197, , 
58.14, 0.053174, , 
58.17, 0.053139, , 
58.20, 0.053197, , 
58.23, 0.053206, , 
58.26, 0.053203, , 
58.29, 0.053158, , 
58.32, 0.053108, , 
58.35, 0.053133, , 
58.38, 0.053177, , 
58.41, 0.053152, , 
58.44, 0.053162, , 
58.47, 0.053298, , 
58.50, 0.053453, , 
58.53, 0.053450, , 
58.56, 0.053530, , 
58.59, 0.053612, , 
58.62, 0.053675, , 
58.65, 0.053637, , 
58.68, 0.053698, , 
58.71, 0.054012, , 
58.74, 0.054234, , 
58.77, 0.054323, , 
58.80, 0.054434, , 
58.83, 0.054605, , 
58.86, 0.054738, , 
58.89, 0.054789, , 
58.92, 0.054890, , 
58.95, 0.055084, , 
58.98, 0.055150, , 
59.01, 0.055011, , 
59.04, 0.055090, , 
59.07, 0.055198, , 
59.10, 0.055103, , 
59.13, 0.055024, , 
59.16, 0.054995, , 
59.19, 0.054960, , 
59.22, 0.054738, , 
59.25, 0.054656, , 
59.28, 0.054614, , 
59.31, 0.054535, , 
59.34, 0.054361, , 
59.37, 0.054208, , 
59.40, 0.054142, , 
59.43, 0.054205, , 
59.46, 0.054183, , 
59.49, 0.054097, , 
59.52, 0.054072, , 
59.55, 0.054177, , 
59.58, 0.054161, , 
59.61, 0.054015, , 
59.64, 0.053891, , 
59.67, 0.053850, , 
59.70, 0.053704, , 
59.73, 0.053666, , 
59.76, 0.053647, , 
59.79, 0.053656, , 
59.82, 0.053593, , 
59.85, 0.053558, , 
59.88, 0.053641, , 
59.91, 0.053704, , 
59.94, 0.053641, , 
59.97, 0.053568, , 
60.00, 0.053603, , 
60.03, 0.053663, , 
60.06, 0.053577, , 
60.09, 0.053520, , 
60.12, 0.053583, , 
60.15, 0.053695, , 
60.18, 0.053653, , 
60.21, 0.053574, , 
60.24, 0.053558, , 
60.27, 0.053590, , 
60.30, 0.053561, , 
60.33, 0.053549, , 
60.36, 0.053603, , 
60.39, 0.053631, , 
60.42, 0.053564, , 
60.45, 0.053530, , 
60.48, 0.053590, , 
60.51, 0.053603, , 
60.54, 0.053530, , 
60.57, 0.053526, , 
60.60, 0.053577, , 
60.63, 0.053603, , 
60.66, 0.053593, , 
60.70, 0.053564, , 
60.72, 0.053612, , 
60.75, 0.053679, , 
60.78, 0.053564, , 
60.79, 0.053542, 19, 0.584
60.81, 0.053536, , 
60.84, 0.053580, , 
60.87, 0.053517, , 
60.91, 0.053317, , 
60.93, 0.053225, , 
60.96, 0.053162, , 
60.99, 0.053117, , 
61.02, 0.053089, , 
61.05, 0.053066, , 
61.08, 0.053168, , 
61.11, 0.053168, , 
61.14, 0.053041, , 
61.17, 0.053009, , 
61.20, 0.053155, , 
61.23, 0.053149, , 
61.26, 0.053146, , 
61.29, 0.053174, , 
61.32, 0.053200, , 
61.35, 0.053241, , 
61.38, 0.053311, , 
61.41, 0.053374, , 
61.44, 0.053596, , 
61.47, 0.053622, , 
61.50, 0.053542, , 
61.53, 0.053625, , 
61.56, 0.053695, , 
61.59, 0.053688, , 
61.62, 0.053542, , 
61.65, 0.053587, , 
61.68, 0.053682, , 
61.71, 0.053691, , 
61.74, 0.053542, , 
61.77, 0.053482, , 
61.80, 0.053615, , 
61.83, 0.053634, , 
61.87, 0.053580, , 
61.89, 0.053685, , 
61.92, 0.054015, , 
61.95, 0.054164, , 
61.98, 0.054316, , 
62.01, 0.054456, , 
62.04, 0.054614, , 
62.08, 0.054805, , 
62.10, 0.054973, , 
62.13, 0.055024, , 
62.16, 0.055141, , 
62.19, 0.055315, , 
62.22, 0.055417, , 
62.25, 0.055522, , 
62.28, 0.055617, , 
62.31, 0.055642, , 
62.34, 0.055563, , 
62.37, 0.055480, , 
62.40, 0.055445, , 
62.43, 0.055173, , 
62.46, 0.054824, , 
62.50, 0.054649, , 
62.52, 0.054487, , 
62.55, 0.054151, , 
62.58, 0.053806, , 
62.61, 0.053685, , 
62.64, 0.053498, , 
62.67, 0.053222, , 
62.71, 0.053016, , 
62.73, 0.052968, , 
62.76, 0.052813, , 
62.79, 0.052654, , 
62.82, 0.052429, , 
62.85, 0.052324, , 
62.88, 0.052312, , 
62.91, 0.052188, , 
62.94, 0.052153, , 
62.97, 0.052216, , 
63.00, 0.052213, , 
63.03, 0.052001, , 
63.06, 0.051852, , 
63.09, 0.051769, , 
63.12, 0.051737, , 
63.15, 0.051684, , 
63.18, 0.051677, , 
63.21, 0.051829, , 
63.24, 0.051972, , 
63.27, 0.052064, , 
63.30, 0.052083, , 
63.33, 0.052143, , 
63.36, 0.052185, , 
63.39, 0.052175, , 
63.42, 0.052118, , 
63.45, 0.052178, , 
63.48, 0.052201, , 
63.51, 0.052143, , 
63.54, 0.052166, , 
63.57, 0.052191, , 
63.60, 0.052188, , 
63.63, 0.052102, , 
63.66, 0.051988, , 
63.69, 0.051906, , 
63.72, 0.051737, , 
63.75, 0.051633, , 
63.78, 0.051630, , 
63.81, 0.051709, , 
63.84, 0.051693, , 
63.87, 0.051544, , 
63.90, 0.051452, , 
63.93, 0.051389, , 
63.96, 0.051290, , 
63.99, 0.051173, 20, 0.586
63.99, 0.051160, , 
64.02, 0.051151, , 
64.05, 0.051189, , 
64.08, 0.051176, , 
64.11, 0.051262, , 
64.14, 0.051461, , 
64.17, 0.051525, , 
64.20, 0.051541, , 
64.23, 0.051534, , 
64.26, 0.051579, , 
64.29, 0.051614, , 
64.32, 0.051652, , 
64.35, 0.051592, , 
64.38, 0.051588, , 
64.41, 0.051661, , 
64.44, 0.051668, , 
64.47, 0.051655, , 
64.50, 0.051582, , 
64.53, 0.051481, , 
64.56, 0.051277, , 
64.59, 0.051189, , 
64.62, 0.051249, , 
64.65, 0.051274, , 
64.68, 0.051233, , 
64.71, 0.051119, , 
64.74, 0.051132, , 
64.77, 0.051262, , 
64.80, 0.051192, , 
64.83, 0.051113, , 
64.86, 0.051113, , 
64.89, 0.051205, , 
64.92, 0.051205, , 
64.95, 0.051122, , 
64.98, 0.051157, , 
65.02, 0.051255, , 
65.04, 0.051214, , 
65.07, 0.050998, , 
65.10, 0.050916, , 
65.13, 0.050808, , 
65.16, 0.050688, , 
65.19, 0.050738, , 
65.22, 0.050748, , 
65.25, 0.050767, , 
65.28, 0.050754, , 
65.31, 0.050624, , 
65.34, 0.050713, , 
65.37, 0.050713, , 
65.40, 0.050637, , 
65.43, 0.050567, , 
65.46, 0.050659, , 
65.49, 0.050783, , 
65.53, 0.050770, , 
65.55, 0.050665, , 
65.58, 0.050707, , 
65.61, 0.050757, , 
65.64, 0.050694, , 
65.67, 0.050599, , 
65.70, 0.050526, , 
65.73, 0.050519, , 
65.76, 0.050307, , 
65.79, 0.050170, , 
65.82, 0.050193, , 
65.85, 0.050272, , 
65.88, 0.050193, , 
65.91, 0.050123, , 
65.94, 0.050183, , 
65.97, 0.050256, , 
66.00, 0.050224, , 
66.03, 0.050180, , 
66.06, 0.050215, , 
66.09, 0.050272, , 
66.12, 0.050262, , 
66.15, 0.050228, , 
66.18, 0.050240, , 
66.21, 0.050253, , 
66.24, 0.050136, , 
66.27, 0.050113, , 
66.30, 0.050209, , 
66.33, 0.050259, , 
66.36, 0.050177, , 
66.39, 0.050145, , 
66.42, 0.050288, , 
66.45, 0.050326, , 
66.49, 0.050113, , 
66.51, 0.050145, , 
66.54, 0.050139, , 
66.57, 0.050040, , 
66.60, 0.049818, , 
66.63, 0.049742, , 
66.66, 0.049793, , 
66.69, 0.049771, , 
66.72, 0.049650, , 
66.75, 0.049596, , 
66.78, 0.049555, , 
66.81, 0.049419, , 
66.84, 0.049260, , 
66.87, 0.049206, , 
66.90, 0.049241, , 
66.93, 0.049247, , 
66.96, 0.049117, , 
66.99, 0.049083, , 
67.02, 0.049165, , 
67.05, 0.049190, , 
67.08, 0.049140, , 
67.11, 0.049140, , 
67.14, 0.049187, , 
67.17, 0.049124, , 
67.19, 0.049133, 21, 0.586
67.20, 0.049136, , 
67.23, 0.049165, , 
67.26, 0.049216, , 
67.29, 0.049225, , 
67.32, 0.049181, , 
67.35, 0.049149, , 
67.38, 0.049111, , 
67.41, 0.048946, , 
67.44, 0.048765, , 
67.47, 0.048708, , 
67.50, 0.048730, , 
67.54, 0.048721, , 
67.56, 0.048689, , 
67.59, 0.048692, , 
67.62, 0.048822, , 
67.65, 0.048813, , 
67.68, 0.048727, , 
67.71, 0.048740, , 
67.74, 0.048642, , 
67.77, 0.048470, , 
67.80, 0.048362, , 
67.83, 0.048353, , 
67.86, 0.048461, , 
67.89, 0.048445, , 
67.92, 0.048391, , 
67.95, 0.048382, , 
67.98, 0.048420, , 
68.01, 0.048404, , 
68.04, 0.048296, , 
68.07, 0.048277, , 
68.10, 0.048223, , 
68.13, 0.048048, , 
68.16, 0.047906, , 
68.19, 0.047925, , 
68.22, 0.047941, , 
68.25, 0.047855, , 
68.28, 0.047830, , 
68.31, 0.047852, , 
68.34, 0.047820, , 
68.37, 0.047649, , 
68.40, 0.047386, , 
68.43, 0.047430, , 
68.46, 0.047497, , 
68.49, 0.047379, , 
68.52, 0.047351, , 
68.55, 0.047351, , 
68.58, 0.047471, , 
68.61, 0.047398, , 
68.64, 0.047319, , 
68.67, 0.047357, , 
68.70, 0.047401, , 
68.73, 0.047278, , 
68.76, 0.047065, , 
68.79, 0.046973, , 
68.82, 0.046992, , 
68.85, 0.046891, , 
68.88, 0.046843, , 
68.91, 0.046827, , 
68.94, 0.046846, , 
68.97, 0.046818, , 
69.00, 0.046802, , 
69.03, 0.046824, , 
69.06, 0.046792, , 
69.09, 0.046748, , 
69.12, 0.046656, , 
69.15, 0.046570, , 
69.18, 0.046504, , 
69.21, 0.046288, , 
69.24, 0.046180, , 
69.27, 0.046275, , 
69.30, 0.046364, , 
69.33, 0.046298, , 
69.36, 0.046253, , 
69.39, 0.046145, , 
69.42, 0.046028, , 
69.45, 0.045898, , 
69.48, 0.045790, , 
69.51, 0.045774, , 
69.54, 0.045809, , 
69.57, 0.045752, , 
69.60, 0.045733, , 
69.63, 0.045714, , 
69.66, 0.045723, , 
69.69, 0.045742, , 
69.72, 0.045733, , 
69.75, 0.045911, , 
69.78, 0.046037, , 
69.81, 0.046110, , 
69.84, 0.046155, , 
69.87, 0.046240, , 
69.90, 0.046206, , 
69.93, 0.046050, , 
69.96, 0.045952, , 
69.99, 0.045774, , 
70.02, 0.045711, , 
70.05, 0.045581, , 
70.08, 0.045600, , 
70.11, 0.045682, , 
70.14, 0.045650, , 
70.17, 0.045428, , 
70.20, 0.045286, , 
70.23, 0.045260, , 
70.26, 0.045222, , 
70.29, 0.045073, , 
70.32, 0.044899, , 
70.35, 0.044848, , 
70.38, 0.044696, , 
70.39, 0.044702, 22, 0.586
70.41, 0.044629, , 
70.44, 0.044604, , 
70.47, 0.044724, , 
70.50, 0.044674, , 
70.53, 0.044575, , 
70.56, 0.044604, , 
70.59, 0.044702, , 
70.62, 0.044689, , 
70.65, 0.044543, , 
70.68, 0.044689, , 
70.71, 0.044715, , 
70.74, 0.044661, , 
70.77, 0.044629, , 
70.81, 0.044505, , 
70.83, 0.044480, , 
70.86, 0.044293, , 
70.89, 0.044115, , 
70.92, 0.044080, , 
70.95, 0.044169, , 
70.98, 0.044141, , 
71.01, 0.044115, , 
71.04, 0.044169, , 
71.07, 0.044144, , 
71.10, 0.044061, , 
71.13, 0.043928, , 
71.16, 0.043890, , 
71.19, 0.043827, , 
71.22, 0.043741, , 
71.25, 0.043639, , 
71.28, 0.043620, , 
71.31, 0.043671, , 
71.34, 0.043668, , 
71.37, 0.043579, , 
71.40, 0.043611, , 
71.43, 0.043646, , 
71.46, 0.043620, , 
71.49, 0.043586, , 
71.52, 0.043639, , 
71.55, 0.043659, , 
71.58, 0.043605, , 
71.61, 0.043525, , 
71.64, 0.043544, , 
71.67, 0.043481, , 
71.70, 0.043310, , 
71.73, 0.043195, , 
71.76, 0.043249, , 
71.79, 0.043268, , 
71.82, 0.043151, , 
71.85, 0.043122, , 
71.88, 0.043154, , 
71.91, 0.043161, , 
71.94, 0.043154, , 
71.97, 0.043161, , 
72.00, 0.043227, , 
72.03, 0.043249, , 
72.06, 0.043180, , 
72.09, 0.043176, , 
72.12, 0.043268, , 
72.15, 0.043313, , 
72.18, 0.043256, , 
72.21, 0.043221, , 
72.24, 0.043268, , 
72.27, 0.043306, , 
72.30, 0.043062, , 
72.33, 0.042894, , 
72.36, 0.042850, , 
72.39, 0.042793, , 
72.42, 0.042637, , 
72.45, 0.042663, , 
72.48, 0.042732, , 
72.51, 0.042663, , 
72.54, 0.042513, , 
72.57, 0.042618, , 
72.60, 0.042678, , 
72.63, 0.042643, , 
72.66, 0.042583, , 
72.69, 0.042631, , 
72.72, 0.042697, , 
72.75, 0.042672, , 
72.78, 0.042561, , 
72.81, 0.042624, , 
72.84, 0.042704, , 
72.87, 0.042577, , 
72.90, 0.042345, , 
72.93, 0.042285, , 
72.96, 0.042295, , 
72.99, 0.042158, , 
73.02, 0.042015, , 
73.05, 0.042022, , 
73.08, 0.042126, , 
73.11, 0.042025, , 
73.14, 0.041933, , 
73.17, 0.041996, , 
73.20, 0.042050, , 
73.23, 0.042044, , 
73.26, 0.041984, , 
73.29, 0.041984, , 
73.32, 0.041993, , 
73.35, 0.041778, , 
73.38, 0.041667, , 
73.41, 0.041571, , 
73.44, 0.041556, , 
73.47, 0.041511, , 
73.50, 0.041460, , 
73.53, 0.041489, , 
73.56, 0.041543, , 
73.59, 0.041483, 23, 0.586
73.59, 0.041451, , 
73.62, 0.041435, , 
73.65, 0.041609, , 
73.68, 0.041819, , 
73.71, 0.041889, , 
73.75, 0.041936, , 
73.77, 0.042003, , 
73.80, 0.042054, , 
73.83, 0.041958, , 
73.86, 0.041889, , 
73.89, 0.042012, , 
73.92, 0.042095, , 
73.95, 0.041990, , 
73.98, 0.041914, , 
74.01, 0.041949, , 
74.04, 0.041870, , 
74.07, 0.041746, , 
74.10, 0.041600, , 
74.13, 0.041644, , 
74.16, 0.041660, , 
74.19, 0.041559, , 
74.22, 0.041527, , 
74.25, 0.041575, , 
74.28, 0.041565, , 
74.31, 0.041457, , 
74.34, 0.041372, , 
74.37, 0.041375, , 
74.40, 0.041330, , 
74.43, 0.041080, , 
74.46, 0.041058, , 
74.49, 0.041118, , 
74.52, 0.041121, , 
74.55, 0.041099, , 
74.58, 0.041096, , 
74.61, 0.041159, , 
74.64, 0.041089, , 
74.67, 0.041032, , 
74.70, 0.041035, , 
74.73, 0.041080, , 
74.76, 0.041032, , 
74.79, 0.041019, , 
74.82, 0.041000, , 
74.85, 0.041134, , 
74.88, 0.041089, , 
74.91, 0.040962, , 
74.94, 0.040896, , 
74.97, 0.040797, , 
75.00, 0.040639, , 
75.03, 0.040553, , 
75.06, 0.040607, , 
75.09, 0.040626, , 
75.12, 0.040521, , 
75.15, 0.040449, , 
75.18, 0.040560, , 
75.21, 0.040490, , 
75.24, 0.040303, , 
75.27, 0.040141, , 
75.30, 0.040188, , 
75.33, 0.040274, , 
75.36, 0.040252, , 
75.39, 0.040204, , 
75.42, 0.040163, , 
75.45, 0.040112, , 
75.48, 0.040030, , 
75.51, 0.039976, , 
75.54, 0.040001, , 
75.57, 0.039992, , 
75.60, 0.040027, , 
75.63, 0.039995, , 
75.66, 0.039970, , 
75.69, 0.039970, , 
75.72, 0.039944, , 
75.75, 0.039935, , 
75.78, 0.039982, , 
75.81, 0.039979, , 
75.84, 0.039941, , 
75.87, 0.039925, , 
75.90, 0.039973, , 
75.93, 0.040043, , 
75.96, 0.039982, , 
75.99, 0.039966, , 
76.02, 0.040020, , 
76.05, 0.039982, , 
76.08, 0.039897, , 
76.11, 0.039935, , 
76.14, 0.040084, , 
76.17, 0.040093, , 
76.20, 0.039840, , 
76.23, 0.039675, , 
76.26, 0.039643, , 
76.29, 0.039589, , 
76.32, 0.039430, , 
76.35, 0.039430, , 
76.38, 0.039576, , 
76.41, 0.039545, , 
76.44, 0.039430, , 
76.48, 0.039487, , 
76.50, 0.039541, , 
76.53, 0.039548, , 
76.56, 0.039402, , 
76.59, 0.039456, , 
76.62, 0.039554, , 
76.65, 0.039465, , 
76.69, 0.039278, , 
76.71, 0.039275, , 
76.74, 0.039227, , 
76.77, 0.039104, , 
76.79, 0.039081, 24, 0.585
76.80, 0.039088, , 
76.83, 0.039037, , 
76.86, 0.039037, , 
76.89, 0.039031, , 
76.92, 0.038967, , 
76.95, 0.038970, , 
76.98, 0.039043, , 
77.01, 0.038970, , 
77.04, 0.038866, , 
77.07, 0.038964, , 
77.10, 0.039034, , 
77.13, 0.038986, , 
77.16, 0.038958, , 
77.19, 0.038955, , 
77.22, 0.039002, , 
77.25, 0.038929, , 
77.28, 0.038869, , 
77.31, 0.038920, , 
77.34, 0.038993, , 
77.37, 0.038942, , 
77.40, 0.038891, , 
77.43, 0.038977, , 
77.46, 0.039024, , 
77.49, 0.038932, , 
77.52, 0.038913, , 
77.55, 0.038974, , 
77.58, 0.039002, , 
77.61, 0.038986, , 
77.64, 0.038951, , 
77.67, 0.039043, , 
77.70, 0.038977, , 
77.73, 0.038926, , 
77.76, 0.038916, , 
77.79, 0.038967, , 
77.82, 0.038961, , 
77.85, 0.038878, , 
77.88, 0.038869, , 
77.91, 0.038989, , 
77.94, 0.038993, , 
77.97, 0.038891, , 
78.00, 0.038923, , 
78.03, 0.039037, , 
78.06, 0.039005, , 
78.09, 0.038837, , 
78.12, 0.038878, , 
78.15, 0.038875, , 
78.18, 0.038653, , 
78.21, 0.038466, , 
78.24, 0.038387, , 
78.27, 0.038488, , 
78.30, 0.038485, , 
78.33, 0.038441, , 
78.36, 0.038441, , 
78.39, 0.038533, , 
78.42, 0.038466, , 
78.45, 0.038377, , 
78.48, 0.038425, , 
78.51, 0.038460, , 
78.54, 0.038409, , 
78.57, 0.038384, , 
78.60, 0.038406, , 
78.63, 0.038438, , 
78.67, 0.038406, , 
78.69, 0.038311, , 
78.72, 0.038285, , 
78.75, 0.038146, , 
78.78, 0.038022, , 
78.81, 0.037917, , 
78.84, 0.037971, , 
78.88, 0.037962, , 
78.90, 0.037867, , 
78.93, 0.037860, , 
78.96, 0.038006, , 
78.99, 0.038025, , 
79.02, 0.037876, , 
79.05, 0.037825, , 
79.09, 0.037933, , 
79.11, 0.037930, , 
79.14, 0.037914, , 
79.17, 0.037870, , 
79.20, 0.038025, , 
79.23, 0.038012, , 
79.26, 0.037968, , 
79.29, 0.037971, , 
79.32, 0.037993, , 
79.35, 0.037971, , 
79.38, 0.037901, , 
79.41, 0.037917, , 
79.44, 0.038101, , 
79.47, 0.038051, , 
79.50, 0.037898, , 
79.54, 0.037924, , 
79.56, 0.037981, , 
79.59, 0.038028, , 
79.62, 0.037914, , 
79.65, 0.037968, , 
79.68, 0.037974, , 
79.71, 0.037962, , 
79.74, 0.037914, , 
79.77, 0.037965, , 
79.80, 0.038009, , 
79.83, 0.038000, , 
79.86, 0.037927, , 
79.89, 0.038051, , 
79.92, 0.037993, , 
79.95, 0.037825, , 
79.98, 0.037632, , 
79.99, 0.037597, 25, 0.586
80.01, 0.037556, , 
80.04, 0.037629, , 
80.07, 0.037565, , 
80.10, 0.037553, , 
80.13, 0.037568, , 
80.16, 0.037632, , 
80.19, 0.037568, , 
80.22, 0.037651, , 
80.25, 0.037901, , 
80.28, 0.038028, , 
80.31, 0.037933, , 
80.34, 0.037974, , 
80.38, 0.038057, , 
80.40, 0.038079, , 
80.43, 0.038057, , 
80.46, 0.038057, , 
80.49, 0.038143, , 
80.52, 0.038117, , 
80.55, 0.037886, , 
80.58, 0.037787, , 
80.61, 0.037727, , 
80.64, 0.037667, , 
80.67, 0.037581, , 
80.70, 0.037603, , 
80.73, 0.037632, , 
80.76, 0.037568, , 
80.79, 0.037575, , 
80.82, 0.037524, , 
80.85, 0.037537, , 
80.88, 0.037572, , 
80.91, 0.037483, , 
80.94, 0.037470, , 
80.97, 0.037518, , 
81.00, 0.037499, , 
81.03, 0.037422, , 
81.06, 0.037499, , 
81.09, 0.037553, , 
81.12, 0.037534, , 
81.15, 0.037451, , 
81.18, 0.037518, , 
81.21, 0.037556, , 
81.24, 0.037486, , 
81.27, 0.037486, , 
81.30, 0.037502, , 
81.33, 0.037565, , 
81.36, 0.037451, , 
81.39, 0.037473, , 
81.42, 0.037505, , 
81.45, 0.037530, , 
81.48, 0.037426, , 
81.51, 0.037391, , 
81.54, 0.037502, , 
81.57, 0.037495, , 
81.60, 0.037378, , 
81.63, 0.037394, , 
81.66, 0.037454, , 
81.70, 0.037467, , 
81.72, 0.037378, , 
81.75, 0.037381, , 
81.78, 0.037476, , 
81.81, 0.037537, , 
81.84, 0.037413, , 
81.87, 0.037473, , 
81.90, 0.037492, , 
81.93, 0.037505, , 
81.96, 0.037407, , 
81.99, 0.037432, , 
82.02, 0.037549, , 
82.05, 0.037486, , 
82.08, 0.037502, , 
82.11, 0.037505, , 
82.14, 0.037575, , 
82.17, 0.037553, , 
82.20, 0.037492, , 
82.23, 0.037537, , 
82.26, 0.037625, , 
82.29, 0.037483, , 
82.32, 0.037464, , 
82.35, 0.037568, , 
82.38, 0.037514, , 
82.41, 0.037505, , 
82.44, 0.037337, , 
82.47, 0.037286, , 
82.50, 0.037178, , 
82.53, 0.036975, , 
82.56, 0.036937, , 
82.59, 0.037045, , 
82.62, 0.037067, , 
82.65, 0.036997, , 
82.68, 0.036982, , 
82.71, 0.037045, , 
82.74, 0.037089, , 
82.77, 0.036988, , 
82.80, 0.037023, , 
82.83, 0.037127, , 
82.86, 0.037108, , 
82.89, 0.037070, , 
82.92, 0.037055, , 
82.95, 0.037118, , 
82.98, 0.037099, , 
83.01, 0.036985, , 
83.04, 0.037007, , 
83.07, 0.037055, , 
83.11, 0.037023, , 
83.13, 0.036886, , 
83.16, 0.036921, , 
83.19, 0.037077, 26, 0.585
83.19, 0.037093, , 
83.22, 0.037058, , 
83.25, 0.036988, , 
83.28, 0.036982, , 
83.31, 0.037067, , 
83.34, 0.037083, , 
83.37, 0.036994, , 
83.40, 0.037029, , 
83.43, 0.037096, , 
83.46, 0.037042, , 
83.49, 0.037026, , 
83.52, 0.036956, , 
83.55, 0.036953, , 
83.58, 0.036963, , 
83.61, 0.036931, , 
83.64, 0.036886, , 
83.67, 0.036798, , 
83.70, 0.036588, , 
83.73, 0.036512, , 
83.76, 0.036531, , 
83.79, 0.036544, , 
83.82, 0.036439, , 
83.85, 0.036357, , 
83.88, 0.036503, , 
83.91, 0.036550, , 
83.94, 0.036499, , 
83.97, 0.036420, , 
84.00, 0.036499, , 
84.03, 0.036591, , 
84.06, 0.036499, , 
84.09, 0.036480, , 
84.12, 0.036515, , 
84.15, 0.036547, , 
84.18, 0.036449, , 
84.21, 0.036423, , 
84.24, 0.036649, , 
84.27, 0.036633, , 
84.30, 0.036474, , 
84.33, 0.036512, , 
84.36, 0.036623, , 
84.39, 0.036598, , 
84.42, 0.036433, , 
84.45, 0.036496, , 
84.48, 0.036664, , 
84.52, 0.036642, , 
84.54, 0.036563, , 
84.57, 0.036595, , 
84.60, 0.036649, , 
84.63, 0.036661, , 
84.66, 0.036525, , 
84.69, 0.036544, , 
84.73, 0.036677, , 
84.75, 0.036645, , 
84.78, 0.036518, , 
84.81, 0.036595, , 
84.84, 0.036649, , 
84.87, 0.036538, , 
84.90, 0.036557, , 
84.93, 0.036607, , 
84.96, 0.036715, , 
84.99, 0.036601, , 
85.02, 0.036531, , 
85.05, 0.036560, , 
85.08, 0.036604, , 
85.11, 0.036630, , 
85.14, 0.036544, , 
85.17, 0.036610, , 
85.20, 0.036668, , 
85.23, 0.036588, , 
85.26, 0.036477, , 
85.29, 0.036591, , 
85.32, 0.036668, , 
85.35, 0.036534, , 
85.38, 0.036515, , 
85.41, 0.036626, , 
85.44, 0.036633, , 
85.47, 0.036518, , 
85.50, 0.036490, , 
85.53, 0.036617, , 
85.56, 0.036645, , 
85.59, 0.036557, , 
85.62, 0.036547, , 
85.65, 0.036623, , 
85.68, 0.036664, , 
85.71, 0.036566, , 
85.74, 0.036560, , 
85.77, 0.036630, , 
85.80, 0.036585, , 
85.83, 0.036496, , 
85.86, 0.036506, , 
85.89, 0.036598, , 
85.92, 0.036550, , 
85.95, 0.036474, , 
85.98, 0.036512, , 
86.01, 0.036626, , 
86.04, 0.036677, , 
86.07, 0.036547, , 
86.10, 0.036534, , 
86.13, 0.036541, , 
86.16, 0.036557, , 
86.19, 0.036430, , 
86.22, 0.036411, , 
86.25, 0.036484, , 
86.28, 0.036471, , 
86.31, 0.036458, , 
86.34, 0.036493, , 
86.37, 0.036490, , 
86.40, 0.036420, , 
86.43, 0.036515, , 
86.46, 0.036576, , 
86.49, 0.036512, , 
86.52, 0.036480, , 
86.55, 0.036446, , 
86.58, 0.036512, , 
86.61, 0.036518, , 
86.64, 0.036433, , 
86.67, 0.036369, , 
86.70, 0.036525, , 
86.73, 0.036576, , 
86.76, 0.036436, , 
86.79, 0.036452, , 
86.82, 0.036503, , 
86.85, 0.036541, , 
86.88, 0.036503, , 
86.91, 0.036480, , 
86.94, 0.036601, , 
86.97, 0.036639, , 
87.00, 0.036506, , 
87.03, 0.036484, , 
87.06, 0.036572, , 
87.09, 0.036601, , 
87.12, 0.036499, , 
87.15, 0.036439, , 
87.18, 0.036560, , 
87.21, 0.036550, , 
87.24, 0.036458, , 
87.27, 0.036477, , 
87.30, 0.036642, , 
87.33, 0.036550, , 
87.36, 0.036404, , 
87.39, 0.036442, , 
87.42, 0.036623, , 
87.45, 0.036588, , 
87.48, 0.036493, , 
87.51, 0.036515, , 
87.54, 0.036620, , 
87.57, 0.036595, , 
87.60, 0.036480, , 
87.63, 0.036490, , 
87.66, 0.036630, , 
87.69, 0.036550, , 
87.72, 0.036477, , 
87.75, 0.036484, , 
87.78, 0.036617, , 
87.81, 0.036633, , 
87.84, 0.036493, , 
87.87, 0.036522, , 
87.90, 0.036601, , 
87.93, 0.036560, , 
87.96, 0.036426, , 
87.99, 0.036509, , 
88.03, 0.036538, , 
88.05, 0.036538, , 
88.08, 0.036471, , 
88.11, 0.036557, , 
88.14, 0.036576, , 
88.17, 0.036487, , 
88.20, 0.036395, , 
88.24, 0.036503, , 
88.26, 0.036563, , 
88.29, 0.036449, , 
88.32, 0.036395, , 
88.35, 0.036477, , 
88.38, 0.036474, , 
88.41, 0.036480, , 
88.44, 0.036455, , 
88.47, 0.036531, , 
88.50, 0.036522, , 
88.53, 0.036426, , 
88.56, 0.036439, , 
88.59, 0.036547, , 
88.62, 0.036614, , 
88.65, 0.036417, , 
88.68, 0.036407, , 
88.71, 0.036541, , 
88.74, 0.036544, , 
88.77, 0.036373, , 
88.80, 0.036395, , 
88.83, 0.036547, , 
88.86, 0.036544, , 
88.89, 0.036417, , 
88.92, 0.036407, , 
88.95, 0.036487, , 
88.98, 0.036509, , 
89.01, 0.036404, , 
89.04, 0.036420, , 
89.07, 0.036512, , 
89.10, 0.036538, , 
89.13, 0.036395, , 
89.16, 0.036407, , 
89.19, 0.036515, , 
89.22, 0.036455, , 
89.25, 0.036338, , 
89.28, 0.036379, , 
89.31, 0.036547, , 
89.34, 0.036461, , 
89.37, 0.036398, , 
89.40, 0.036493, , 
89.43, 0.036452, , 
89.46, 0.036433, , 
89.49, 0.036446, , 
89.52, 0.036455, , 
89.55, 0.036585, , 
89.58, 0.036553, , 
89.61, 0.036484, , 
89.64, 0.036553, , 
89.67, 0.036595, , 
89.70, 0.036534, , 
89.73, 0.036446, , 
89.76, 0.036490, , 
89.79, 0.036541, , 
89.82, 0.036518, , 
89.85, 0.036398, , 
89.88, 0.036452, , 
89.91, 0.036553, , 
89.94, 0.036487, , 
89.97, 0.036433, , 
90.00, 0.036496, , 
90.03, 0.036541, , 
90.06, 0.036506, , 
90.09, 0.036461, , 
90.12, 0.036439, , 
90.15, 0.036449, , 
90.18, 0.036455, , 
90.21, 0.036480, , 
90.24, 0.036550, , 
90.27, 0.036572, , 
90.30, 0.036442, , 
90.33, 0.036379, , 
90.36, 0.036496, , 
90.39, 0.036604, , 
90.42, 0.036506, , 
90.45, 0.036411, , 
90.48, 0.036506, , 
90.51, 0.036541, , 
90.54, 0.036474, , 
90.57, 0.036455, , 
90.60, 0.036496, , 
90.63, 0.036509, , 
90.66, 0.036404, , 
90.69, 0.036414, , 
90.72, 0.036553, , 
90.75, 0.036547, , 
90.78, 0.036433, , 
90.81, 0.036449, , 
90.84, 0.036487, , 
90.87, 0.036493, , 
90.90, 0.036433, , 
90.93, 0.036417, , 
90.96, 0.036499, , 
90.99, 0.036553, , 
91.02, 0.036461, , 
91.05, 0.036449, , 
91.08, 0.036496, , 
91.11, 0.036522, , 
91.14, 0.036398, , 
91.17, 0.036414, , 
91.20, 0.036461, , 
91.23, 0.036446, , 
91.26, 0.036446, , 
91.29, 0.036553, , 
91.32, 0.036557, , 
91.35, 0.036484, , 
91.38, 0.036354, , 
91.41, 0.036344, , 
91.44, 0.036474, , 
91.47, 0.036446, , 
91.50, 0.036347, , 
91.54, 0.036480, , 
91.56, 0.036509, , 
91.59, 0.036455, , 
91.62, 0.036414, , 
91.65, 0.036471, , 
91.68, 0.036588, , 
91.71, 0.036465, , 
91.74, 0.036335, , 
91.77, 0.036363, , 
91.80, 0.036503, , 
91.83, 0.036414, , 
91.86, 0.036392, , 
91.89, 0.036528, , 
91.92, 0.036576, , 
91.95, 0.036499, , 
91.98, 0.036379, , 
92.01, 0.036477, , 
92.04, 0.036503, , 
92.07, 0.036433, , 
92.10, 0.036382, , 
92.13, 0.036436, , 
92.16, 0.036503, , 
92.19, 0.036455, , 
92.22, 0.036363, , 
92.25, 0.036471, , 
92.28, 0.036518, , 
92.31, 0.036484, , 
92.34, 0.036388, , 
92.37, 0.036461, , 
92.40, 0.036547, , 
92.43, 0.036461, , 
92.46, 0.036468, , 
92.49, 0.036506, , 
92.52, 0.036487, , 
92.55, 0.036369, , 
92.58, 0.036347, , 
92.61, 0.036436, , 
92.64, 0.036465, , 
92.67, 0.036420, , 
92.70, 0.036449, , 
92.73, 0.036471, , 
92.76, 0.036458, , 
92.79, 0.036426, , 
92.82, 0.036398, , 
92.85, 0.036499, , 
92.88, 0.036515, , 
92.91, 0.036404, , 
92.94, 0.036426, , 
92.97, 0.036541, , 
93.00, 0.036563, , 
93.03, 0.036458, , 
93.06, 0.036474, , 
93.09, 0.036553, , 
93.12, 0.036522, , 
93.15, 0.036487, , 
93.18, 0.036512, , 
93.21, 0.036493, , 
93.24, 0.036493, , 
93.27, 0.036439, , 
93.30, 0.036531, , 
93.33, 0.036550, , 
93.36, 0.036560, , 
93.39, 0.036509, , 
93.42, 0.036553, , 
93.45, 0.036515, , 
93.48, 0.036553, , 
93.51, 0.036477, , 
93.54, 0.036553, , 
93.57, 0.036649, , 
93.60, 0.036579, , 
93.63, 0.036528, , 
93.66, 0.036560, , 
93.69, 0.036569, , 
93.72, 0.036538, , 
93.75, 0.036538, , 
93.78, 0.036547, , 
93.81, 0.036591, , 
93.84, 0.036496, , 
93.87, 0.036442, , 
93.90, 0.036490, , 
93.93, 0.036534, , 
93.96, 0.036626, , 
93.99, 0.036544, , 
94.02, 0.036515, , 
94.05, 0.036588, , 
94.08, 0.036525, , 
94.11, 0.036426, , 
94.14, 0.036512, , 
94.17, 0.036544, , 
94.20, 0.036452, , 
94.23, 0.036388, , 
94.26, 0.036509, , 
94.29, 0.036538, , 
94.32, 0.036449, , 
94.35, 0.036404, , 
94.38, 0.036465, , 
94.41, 0.036518, , 
94.44, 0.036528, , 
94.47, 0.036468, , 
94.50, 0.036465, , 
94.53, 0.036477, , 
94.56, 0.036404, , 
94.59, 0.036430, , 
94.62, 0.036503, , 
94.65, 0.036493, , 
94.68, 0.036379, , 
94.71, 0.036366, , 
94.74, 0.036503, , 
94.77, 0.036528, , 
94.80, 0.036417, , 
94.83, 0.036395, , 
94.86, 0.036484, , 
94.89, 0.036490, , 
94.92, 0.036360, , 
94.95, 0.036354, , 
94.98, 0.036430, , 
95.01, 0.036433, , 
95.04, 0.036442, , 
95.07, 0.036461, , 
95.10, 0.036512, , 
95.13, 0.036430, , 
95.16, 0.036404, , 
95.19, 0.036414, , 
95.22, 0.036439, , 
95.25, 0.036439, , 
95.28, 0.036369, , 
95.31, 0.036344, , 
95.34, 0.036471, , 
95.37, 0.036430, , 
95.40, 0.036354, , 
95.43, 0.036538, , 
95.46, 0.036636, , 
95.49, 0.036721, , 
95.52, 0.036766, , 
95.55, 0.036880, , 
95.58, 0.036953, , 
95.61, 0.036886, , 
95.64, 0.036864, , 
95.67, 0.036896, , 
95.70, 0.036994, , 
95.73, 0.036947, , 
95.76, 0.036839, , 
95.79, 0.036902, , 
95.82, 0.036924, , 
95.85, 0.036867, , 
95.88, 0.036813, , 
95.91, 0.036855, , 
95.94, 0.036890, , 
95.97, 0.036861, , 
96.00, 0.036855, , 
