Gradient Profiler Text Data File: 20240419_MV_A_40.csv
Date: 2024-04-19
Time: 15:59:27

User: jared
Experiment name: 
UV Unit: EM-1
Rotor Manufacturer: Beckman
Rotor Model: SW28.1
Speed: 28 rpm
Gradient: sucrose 10.0% to 50.0% w/v
Time: 4
w2t:  x 10^0
Sample Volume: 18 ml
Number of Tubes: 6
Volume per mm: 0.183 ml/mm

Absorbance Units Full Scale (AUFS): 2.00
Event Mark-triggered gradient; (with distance; auto start and stop)
Delay: No Delay
UV Wavelength: 254 nm
Samples / sec: 10 Hz
EM1 Speed: 0.30 mm/sec
Distance: 3.20 mm
Number: 30
Dead Volume: 0.000000 ml; Distance due to Dead Volume: 0.00 mm
Total Distance: 96.00 mm

Data Columns:
Distance(mm), Absorbance, Fraction Number, Fraction Volume(ml)
0.00, 0.095323, 0, 0.000
0.03, 0.095320, , 
0.06, 0.095285, , 
0.09, 0.095279, , 
0.12, 0.095320, , 
0.15, 0.095364, , 
0.18, 0.095282, , 
0.21, 0.095272, , 
0.25, 0.095390, , 
0.27, 0.095361, , 
0.30, 0.095231, , 
0.33, 0.095256, , 
0.36, 0.095320, , 
0.39, 0.095298, , 
0.42, 0.095256, , 
0.45, 0.095329, , 
0.48, 0.095520, , 
0.51, 0.095640, , 
0.54, 0.095872, , 
0.57, 0.097191, , 
0.60, 0.101318, , 
0.63, 0.114868, , 
0.67, 0.139816, , 
0.69, 0.178723, , 
0.72, 0.228421, , 
0.75, 0.284948, , 
0.78, 0.355685, , 
0.81, 0.418673, , 
0.84, 0.493413, , 
0.87, 0.547263, , 
0.90, 0.612380, , 
0.93, 0.688884, , 
0.96, 0.754724, , 
0.99, 0.831691, , 
1.02, 0.897807, , 
1.05, 0.964113, , 
1.08, 1.030273, , 
1.11, 1.094892, , 
1.14, 1.165337, , 
1.17, 1.216469, , 
1.20, 1.254402, , 
1.23, 1.282521, , 
1.26, 1.296677, , 
1.29, 1.305400, , 
1.32, 1.310913, , 
1.35, 1.314643, , 
1.38, 1.318177, , 
1.41, 1.320844, , 
1.44, 1.323674, , 
1.47, 1.325847, , 
1.50, 1.327563, , 
1.53, 1.330113, , 
1.56, 1.332339, , 
1.59, 1.335032, , 
1.62, 1.337665, , 
1.65, 1.340472, , 
1.68, 1.343711, , 
1.71, 1.346049, , 
1.74, 1.349309, , 
1.77, 1.352221, , 
1.80, 1.354898, , 
1.83, 1.357528, , 
1.86, 1.359656, , 
1.89, 1.361562, , 
1.92, 1.362435, , 
1.95, 1.363139, , 
1.98, 1.363659, , 
2.01, 1.363834, , 
2.04, 1.363599, , 
2.07, 1.363161, , 
2.10, 1.362590, , 
2.13, 1.361762, , 
2.16, 1.360522, , 
2.19, 1.358543, , 
2.22, 1.356592, , 
2.25, 1.354457, , 
2.28, 1.351574, , 
2.31, 1.348913, , 
2.34, 1.346090, , 
2.37, 1.343099, , 
2.40, 1.339841, , 
2.43, 1.335740, , 
2.46, 1.332121, , 
2.49, 1.327528, , 
2.52, 1.323093, , 
2.55, 1.319274, , 
2.58, 1.313654, , 
2.61, 1.308429, , 
2.64, 1.301435, , 
2.67, 1.294885, , 
2.70, 1.288031, , 
2.73, 1.279543, , 
2.76, 1.272999, , 
2.79, 1.263318, , 
2.82, 1.254576, , 
2.85, 1.245264, , 
2.88, 1.233772, , 
2.91, 1.223599, , 
2.95, 1.211451, , 
2.97, 1.202522, , 
3.00, 1.191410, , 
3.03, 1.179903, , 
3.06, 1.166171, , 
3.09, 1.153997, , 
3.12, 1.139394, , 
3.15, 1.126858, , 
3.18, 1.114304, , 
3.18, 1.112166, 1, 0.583
3.22, 1.099269, , 
3.24, 1.088310, , 
3.27, 1.072701, , 
3.30, 1.059179, , 
3.33, 1.045441, , 
3.36, 1.029210, , 
3.39, 1.015339, , 
3.43, 0.999106, , 
3.45, 0.987334, , 
3.48, 0.973039, , 
3.51, 0.956465, , 
3.54, 0.942442, , 
3.57, 0.925989, , 
3.60, 0.911890, , 
3.63, 0.897730, , 
3.66, 0.881240, , 
3.69, 0.869405, , 
3.72, 0.855334, , 
3.75, 0.839342, , 
3.78, 0.826038, , 
3.81, 0.810743, , 
3.84, 0.797853, , 
3.87, 0.785266, , 
3.90, 0.772921, , 
3.93, 0.760601, , 
3.96, 0.746540, , 
3.99, 0.734848, , 
4.02, 0.723480, , 
4.05, 0.710196, , 
4.08, 0.698968, , 
4.11, 0.688123, , 
4.14, 0.677557, , 
4.17, 0.667124, , 
4.20, 0.655179, , 
4.23, 0.645156, , 
4.26, 0.633423, , 
4.29, 0.623272, , 
4.32, 0.614845, , 
4.35, 0.603356, , 
4.38, 0.593548, , 
4.41, 0.582104, , 
4.44, 0.572417, , 
4.47, 0.563076, , 
4.51, 0.552513, , 
4.53, 0.545198, , 
4.56, 0.535286, , 
4.59, 0.527093, , 
4.62, 0.518963, , 
4.65, 0.509330, , 
4.68, 0.501213, , 
4.72, 0.491992, , 
4.74, 0.485693, , 
4.77, 0.478382, , 
4.80, 0.470242, , 
4.83, 0.463594, , 
4.86, 0.455877, , 
4.89, 0.449263, , 
4.92, 0.442919, , 
4.95, 0.437026, , 
4.98, 0.431234, , 
5.01, 0.424481, , 
5.04, 0.418816, , 
5.07, 0.413325, , 
5.10, 0.407077, , 
5.13, 0.402588, , 
5.16, 0.396663, , 
5.19, 0.391785, , 
5.22, 0.386094, , 
5.25, 0.381146, , 
5.28, 0.376309, , 
5.31, 0.371494, , 
5.34, 0.366619, , 
5.37, 0.360900, , 
5.40, 0.356170, , 
5.43, 0.351609, , 
5.46, 0.346315, , 
5.49, 0.341814, , 
5.52, 0.337427, , 
5.55, 0.332974, , 
5.58, 0.328222, , 
5.61, 0.322665, , 
5.64, 0.317993, , 
5.67, 0.312702, , 
5.70, 0.308274, , 
5.73, 0.304680, , 
5.76, 0.299938, , 
5.79, 0.296094, , 
5.82, 0.291748, , 
5.85, 0.288167, , 
5.88, 0.284881, , 
5.91, 0.281075, , 
5.94, 0.278283, , 
5.97, 0.274439, , 
6.00, 0.271416, , 
6.03, 0.268568, , 
6.06, 0.265383, , 
6.09, 0.262785, , 
6.12, 0.260029, , 
6.15, 0.258097, , 
6.18, 0.255629, , 
6.21, 0.252765, , 
6.24, 0.250462, , 
6.27, 0.247684, , 
6.30, 0.245200, , 
6.33, 0.242669, , 
6.36, 0.240271, , 
6.39, 0.238162, 2, 0.586
6.39, 0.237740, , 
6.42, 0.234736, , 
6.45, 0.232312, , 
6.48, 0.230238, , 
6.51, 0.227643, , 
6.54, 0.225192, , 
6.57, 0.222654, , 
6.60, 0.220196, , 
6.63, 0.217756, , 
6.66, 0.214991, , 
6.69, 0.212666, , 
6.72, 0.210080, , 
6.76, 0.207879, , 
6.78, 0.206011, , 
6.81, 0.203457, , 
6.84, 0.201475, , 
6.87, 0.199277, , 
6.90, 0.197402, , 
6.93, 0.195597, , 
6.97, 0.193561, , 
6.99, 0.192175, , 
7.02, 0.190316, , 
7.05, 0.188927, , 
7.08, 0.187715, , 
7.11, 0.186281, , 
7.14, 0.184816, , 
7.17, 0.183452, , 
7.20, 0.182142, , 
7.23, 0.180750, , 
7.26, 0.179379, , 
7.29, 0.177838, , 
7.32, 0.176601, , 
7.35, 0.175024, , 
7.38, 0.173654, , 
7.41, 0.172303, , 
7.44, 0.171342, , 
7.47, 0.170152, , 
7.50, 0.168785, , 
7.53, 0.167630, , 
7.56, 0.166387, , 
7.59, 0.164757, , 
7.62, 0.163342, , 
7.65, 0.162080, , 
7.68, 0.160922, , 
7.71, 0.159726, , 
7.74, 0.158267, , 
7.77, 0.157169, , 
7.80, 0.155882, , 
7.84, 0.154651, , 
7.86, 0.153671, , 
7.89, 0.152513, , 
7.92, 0.151628, , 
7.95, 0.150546, , 
7.98, 0.149538, , 
8.01, 0.148726, , 
8.05, 0.147882, , 
8.07, 0.147209, , 
8.10, 0.146217, , 
8.13, 0.145551, , 
8.16, 0.144872, , 
8.19, 0.143930, , 
8.22, 0.143083, , 
8.25, 0.142366, , 
8.28, 0.141643, , 
8.31, 0.140901, , 
8.34, 0.140069, , 
8.37, 0.139578, , 
8.40, 0.138956, , 
8.43, 0.138430, , 
8.46, 0.137862, , 
8.49, 0.137269, , 
8.52, 0.136564, , 
8.55, 0.135626, , 
8.58, 0.134833, , 
8.61, 0.134255, , 
8.64, 0.133462, , 
8.67, 0.132787, , 
8.70, 0.132038, , 
8.73, 0.131464, , 
8.76, 0.130839, , 
8.79, 0.130008, , 
8.82, 0.129440, , 
8.85, 0.128866, , 
8.88, 0.128371, , 
8.91, 0.127775, , 
8.94, 0.127179, , 
8.97, 0.126900, , 
9.00, 0.126500, , 
9.03, 0.125986, , 
9.06, 0.125656, , 
9.09, 0.125368, , 
9.12, 0.125076, , 
9.15, 0.124603, , 
9.18, 0.124311, , 
9.21, 0.124099, , 
9.24, 0.123702, , 
9.27, 0.123372, , 
9.30, 0.123176, , 
9.33, 0.123046, , 
9.36, 0.122849, , 
9.39, 0.122560, , 
9.42, 0.122351, , 
9.45, 0.122034, , 
9.48, 0.121717, , 
9.51, 0.121403, , 
9.54, 0.121114, , 
9.57, 0.120857, , 
9.59, 0.120714, 3, 0.586
9.60, 0.120594, , 
9.63, 0.120296, , 
9.66, 0.120105, , 
9.69, 0.119918, , 
9.72, 0.119626, , 
9.75, 0.119427, , 
9.78, 0.119300, , 
9.81, 0.119224, , 
9.84, 0.119011, , 
9.87, 0.118903, , 
9.90, 0.118935, , 
9.93, 0.118932, , 
9.96, 0.118890, , 
9.99, 0.118856, , 
10.02, 0.118916, , 
10.05, 0.118951, , 
10.08, 0.118881, , 
10.11, 0.118862, , 
10.14, 0.118986, , 
10.17, 0.119109, , 
10.20, 0.119230, , 
10.23, 0.119309, , 
10.26, 0.119433, , 
10.29, 0.119604, , 
10.33, 0.119639, , 
10.35, 0.119725, , 
10.38, 0.119848, , 
10.41, 0.120016, , 
10.44, 0.120108, , 
10.47, 0.120188, , 
10.50, 0.120454, , 
10.53, 0.120581, , 
10.56, 0.120619, , 
10.59, 0.120733, , 
10.62, 0.120898, , 
10.65, 0.120882, , 
10.68, 0.120790, , 
10.71, 0.120848, , 
10.74, 0.121063, , 
10.77, 0.121190, , 
10.80, 0.121254, , 
10.83, 0.121333, , 
10.86, 0.121403, , 
10.89, 0.121380, , 
10.92, 0.121235, , 
10.95, 0.121263, , 
10.98, 0.121428, , 
11.01, 0.121453, , 
11.04, 0.121352, , 
11.07, 0.121352, , 
11.10, 0.121431, , 
11.13, 0.121358, , 
11.16, 0.121295, , 
11.19, 0.121219, , 
11.22, 0.121095, , 
11.25, 0.120946, , 
11.28, 0.120752, , 
11.31, 0.120670, , 
11.34, 0.120499, , 
11.37, 0.120286, , 
11.40, 0.119991, , 
11.43, 0.119810, , 
11.46, 0.119658, , 
11.49, 0.119274, , 
11.52, 0.118929, , 
11.55, 0.118576, , 
11.58, 0.118278, , 
11.61, 0.117825, , 
11.64, 0.117213, , 
11.67, 0.116905, , 
11.70, 0.116416, , 
11.73, 0.115909, , 
11.76, 0.115452, , 
11.79, 0.115246, , 
11.82, 0.115014, , 
11.85, 0.114507, , 
11.88, 0.114133, , 
11.91, 0.113800, , 
11.94, 0.113317, , 
11.97, 0.112810, , 
12.00, 0.112334, , 
12.03, 0.111985, , 
12.06, 0.111598, , 
12.09, 0.110967, , 
12.12, 0.110513, , 
12.15, 0.110117, , 
12.18, 0.109682, , 
12.21, 0.109241, , 
12.24, 0.108696, , 
12.27, 0.108353, , 
12.30, 0.107912, , 
12.33, 0.107322, , 
12.36, 0.106920, , 
12.39, 0.106523, , 
12.42, 0.105968, , 
12.45, 0.105511, , 
12.48, 0.105077, , 
12.51, 0.104712, , 
12.54, 0.104230, , 
12.57, 0.103614, , 
12.60, 0.103237, , 
12.63, 0.102875, , 
12.66, 0.102346, , 
12.69, 0.101879, , 
12.72, 0.101470, , 
12.75, 0.101096, , 
12.78, 0.100601, , 
12.79, 0.100300, 4, 0.587
12.81, 0.099957, , 
12.84, 0.099621, , 
12.87, 0.099218, , 
12.90, 0.098752, , 
12.93, 0.098194, , 
12.96, 0.097819, , 
12.99, 0.097432, , 
13.02, 0.096811, , 
13.05, 0.096294, , 
13.08, 0.095967, , 
13.11, 0.095545, , 
13.14, 0.095174, , 
13.17, 0.094892, , 
13.20, 0.094616, , 
13.23, 0.094375, , 
13.26, 0.093905, , 
13.29, 0.093547, , 
13.32, 0.093334, , 
13.35, 0.093090, , 
13.38, 0.092722, , 
13.41, 0.092367, , 
13.44, 0.092151, , 
13.47, 0.091894, , 
13.50, 0.091574, , 
13.53, 0.091272, , 
13.56, 0.091054, , 
13.59, 0.090832, , 
13.62, 0.090429, , 
13.65, 0.090251, , 
13.68, 0.090042, , 
13.71, 0.089737, , 
13.74, 0.089499, , 
13.78, 0.089280, , 
13.80, 0.089144, , 
13.83, 0.088897, , 
13.86, 0.088567, , 
13.89, 0.088370, , 
13.92, 0.088215, , 
13.95, 0.088056, , 
13.98, 0.087821, , 
14.01, 0.087650, , 
14.04, 0.087549, , 
14.07, 0.087346, , 
14.10, 0.087060, , 
14.13, 0.087028, , 
14.16, 0.086955, , 
14.19, 0.086813, , 
14.22, 0.086568, , 
14.25, 0.086454, , 
14.28, 0.086435, , 
14.31, 0.086188, , 
14.35, 0.085963, , 
14.37, 0.085899, , 
14.40, 0.085810, , 
14.43, 0.085611, , 
14.46, 0.085522, , 
14.49, 0.085427, , 
14.52, 0.085376, , 
14.55, 0.085224, , 
14.58, 0.084995, , 
14.61, 0.084837, , 
14.64, 0.084738, , 
14.67, 0.084538, , 
14.70, 0.084301, , 
14.73, 0.084243, , 
14.76, 0.084237, , 
14.79, 0.084050, , 
14.82, 0.083749, , 
14.85, 0.083682, , 
14.88, 0.083552, , 
14.91, 0.083270, , 
14.94, 0.083051, , 
14.97, 0.082927, , 
15.00, 0.082810, , 
15.03, 0.082521, , 
15.06, 0.082362, , 
15.09, 0.082296, , 
15.12, 0.082131, , 
15.15, 0.081928, , 
15.18, 0.081706, , 
15.21, 0.081550, , 
15.24, 0.081455, , 
15.27, 0.081157, , 
15.30, 0.081011, , 
15.33, 0.080932, , 
15.36, 0.080742, , 
15.39, 0.080447, , 
15.42, 0.080253, , 
15.45, 0.080167, , 
15.48, 0.079971, , 
15.51, 0.079752, , 
15.54, 0.079533, , 
15.57, 0.079390, , 
15.60, 0.079292, , 
15.63, 0.079083, , 
15.66, 0.078835, , 
15.69, 0.078750, , 
15.72, 0.078578, , 
15.75, 0.078372, , 
15.78, 0.078172, , 
15.81, 0.078014, , 
15.84, 0.077893, , 
15.87, 0.077598, , 
15.90, 0.077436, , 
15.93, 0.077344, , 
15.96, 0.077214, , 
15.99, 0.076973, 5, 0.585
16.00, 0.076929, , 
16.02, 0.076783, , 
16.05, 0.076777, , 
16.08, 0.076669, , 
16.11, 0.076472, , 
16.14, 0.076383, , 
16.17, 0.076320, , 
16.20, 0.076177, , 
16.23, 0.076019, , 
16.26, 0.076076, , 
16.29, 0.076149, , 
16.32, 0.076047, , 
16.35, 0.075901, , 
16.38, 0.075911, , 
16.41, 0.076057, , 
16.44, 0.076174, , 
16.47, 0.076196, , 
16.50, 0.076352, , 
16.53, 0.076498, , 
16.56, 0.076491, , 
16.59, 0.076466, , 
16.62, 0.076637, , 
16.65, 0.077015, , 
16.69, 0.077097, , 
16.71, 0.077246, , 
16.74, 0.077490, , 
16.77, 0.077769, , 
16.80, 0.078093, , 
16.83, 0.078318, , 
16.86, 0.078886, , 
16.90, 0.079336, , 
16.92, 0.079663, , 
16.95, 0.080085, , 
16.98, 0.080580, , 
17.01, 0.081148, , 
17.04, 0.081557, , 
17.07, 0.082055, , 
17.10, 0.082724, , 
17.13, 0.083403, , 
17.16, 0.084053, , 
17.19, 0.084694, , 
17.22, 0.085493, , 
17.25, 0.086534, , 
17.28, 0.087241, , 
17.31, 0.088034, , 
17.34, 0.088979, , 
17.37, 0.089959, , 
17.40, 0.091073, , 
17.43, 0.091977, , 
17.46, 0.093163, , 
17.49, 0.094181, , 
17.53, 0.095110, , 
17.55, 0.096053, , 
17.58, 0.097226, , 
17.61, 0.098533, , 
17.64, 0.099472, , 
17.67, 0.100433, , 
17.70, 0.101746, , 
17.73, 0.102479, , 
17.76, 0.103770, , 
17.79, 0.104715, , 
17.82, 0.105768, , 
17.85, 0.106939, , 
17.88, 0.107770, , 
17.91, 0.108823, , 
17.94, 0.109565, , 
17.97, 0.110317, , 
18.00, 0.111110, , 
18.03, 0.111865, , 
18.06, 0.112737, , 
18.09, 0.113447, , 
18.12, 0.113936, , 
18.15, 0.114466, , 
18.18, 0.115132, , 
18.21, 0.115563, , 
18.24, 0.115804, , 
18.28, 0.116232, , 
18.30, 0.116556, , 
18.33, 0.116898, , 
18.36, 0.117038, , 
18.39, 0.117127, , 
18.42, 0.117247, , 
18.45, 0.117276, , 
18.48, 0.117190, , 
18.51, 0.117159, , 
18.54, 0.117228, , 
18.57, 0.117121, , 
18.60, 0.116905, , 
18.63, 0.116794, , 
18.66, 0.116695, , 
18.69, 0.116451, , 
18.72, 0.116118, , 
18.75, 0.115855, , 
18.78, 0.115620, , 
18.81, 0.115290, , 
18.84, 0.114951, , 
18.87, 0.114602, , 
18.91, 0.114405, , 
18.93, 0.114107, , 
18.96, 0.113505, , 
18.99, 0.113041, , 
19.02, 0.112578, , 
19.05, 0.112150, , 
19.08, 0.111601, , 
19.12, 0.111141, , 
19.14, 0.110932, , 
19.17, 0.110602, , 
19.19, 0.110374, 6, 0.585
19.20, 0.110180, , 
19.23, 0.109809, , 
19.26, 0.109419, , 
19.29, 0.108953, , 
19.32, 0.108528, , 
19.35, 0.108169, , 
19.38, 0.107725, , 
19.41, 0.107183, , 
19.44, 0.106669, , 
19.47, 0.106209, , 
19.50, 0.105832, , 
19.53, 0.105441, , 
19.56, 0.104918, , 
19.59, 0.104512, , 
19.62, 0.104033, , 
19.65, 0.103560, , 
19.68, 0.103018, , 
19.71, 0.102514, , 
19.74, 0.102270, , 
19.77, 0.101759, , 
19.80, 0.101229, , 
19.83, 0.100782, , 
19.86, 0.100376, , 
19.89, 0.099872, , 
19.92, 0.099313, , 
19.95, 0.098964, , 
19.98, 0.098571, , 
20.01, 0.098140, , 
20.04, 0.097724, , 
20.07, 0.097407, , 
20.10, 0.097115, , 
20.13, 0.096715, , 
20.16, 0.096240, , 
20.19, 0.095859, , 
20.22, 0.095412, , 
20.25, 0.094971, , 
20.28, 0.094486, , 
20.31, 0.094162, , 
20.34, 0.093896, , 
20.37, 0.093559, , 
20.40, 0.093087, , 
20.43, 0.092814, , 
20.46, 0.092541, , 
20.49, 0.092123, , 
20.52, 0.091808, , 
20.55, 0.091355, , 
20.58, 0.091066, , 
20.61, 0.090727, , 
20.65, 0.090286, , 
20.67, 0.090007, , 
20.70, 0.089709, , 
20.73, 0.089353, , 
20.76, 0.088998, , 
20.79, 0.088687, , 
20.82, 0.088535, , 
20.86, 0.088196, , 
20.88, 0.087920, , 
20.91, 0.087637, , 
20.94, 0.087380, , 
20.97, 0.087085, , 
21.00, 0.086759, , 
21.03, 0.086607, , 
21.06, 0.086423, , 
21.09, 0.086169, , 
21.12, 0.085982, , 
21.15, 0.085839, , 
21.18, 0.085699, , 
21.21, 0.085487, , 
21.24, 0.085262, , 
21.28, 0.085198, , 
21.30, 0.085087, , 
21.33, 0.084919, , 
21.36, 0.084843, , 
21.39, 0.084894, , 
21.42, 0.084732, , 
21.45, 0.084535, , 
21.48, 0.084440, , 
21.51, 0.084418, , 
21.54, 0.084440, , 
21.57, 0.084351, , 
21.60, 0.084297, , 
21.63, 0.084396, , 
21.66, 0.084412, , 
21.69, 0.084361, , 
21.72, 0.084418, , 
21.75, 0.084764, , 
21.78, 0.084979, , 
21.81, 0.085103, , 
21.84, 0.085246, , 
21.87, 0.085500, , 
21.90, 0.085775, , 
21.93, 0.086026, , 
21.96, 0.086391, , 
21.99, 0.086933, , 
22.02, 0.087365, , 
22.05, 0.087878, , 
22.08, 0.088434, , 
22.11, 0.088998, , 
22.14, 0.089902, , 
22.17, 0.090743, , 
22.20, 0.091932, , 
22.23, 0.093169, , 
22.26, 0.094441, , 
22.29, 0.096100, , 
22.32, 0.097512, , 
22.35, 0.099824, , 
22.38, 0.101952, , 
22.39, 0.102358, 7, 0.585
22.41, 0.104369, , 
22.44, 0.107484, , 
22.47, 0.110615, , 
22.50, 0.114402, , 
22.53, 0.117273, , 
22.56, 0.121133, , 
22.59, 0.126272, , 
22.62, 0.131087, , 
22.65, 0.137018, , 
22.68, 0.142613, , 
22.71, 0.148615, , 
22.74, 0.154978, , 
22.77, 0.161734, , 
22.80, 0.168982, , 
22.83, 0.178085, , 
22.86, 0.186288, , 
22.89, 0.196086, , 
22.92, 0.205059, , 
22.95, 0.212888, , 
22.98, 0.225699, , 
23.01, 0.234044, , 
23.04, 0.244356, , 
23.07, 0.256828, , 
23.10, 0.267553, , 
23.13, 0.280240, , 
23.16, 0.291374, , 
23.19, 0.302637, , 
23.22, 0.313847, , 
23.25, 0.324955, , 
23.28, 0.338062, , 
23.31, 0.349335, , 
23.34, 0.360272, , 
23.37, 0.372797, , 
23.40, 0.383474, , 
23.43, 0.393951, , 
23.46, 0.403901, , 
23.49, 0.413503, , 
23.52, 0.424437, , 
23.55, 0.433486, , 
23.58, 0.443443, , 
23.61, 0.451436, , 
23.64, 0.457875, , 
23.67, 0.466411, , 
23.70, 0.473123, , 
23.73, 0.480361, , 
23.76, 0.486239, , 
23.79, 0.491672, , 
23.82, 0.497305, , 
23.85, 0.500890, , 
23.88, 0.505533, , 
23.91, 0.508959, , 
23.94, 0.511960, , 
23.97, 0.514973, , 
24.00, 0.517187, , 
24.03, 0.519274, , 
24.06, 0.520248, , 
24.09, 0.521399, , 
24.12, 0.522345, , 
24.15, 0.522786, , 
24.18, 0.522754, , 
24.21, 0.522449, , 
24.24, 0.522021, , 
24.27, 0.521292, , 
24.30, 0.520197, , 
24.33, 0.518665, , 
24.36, 0.517209, , 
24.39, 0.515506, , 
24.42, 0.513178, , 
24.45, 0.511091, , 
24.48, 0.508899, , 
24.51, 0.506545, , 
24.54, 0.503906, , 
24.57, 0.500607, , 
24.60, 0.497778, , 
24.63, 0.494333, , 
24.66, 0.491066, , 
24.69, 0.488348, , 
24.72, 0.484586, , 
24.75, 0.481205, , 
24.78, 0.476945, , 
24.81, 0.473275, , 
24.84, 0.469573, , 
24.87, 0.465133, , 
24.90, 0.461796, , 
24.93, 0.457212, , 
24.96, 0.453197, , 
24.99, 0.449019, , 
25.02, 0.444004, , 
25.05, 0.439728, , 
25.08, 0.435462, , 
25.11, 0.431123, , 
25.14, 0.426705, , 
25.17, 0.421509, , 
25.20, 0.417128, , 
25.23, 0.411812, , 
25.26, 0.407159, , 
25.29, 0.402531, , 
25.32, 0.397964, , 
25.35, 0.393295, , 
25.38, 0.388587, , 
25.41, 0.383243, , 
25.44, 0.378631, , 
25.47, 0.373200, , 
25.50, 0.368519, , 
25.53, 0.364703, , 
25.56, 0.359539, , 
25.59, 0.355771, 8, 0.585
25.59, 0.355006, , 
25.62, 0.349592, , 
25.65, 0.345126, , 
25.68, 0.340694, , 
25.71, 0.335540, , 
25.74, 0.331052, , 
25.77, 0.326709, , 
25.80, 0.322414, , 
25.83, 0.318050, , 
25.86, 0.312949, , 
25.89, 0.308750, , 
25.92, 0.303938, , 
25.95, 0.300477, , 
25.98, 0.296325, , 
26.01, 0.291593, , 
26.04, 0.287542, , 
26.07, 0.282768, , 
26.10, 0.278673, , 
26.13, 0.274820, , 
26.16, 0.270985, , 
26.19, 0.267077, , 
26.22, 0.262484, , 
26.25, 0.258757, , 
26.28, 0.255144, , 
26.31, 0.250913, , 
26.34, 0.247300, , 
26.37, 0.243862, , 
26.40, 0.240550, , 
26.43, 0.237089, , 
26.46, 0.233153, , 
26.49, 0.230057, , 
26.52, 0.226400, , 
26.55, 0.223314, , 
26.58, 0.220789, , 
26.61, 0.217500, , 
26.64, 0.214737, , 
26.67, 0.211435, , 
26.70, 0.208758, , 
26.73, 0.206318, , 
26.76, 0.203454, , 
26.79, 0.201221, , 
26.82, 0.198262, , 
26.85, 0.195921, , 
26.88, 0.193507, , 
26.91, 0.190713, , 
26.94, 0.188334, , 
26.97, 0.185676, , 
27.00, 0.183747, , 
27.03, 0.181492, , 
27.06, 0.179024, , 
27.09, 0.176953, , 
27.12, 0.174545, , 
27.15, 0.172277, , 
27.18, 0.170165, , 
27.21, 0.168271, , 
27.24, 0.166314, , 
27.27, 0.163830, , 
27.30, 0.161857, , 
27.33, 0.160043, , 
27.36, 0.157893, , 
27.39, 0.156040, , 
27.42, 0.154495, , 
27.45, 0.152592, , 
27.48, 0.150848, , 
27.51, 0.148678, , 
27.54, 0.146883, , 
27.57, 0.145078, , 
27.61, 0.143438, , 
27.63, 0.142011, , 
27.66, 0.140088, , 
27.69, 0.138652, , 
27.72, 0.137050, , 
27.75, 0.135251, , 
27.78, 0.133852, , 
27.81, 0.132286, , 
27.84, 0.131045, , 
27.87, 0.129516, , 
27.90, 0.127826, , 
27.93, 0.126532, , 
27.96, 0.124949, , 
27.99, 0.123509, , 
28.02, 0.122231, , 
28.05, 0.121060, , 
28.08, 0.119864, , 
28.11, 0.118491, , 
28.14, 0.117260, , 
28.17, 0.116144, , 
28.20, 0.114827, , 
28.24, 0.113663, , 
28.26, 0.112626, , 
28.29, 0.111554, , 
28.32, 0.110428, , 
28.35, 0.109108, , 
28.38, 0.108077, , 
28.41, 0.106926, , 
28.44, 0.106095, , 
28.47, 0.104982, , 
28.50, 0.103827, , 
28.53, 0.102936, , 
28.56, 0.101867, , 
28.59, 0.100940, , 
28.62, 0.100128, , 
28.65, 0.099145, , 
28.68, 0.098393, , 
28.71, 0.097331, , 
28.74, 0.096677, , 
28.77, 0.095957, , 
28.78, 0.095551, 9, 0.585
28.80, 0.094933, , 
28.83, 0.094118, , 
28.86, 0.093455, , 
28.89, 0.092693, , 
28.92, 0.091777, , 
28.95, 0.091006, , 
28.98, 0.090419, , 
29.01, 0.089893, , 
29.04, 0.089179, , 
29.07, 0.088456, , 
29.10, 0.087875, , 
29.13, 0.087146, , 
29.16, 0.086416, , 
29.19, 0.085804, , 
29.22, 0.085081, , 
29.25, 0.084351, , 
29.28, 0.083771, , 
29.31, 0.083035, , 
29.34, 0.082483, , 
29.37, 0.081728, , 
29.40, 0.081148, , 
29.43, 0.080532, , 
29.46, 0.079936, , 
29.49, 0.079466, , 
29.52, 0.078854, , 
29.55, 0.078296, , 
29.58, 0.077909, , 
29.61, 0.077316, , 
29.64, 0.076793, , 
29.67, 0.076383, , 
29.70, 0.075958, , 
29.73, 0.075527, , 
29.76, 0.074985, , 
29.79, 0.074483, , 
29.82, 0.074039, , 
29.85, 0.073595, , 
29.88, 0.073256, , 
29.91, 0.072777, , 
29.94, 0.072466, , 
29.97, 0.072031, , 
30.00, 0.071660, , 
30.03, 0.071311, , 
30.07, 0.070867, , 
30.09, 0.070465, , 
30.12, 0.069976, , 
30.15, 0.069583, , 
30.18, 0.069281, , 
30.21, 0.068840, , 
30.24, 0.068447, , 
30.27, 0.068181, , 
30.30, 0.067895, , 
30.33, 0.067530, , 
30.36, 0.067169, , 
30.39, 0.066829, , 
30.42, 0.066595, , 
30.45, 0.066186, , 
30.48, 0.065846, , 
30.51, 0.065599, , 
30.54, 0.065389, , 
30.57, 0.065047, , 
30.60, 0.064723, , 
30.63, 0.064593, , 
30.66, 0.064422, , 
30.69, 0.064222, , 
30.72, 0.064038, , 
30.75, 0.063937, , 
30.78, 0.063791, , 
30.81, 0.063486, , 
30.84, 0.063296, , 
30.87, 0.063194, , 
30.90, 0.063007, , 
30.93, 0.062801, , 
30.96, 0.062728, , 
30.99, 0.062788, , 
31.02, 0.062754, , 
31.05, 0.062519, , 
31.08, 0.062360, , 
31.11, 0.062281, , 
31.14, 0.062167, , 
31.17, 0.061948, , 
31.20, 0.061808, , 
31.23, 0.061815, , 
31.26, 0.061745, , 
31.29, 0.061513, , 
31.32, 0.061459, , 
31.35, 0.061444, , 
31.38, 0.061269, , 
31.41, 0.061206, , 
31.44, 0.061212, , 
31.47, 0.061250, , 
31.50, 0.061066, , 
31.53, 0.060838, , 
31.56, 0.060777, , 
31.59, 0.060790, , 
31.62, 0.060632, , 
31.65, 0.060584, , 
31.68, 0.060682, , 
31.71, 0.060752, , 
31.74, 0.060714, , 
31.77, 0.060682, , 
31.80, 0.060679, , 
31.83, 0.060714, , 
31.86, 0.060587, , 
31.89, 0.060590, , 
31.93, 0.060651, , 
31.95, 0.060695, , 
31.98, 0.060644, , 
31.99, 0.060638, 10, 0.586
32.01, 0.060625, , 
32.04, 0.060708, , 
32.07, 0.060701, , 
32.10, 0.060635, , 
32.14, 0.060651, , 
32.16, 0.060651, , 
32.19, 0.060663, , 
32.22, 0.060758, , 
32.25, 0.060857, , 
32.28, 0.061009, , 
32.31, 0.061114, , 
32.35, 0.061095, , 
32.37, 0.061082, , 
32.40, 0.061190, , 
32.43, 0.061177, , 
32.46, 0.061133, , 
32.49, 0.061155, , 
32.52, 0.061228, , 
32.56, 0.061155, , 
32.58, 0.061047, , 
32.61, 0.061098, , 
32.64, 0.061183, , 
32.67, 0.061101, , 
32.70, 0.061069, , 
32.73, 0.061174, , 
32.76, 0.061247, , 
32.79, 0.061120, , 
32.82, 0.061091, , 
32.85, 0.061190, , 
32.88, 0.061263, , 
32.91, 0.061149, , 
32.94, 0.061120, , 
32.97, 0.061190, , 
33.00, 0.061206, , 
33.03, 0.061183, , 
33.06, 0.061079, , 
33.09, 0.061161, , 
33.12, 0.061183, , 
33.15, 0.061164, , 
33.18, 0.061149, , 
33.21, 0.061190, , 
33.24, 0.061098, , 
33.27, 0.060850, , 
33.30, 0.060739, , 
33.33, 0.060708, , 
33.36, 0.060679, , 
33.39, 0.060597, , 
33.42, 0.060587, , 
33.45, 0.060682, , 
33.48, 0.060689, , 
33.51, 0.060435, , 
33.54, 0.060314, , 
33.57, 0.060314, , 
33.60, 0.060260, , 
33.63, 0.060108, , 
33.66, 0.060073, , 
33.69, 0.060134, , 
33.72, 0.059975, , 
33.75, 0.059797, , 
33.78, 0.059728, , 
33.81, 0.059699, , 
33.84, 0.059664, , 
33.87, 0.059436, , 
33.90, 0.059337, , 
33.93, 0.059280, , 
33.96, 0.059096, , 
33.99, 0.058919, , 
34.02, 0.058766, , 
34.05, 0.058649, , 
34.08, 0.058475, , 
34.11, 0.058221, , 
34.14, 0.058170, , 
34.17, 0.058059, , 
34.21, 0.057875, , 
34.23, 0.057745, , 
34.26, 0.057504, , 
34.29, 0.057393, , 
34.32, 0.057111, , 
34.35, 0.056825, , 
34.38, 0.056727, , 
34.42, 0.056686, , 
34.44, 0.056470, , 
34.47, 0.056232, , 
34.50, 0.056127, , 
34.53, 0.056010, , 
34.56, 0.055870, , 
34.59, 0.055626, , 
34.62, 0.055436, , 
34.65, 0.055309, , 
34.68, 0.055065, , 
34.71, 0.054821, , 
34.74, 0.054763, , 
34.77, 0.054586, , 
34.80, 0.054342, , 
34.83, 0.054161, , 
34.86, 0.054028, , 
34.89, 0.053932, , 
34.92, 0.053625, , 
34.95, 0.053406, , 
34.98, 0.053349, , 
35.01, 0.053158, , 
35.04, 0.052892, , 
35.07, 0.052648, , 
35.10, 0.052549, , 
35.13, 0.052416, , 
35.16, 0.052115, , 
35.18, 0.051959, 11, 0.585
35.19, 0.051906, , 
35.22, 0.051921, , 
35.25, 0.051820, , 
35.28, 0.051468, , 
35.31, 0.051366, , 
35.34, 0.051265, , 
35.37, 0.051071, , 
35.40, 0.050871, , 
35.43, 0.050745, , 
35.46, 0.050681, , 
35.49, 0.050462, , 
35.52, 0.050288, , 
35.55, 0.050218, , 
35.58, 0.050215, , 
35.61, 0.050142, , 
35.64, 0.049860, , 
35.67, 0.049815, , 
35.71, 0.049803, , 
35.73, 0.049612, , 
35.76, 0.049384, , 
35.79, 0.049327, , 
35.82, 0.049355, , 
35.85, 0.049162, , 
35.88, 0.048876, , 
35.91, 0.048810, , 
35.94, 0.048797, , 
35.98, 0.048667, , 
36.00, 0.048604, , 
36.03, 0.048654, , 
36.06, 0.048680, , 
36.09, 0.048496, , 
36.12, 0.048337, , 
36.15, 0.048324, , 
36.18, 0.048337, , 
36.21, 0.048172, , 
36.24, 0.048121, , 
36.27, 0.048080, , 
36.30, 0.048007, , 
36.33, 0.047855, , 
36.36, 0.047773, , 
36.39, 0.047807, , 
36.42, 0.047817, , 
36.45, 0.047661, , 
36.48, 0.047541, , 
36.51, 0.047382, , 
36.54, 0.047287, , 
36.57, 0.047221, , 
36.60, 0.047094, , 
36.63, 0.047103, , 
36.66, 0.046941, , 
36.69, 0.046792, , 
36.72, 0.046742, , 
36.75, 0.046723, , 
36.78, 0.046700, , 
36.81, 0.046593, , 
36.84, 0.046650, , 
36.87, 0.046681, , 
36.90, 0.046700, , 
36.93, 0.046707, , 
36.96, 0.046770, , 
36.99, 0.046783, , 
37.02, 0.046783, , 
37.05, 0.046666, , 
37.08, 0.046688, , 
37.11, 0.046799, , 
37.14, 0.046662, , 
37.17, 0.046494, , 
37.20, 0.046361, , 
37.23, 0.046399, , 
37.26, 0.046323, , 
37.29, 0.046275, , 
37.32, 0.046266, , 
37.35, 0.046367, , 
37.38, 0.046434, , 
37.41, 0.046390, , 
37.44, 0.046386, , 
37.47, 0.046339, , 
37.50, 0.046269, , 
37.53, 0.046187, , 
37.56, 0.046218, , 
37.59, 0.046266, , 
37.62, 0.046206, , 
37.65, 0.046171, , 
37.68, 0.046206, , 
37.71, 0.046212, , 
37.74, 0.046183, , 
37.77, 0.046145, , 
37.80, 0.046177, , 
37.83, 0.046212, , 
37.86, 0.046206, , 
37.89, 0.046323, , 
37.92, 0.046491, , 
37.95, 0.046656, , 
37.98, 0.046561, , 
38.01, 0.046548, , 
38.04, 0.046627, , 
38.07, 0.046666, , 
38.10, 0.046662, , 
38.13, 0.046697, , 
38.16, 0.046770, , 
38.19, 0.046960, , 
38.22, 0.046995, , 
38.25, 0.047040, , 
38.28, 0.047192, , 
38.31, 0.047249, , 
38.34, 0.047360, , 
38.37, 0.047414, , 
38.38, 0.047430, 12, 0.586
38.40, 0.047500, , 
38.43, 0.047639, , 
38.46, 0.047557, , 
38.49, 0.047684, , 
38.52, 0.047953, , 
38.55, 0.048080, , 
38.58, 0.048055, , 
38.61, 0.048087, , 
38.64, 0.048118, , 
38.67, 0.048134, , 
38.70, 0.048144, , 
38.73, 0.048277, , 
38.76, 0.048432, , 
38.79, 0.048562, , 
38.82, 0.048537, , 
38.85, 0.048565, , 
38.88, 0.048727, , 
38.91, 0.048895, , 
38.94, 0.048981, , 
38.97, 0.049155, , 
39.00, 0.049349, , 
39.03, 0.049530, , 
39.06, 0.049571, , 
39.09, 0.049685, , 
39.12, 0.049891, , 
39.15, 0.050002, , 
39.18, 0.050015, , 
39.21, 0.050145, , 
39.24, 0.050345, , 
39.27, 0.050488, , 
39.30, 0.050497, , 
39.33, 0.050605, , 
39.36, 0.050805, , 
39.39, 0.050970, , 
39.42, 0.051087, , 
39.45, 0.051109, , 
39.48, 0.051220, , 
39.51, 0.051306, , 
39.54, 0.051220, , 
39.57, 0.051366, , 
39.60, 0.051585, , 
39.63, 0.051652, , 
39.66, 0.051636, , 
39.69, 0.051699, , 
39.72, 0.051760, , 
39.75, 0.051772, , 
39.78, 0.051912, , 
39.81, 0.052026, , 
39.84, 0.052140, , 
39.87, 0.052172, , 
39.90, 0.052181, , 
39.93, 0.052220, , 
39.96, 0.052400, , 
39.99, 0.052556, , 
40.02, 0.052530, , 
40.05, 0.052588, , 
40.08, 0.052673, , 
40.11, 0.052607, , 
40.14, 0.052616, , 
40.17, 0.052705, , 
40.20, 0.052759, , 
40.23, 0.052733, , 
40.26, 0.052794, , 
40.29, 0.053009, , 
40.32, 0.053127, , 
40.35, 0.053162, , 
40.38, 0.053149, , 
40.41, 0.053177, , 
40.44, 0.053244, , 
40.47, 0.053238, , 
40.50, 0.053174, , 
40.53, 0.053212, , 
40.56, 0.053301, , 
40.59, 0.053279, , 
40.62, 0.053193, , 
40.65, 0.053244, , 
40.68, 0.053304, , 
40.71, 0.053241, , 
40.74, 0.053168, , 
40.77, 0.053260, , 
40.80, 0.053327, , 
40.83, 0.053162, , 
40.86, 0.052952, , 
40.89, 0.052898, , 
40.92, 0.052841, , 
40.95, 0.052733, , 
40.98, 0.052667, , 
41.01, 0.052771, , 
41.04, 0.052670, , 
41.07, 0.052407, , 
41.10, 0.052302, , 
41.13, 0.052353, , 
41.17, 0.052321, , 
41.19, 0.052150, , 
41.22, 0.051985, , 
41.25, 0.051909, , 
41.28, 0.051858, , 
41.31, 0.051747, , 
41.34, 0.051684, , 
41.38, 0.051642, , 
41.40, 0.051519, , 
41.43, 0.051322, , 
41.46, 0.051239, , 
41.49, 0.051220, , 
41.52, 0.051036, , 
41.55, 0.050849, , 
41.58, 0.050751, , 
41.59, 0.050780, 13, 0.588
41.61, 0.050852, , 
41.64, 0.050703, , 
41.67, 0.050386, , 
41.70, 0.050316, , 
41.73, 0.050240, , 
41.76, 0.050059, , 
41.80, 0.049841, , 
41.82, 0.049720, , 
41.85, 0.049793, , 
41.88, 0.049726, , 
41.91, 0.049473, , 
41.94, 0.049371, , 
41.97, 0.049444, , 
42.00, 0.049317, , 
42.03, 0.049006, , 
42.06, 0.048889, , 
42.09, 0.048880, , 
42.12, 0.048762, , 
42.15, 0.048696, , 
42.18, 0.048683, , 
42.21, 0.048638, , 
42.24, 0.048496, , 
42.27, 0.048255, , 
42.30, 0.048201, , 
42.33, 0.048324, , 
42.36, 0.048255, , 
42.39, 0.048115, , 
42.42, 0.047998, , 
42.45, 0.047925, , 
42.48, 0.047788, , 
42.51, 0.047684, , 
42.54, 0.047674, , 
42.57, 0.047712, , 
42.60, 0.047547, , 
42.63, 0.047474, , 
42.66, 0.047351, , 
42.69, 0.047313, , 
42.72, 0.047236, , 
42.75, 0.047103, , 
42.78, 0.047160, , 
42.81, 0.047138, , 
42.84, 0.046922, , 
42.87, 0.046773, , 
42.90, 0.046777, , 
42.93, 0.046742, , 
42.96, 0.046697, , 
42.99, 0.046650, , 
43.02, 0.046710, , 
43.05, 0.046764, , 
43.08, 0.046675, , 
43.11, 0.046608, , 
43.14, 0.046650, , 
43.17, 0.046719, , 
43.20, 0.046627, , 
43.23, 0.046466, , 
43.26, 0.046402, , 
43.29, 0.046364, , 
43.32, 0.046240, , 
43.35, 0.046158, , 
43.38, 0.046171, , 
43.41, 0.046196, , 
43.44, 0.046088, , 
43.47, 0.046031, , 
43.51, 0.046164, , 
43.53, 0.046209, , 
43.56, 0.046202, , 
43.59, 0.046120, , 
43.62, 0.046240, , 
43.65, 0.046240, , 
43.68, 0.046183, , 
43.72, 0.046142, , 
43.74, 0.046202, , 
43.77, 0.046187, , 
43.80, 0.046136, , 
43.83, 0.046133, , 
43.86, 0.046183, , 
43.89, 0.046225, , 
43.92, 0.046193, , 
43.95, 0.046193, , 
43.98, 0.046161, , 
44.01, 0.046206, , 
44.04, 0.046190, , 
44.07, 0.046142, , 
44.10, 0.046218, , 
44.13, 0.046282, , 
44.16, 0.046256, , 
44.19, 0.046342, , 
44.22, 0.046554, , 
44.25, 0.046656, , 
44.28, 0.046580, , 
44.31, 0.046666, , 
44.34, 0.046913, , 
44.37, 0.047011, , 
44.40, 0.047072, , 
44.43, 0.047183, , 
44.46, 0.047427, , 
44.49, 0.047614, , 
44.52, 0.047785, , 
44.55, 0.047979, , 
44.58, 0.048267, , 
44.61, 0.048429, , 
44.64, 0.048585, , 
44.67, 0.048816, , 
44.70, 0.049044, , 
44.73, 0.049175, , 
44.76, 0.049251, , 
44.79, 0.049358, 14, 0.585
44.79, 0.049397, , 
44.82, 0.049609, , 
44.85, 0.049663, , 
44.88, 0.049574, , 
44.91, 0.049577, , 
44.94, 0.049676, , 
44.97, 0.049609, , 
45.00, 0.049438, , 
45.03, 0.049352, , 
45.06, 0.049295, , 
45.09, 0.049076, , 
45.12, 0.048803, , 
45.15, 0.048822, , 
45.18, 0.048845, , 
45.21, 0.048667, , 
45.24, 0.048546, , 
45.27, 0.048556, , 
45.30, 0.048667, , 
45.33, 0.048616, , 
45.36, 0.048553, , 
45.39, 0.048594, , 
45.42, 0.048600, , 
45.45, 0.048594, , 
45.48, 0.048499, , 
45.51, 0.048559, , 
45.54, 0.048810, , 
45.57, 0.048918, , 
45.60, 0.048987, , 
45.63, 0.049067, , 
45.66, 0.049124, , 
45.69, 0.049140, , 
45.72, 0.049121, , 
45.75, 0.049146, , 
45.78, 0.049197, , 
45.81, 0.049238, , 
45.84, 0.049346, , 
45.87, 0.049463, , 
45.90, 0.049568, , 
45.93, 0.049581, , 
45.96, 0.049565, , 
45.99, 0.049663, , 
46.02, 0.049704, , 
46.05, 0.049638, , 
46.08, 0.049669, , 
46.11, 0.049787, , 
46.14, 0.049999, , 
46.17, 0.050021, , 
46.20, 0.050056, , 
46.23, 0.050113, , 
46.26, 0.050167, , 
46.29, 0.050199, , 
46.32, 0.050288, , 
46.35, 0.050459, , 
46.38, 0.050561, , 
46.41, 0.050557, , 
46.44, 0.050529, , 
46.48, 0.050634, , 
46.50, 0.050640, , 
46.53, 0.050678, , 
46.56, 0.050767, , 
46.59, 0.050944, , 
46.62, 0.051106, , 
46.65, 0.051081, , 
46.69, 0.051074, , 
46.71, 0.051246, , 
46.74, 0.051420, , 
46.77, 0.051500, , 
46.80, 0.051487, , 
46.83, 0.051585, , 
46.86, 0.051658, , 
46.90, 0.051553, , 
46.92, 0.051522, , 
46.95, 0.051642, , 
46.98, 0.051817, , 
47.01, 0.051893, , 
47.04, 0.051953, , 
47.07, 0.051994, , 
47.10, 0.051902, , 
47.13, 0.051680, , 
47.16, 0.051598, , 
47.19, 0.051693, , 
47.22, 0.051677, , 
47.25, 0.051560, , 
47.28, 0.051496, , 
47.31, 0.051503, , 
47.34, 0.051369, , 
47.37, 0.051198, , 
47.40, 0.051122, , 
47.43, 0.051258, , 
47.46, 0.051290, , 
47.49, 0.051157, , 
47.52, 0.051065, , 
47.55, 0.051084, , 
47.58, 0.051040, , 
47.61, 0.050862, , 
47.64, 0.050729, , 
47.67, 0.050770, , 
47.70, 0.050799, , 
47.73, 0.050703, , 
47.76, 0.050694, , 
47.79, 0.050656, , 
47.82, 0.050719, , 
47.85, 0.050707, , 
47.88, 0.050757, , 
47.91, 0.050986, , 
47.94, 0.051078, , 
47.97, 0.051008, , 
47.98, 0.051024, 15, 0.585
48.00, 0.051116, , 
48.03, 0.051385, , 
48.06, 0.051607, , 
48.09, 0.051814, , 
48.12, 0.052375, , 
48.15, 0.052924, , 
48.18, 0.053441, , 
48.21, 0.053656, , 
48.24, 0.053913, , 
48.27, 0.054256, , 
48.30, 0.054516, , 
48.33, 0.054579, , 
48.36, 0.054805, , 
48.39, 0.055049, , 
48.42, 0.055093, , 
48.45, 0.055027, , 
48.48, 0.054913, , 
48.51, 0.054811, , 
48.54, 0.054621, , 
48.57, 0.054256, , 
48.61, 0.053837, , 
48.63, 0.053428, , 
48.66, 0.052857, , 
48.69, 0.052223, , 
48.72, 0.051706, , 
48.75, 0.051106, , 
48.78, 0.050684, , 
48.81, 0.050592, , 
48.84, 0.050729, , 
48.87, 0.050856, , 
48.90, 0.051033, , 
48.93, 0.051147, , 
48.96, 0.051354, , 
48.99, 0.051553, , 
49.02, 0.051645, , 
49.05, 0.051623, , 
49.08, 0.051712, , 
49.11, 0.051760, , 
49.14, 0.051693, , 
49.17, 0.051623, , 
49.20, 0.051655, , 
49.23, 0.051763, , 
49.26, 0.051715, , 
49.29, 0.051655, , 
49.32, 0.051680, , 
49.35, 0.051718, , 
49.38, 0.051512, , 
49.41, 0.051306, , 
49.44, 0.051303, , 
49.47, 0.051271, , 
49.50, 0.051274, , 
49.53, 0.051205, , 
49.56, 0.051224, , 
49.59, 0.051220, , 
49.62, 0.051236, , 
49.65, 0.051246, , 
49.68, 0.051461, , 
49.71, 0.051645, , 
49.74, 0.051592, , 
49.77, 0.051398, , 
49.80, 0.051344, , 
49.83, 0.051265, , 
49.86, 0.050992, , 
49.89, 0.050722, , 
49.92, 0.050440, , 
49.95, 0.050164, , 
49.98, 0.049745, , 
50.01, 0.049444, , 
50.04, 0.049352, , 
50.07, 0.049282, , 
50.10, 0.049190, , 
50.13, 0.049083, , 
50.16, 0.049060, , 
50.19, 0.048981, , 
50.22, 0.048800, , 
50.25, 0.048670, , 
50.28, 0.048651, , 
50.32, 0.048730, , 
50.34, 0.048632, , 
50.37, 0.048550, , 
50.40, 0.048680, , 
50.43, 0.048734, , 
50.46, 0.048613, , 
50.49, 0.048632, , 
50.52, 0.048718, , 
50.56, 0.048689, , 
50.58, 0.048629, , 
50.61, 0.048578, , 
50.64, 0.048727, , 
50.67, 0.048696, , 
50.70, 0.048657, , 
50.73, 0.048651, , 
50.76, 0.048699, , 
50.79, 0.048708, , 
50.82, 0.048635, , 
50.85, 0.048651, , 
50.88, 0.048737, , 
50.91, 0.048956, , 
50.94, 0.049136, , 
50.97, 0.049339, , 
51.00, 0.049666, , 
51.03, 0.049914, , 
51.06, 0.050170, , 
51.09, 0.050424, , 
51.12, 0.050814, , 
51.15, 0.051052, , 
51.18, 0.051154, , 
51.20, 0.051195, 16, 0.588
51.21, 0.051230, , 
51.24, 0.051430, , 
51.27, 0.051560, , 
51.30, 0.051588, , 
51.33, 0.051728, , 
51.36, 0.051956, , 
51.39, 0.052045, , 
51.42, 0.052020, , 
51.45, 0.052051, , 
51.48, 0.052096, , 
51.51, 0.051963, , 
51.54, 0.051734, , 
51.57, 0.051623, , 
51.60, 0.051500, , 
51.63, 0.051430, , 
51.66, 0.051284, , 
51.69, 0.051205, , 
51.72, 0.051233, , 
51.75, 0.051151, , 
51.78, 0.051103, , 
51.81, 0.051160, , 
51.84, 0.051233, , 
51.87, 0.051227, , 
51.90, 0.051176, , 
51.93, 0.051220, , 
51.96, 0.051255, , 
51.99, 0.051198, , 
52.02, 0.051160, , 
52.05, 0.051262, , 
52.08, 0.051338, , 
52.11, 0.051392, , 
52.14, 0.051493, , 
52.17, 0.051677, , 
52.20, 0.051833, , 
52.23, 0.051788, , 
52.26, 0.051753, , 
52.29, 0.051871, , 
52.32, 0.051921, , 
52.35, 0.051826, , 
52.38, 0.051804, , 
52.41, 0.051890, , 
52.44, 0.052118, , 
52.48, 0.052150, , 
52.50, 0.052105, , 
52.53, 0.052251, , 
52.56, 0.052280, , 
52.59, 0.052245, , 
52.62, 0.052128, , 
52.65, 0.052251, , 
52.69, 0.052289, , 
52.71, 0.052220, , 
52.74, 0.052201, , 
52.77, 0.052229, , 
52.80, 0.052359, , 
52.83, 0.052251, , 
52.86, 0.052188, , 
52.89, 0.052350, , 
52.92, 0.052470, , 
52.95, 0.052537, , 
52.98, 0.052844, , 
53.01, 0.053197, , 
53.04, 0.053530, , 
53.07, 0.053729, , 
53.10, 0.053951, , 
53.13, 0.054123, , 
53.16, 0.054218, , 
53.19, 0.054161, , 
53.22, 0.054129, , 
53.25, 0.054237, , 
53.28, 0.054294, , 
53.31, 0.054193, , 
53.34, 0.054154, , 
53.37, 0.054231, , 
53.40, 0.054167, , 
53.43, 0.053825, , 
53.46, 0.053612, , 
53.49, 0.053501, , 
53.52, 0.053320, , 
53.55, 0.052978, , 
53.58, 0.052572, , 
53.61, 0.052400, , 
53.64, 0.052153, , 
53.67, 0.051931, , 
53.70, 0.051750, , 
53.73, 0.051604, , 
53.76, 0.051493, , 
53.79, 0.051300, , 
53.82, 0.051230, , 
53.85, 0.051446, , 
53.88, 0.051677, , 
53.91, 0.051921, , 
53.94, 0.052185, , 
53.97, 0.052524, , 
54.00, 0.052756, , 
54.04, 0.052873, , 
54.06, 0.052990, , 
54.09, 0.053155, , 
54.12, 0.053371, , 
54.15, 0.053447, , 
54.18, 0.053520, , 
54.21, 0.053780, , 
54.24, 0.053917, , 
54.27, 0.054009, , 
54.30, 0.054072, , 
54.33, 0.054199, , 
54.36, 0.054208, , 
54.39, 0.054037, 17, 0.584
54.40, 0.054005, , 
54.42, 0.053729, , 
54.45, 0.053571, , 
54.48, 0.053336, , 
54.51, 0.053025, , 
54.54, 0.052892, , 
54.57, 0.052781, , 
54.60, 0.052626, , 
54.63, 0.052162, , 
54.66, 0.051966, , 
54.69, 0.051887, , 
54.72, 0.051671, , 
54.75, 0.051436, , 
54.78, 0.051293, , 
54.81, 0.051281, , 
54.84, 0.051166, , 
54.87, 0.050916, , 
54.90, 0.050833, , 
54.93, 0.050887, , 
54.96, 0.050862, , 
54.99, 0.050748, , 
55.02, 0.050827, , 
55.05, 0.050849, , 
55.08, 0.050906, , 
55.11, 0.050986, , 
55.14, 0.051132, , 
55.17, 0.051408, , 
55.20, 0.051566, , 
55.23, 0.051611, , 
55.26, 0.051712, , 
55.29, 0.051956, , 
55.32, 0.052083, , 
55.35, 0.052118, , 
55.38, 0.052270, , 
55.41, 0.052407, , 
55.44, 0.052327, , 
55.47, 0.052223, , 
55.50, 0.052308, , 
55.53, 0.052273, , 
55.56, 0.052159, , 
55.59, 0.052020, , 
55.62, 0.051874, , 
55.65, 0.051814, , 
55.68, 0.051582, , 
55.71, 0.051420, , 
55.74, 0.051392, , 
55.77, 0.051376, , 
55.80, 0.051297, , 
55.83, 0.051179, , 
55.86, 0.051243, , 
55.89, 0.051347, , 
55.92, 0.051258, , 
55.95, 0.051186, , 
55.98, 0.051284, , 
56.01, 0.051392, , 
56.04, 0.051116, , 
56.07, 0.050979, , 
56.10, 0.050929, , 
56.13, 0.050925, , 
56.16, 0.051011, , 
56.19, 0.050989, , 
56.22, 0.051151, , 
56.25, 0.051255, , 
56.28, 0.051227, , 
56.31, 0.051160, , 
56.34, 0.051246, , 
56.37, 0.051246, , 
56.40, 0.051195, , 
56.43, 0.051239, , 
56.46, 0.051461, , 
56.49, 0.051572, , 
56.52, 0.051538, , 
56.55, 0.051598, , 
56.58, 0.051712, , 
56.61, 0.051747, , 
56.64, 0.051671, , 
56.67, 0.051664, , 
56.70, 0.051696, , 
56.73, 0.051684, , 
56.76, 0.051661, , 
56.79, 0.051620, , 
56.82, 0.051820, , 
56.85, 0.051915, , 
56.88, 0.051937, , 
56.91, 0.052023, , 
56.94, 0.052175, , 
56.97, 0.052226, , 
57.00, 0.052194, , 
57.03, 0.052188, , 
57.06, 0.052448, , 
57.09, 0.052492, , 
57.12, 0.052540, , 
57.15, 0.052575, , 
57.18, 0.052645, , 
57.21, 0.052610, , 
57.24, 0.052578, , 
57.27, 0.052591, , 
57.30, 0.052695, , 
57.33, 0.052673, , 
57.36, 0.052670, , 
57.40, 0.052654, , 
57.42, 0.052660, , 
57.45, 0.052705, , 
57.48, 0.052632, , 
57.51, 0.052578, , 
57.54, 0.052610, , 
57.57, 0.052442, , 
57.59, 0.052369, 18, 0.585
57.60, 0.052346, , 
57.63, 0.052312, , 
57.66, 0.052283, , 
57.69, 0.052223, , 
57.72, 0.052216, , 
57.75, 0.052197, , 
57.78, 0.052169, , 
57.81, 0.052102, , 
57.84, 0.051864, , 
57.87, 0.051709, , 
57.90, 0.051763, , 
57.93, 0.051766, , 
57.96, 0.051795, , 
57.99, 0.051969, , 
58.02, 0.052080, , 
58.05, 0.052115, , 
58.08, 0.052074, , 
58.11, 0.052064, , 
58.14, 0.051991, , 
58.17, 0.051864, , 
58.20, 0.051709, , 
58.23, 0.051687, , 
58.26, 0.051715, , 
58.29, 0.051718, , 
58.32, 0.051639, , 
58.35, 0.051684, , 
58.38, 0.051718, , 
58.41, 0.051636, , 
58.44, 0.051474, , 
58.47, 0.051401, , 
58.50, 0.051306, , 
58.53, 0.051166, , 
58.56, 0.051084, , 
58.59, 0.051182, , 
58.62, 0.051179, , 
58.65, 0.050986, , 
58.68, 0.050830, , 
58.71, 0.050732, , 
58.74, 0.050751, , 
58.77, 0.050668, , 
58.80, 0.050618, , 
58.83, 0.050691, , 
58.86, 0.050735, , 
58.89, 0.050630, , 
58.92, 0.050576, , 
58.95, 0.050618, , 
58.98, 0.050529, , 
59.01, 0.050370, , 
59.04, 0.050269, , 
59.07, 0.050301, , 
59.10, 0.050427, , 
59.13, 0.050504, , 
59.16, 0.050599, , 
59.19, 0.050640, , 
59.22, 0.050675, , 
59.25, 0.050561, , 
59.28, 0.050564, , 
59.31, 0.050681, , 
59.34, 0.050678, , 
59.37, 0.050665, , 
59.40, 0.050735, , 
59.43, 0.051008, , 
59.46, 0.051103, , 
59.49, 0.051094, , 
59.52, 0.051113, , 
59.55, 0.051195, , 
59.58, 0.051211, , 
59.61, 0.051122, , 
59.64, 0.051246, , 
59.67, 0.051427, , 
59.70, 0.051490, , 
59.73, 0.051531, , 
59.76, 0.051544, , 
59.79, 0.051680, , 
59.82, 0.051680, , 
59.85, 0.051614, , 
59.88, 0.051601, , 
59.91, 0.051642, , 
59.94, 0.051620, , 
59.97, 0.051563, , 
60.00, 0.051674, , 
60.03, 0.051766, , 
60.06, 0.051877, , 
60.09, 0.051877, , 
60.12, 0.051947, , 
60.15, 0.052083, , 
60.18, 0.052109, , 
60.21, 0.052197, , 
60.24, 0.052394, , 
60.27, 0.052527, , 
60.30, 0.052575, , 
60.33, 0.052613, , 
60.36, 0.052813, , 
60.39, 0.053070, , 
60.42, 0.053035, , 
60.45, 0.052987, , 
60.48, 0.053070, , 
60.51, 0.053120, , 
60.54, 0.053092, , 
60.57, 0.053006, , 
60.60, 0.053082, , 
60.63, 0.053197, , 
60.66, 0.053200, , 
60.69, 0.053143, , 
60.72, 0.053105, , 
60.75, 0.053139, , 
60.78, 0.052978, , 
60.79, 0.052930, 19, 0.586
60.81, 0.052746, , 
60.84, 0.052765, , 
60.87, 0.052740, , 
60.90, 0.052648, , 
60.93, 0.052575, , 
60.96, 0.052607, , 
60.99, 0.052679, , 
61.02, 0.052660, , 
61.05, 0.052562, , 
61.08, 0.052654, , 
61.11, 0.052737, , 
61.14, 0.052657, , 
61.17, 0.052626, , 
61.20, 0.052641, , 
61.23, 0.052673, , 
61.26, 0.052664, , 
61.29, 0.052654, , 
61.32, 0.052692, , 
61.35, 0.052743, , 
61.38, 0.052676, , 
61.41, 0.052594, , 
61.44, 0.052702, , 
61.47, 0.052733, , 
61.50, 0.052575, , 
61.53, 0.052451, , 
61.56, 0.052353, , 
61.59, 0.052277, , 
61.62, 0.052226, , 
61.65, 0.052162, , 
61.68, 0.052181, , 
61.71, 0.052172, , 
61.74, 0.052115, , 
61.77, 0.052109, , 
61.80, 0.052150, , 
61.83, 0.052201, , 
61.86, 0.052147, , 
61.89, 0.052143, , 
61.92, 0.052194, , 
61.95, 0.052223, , 
61.98, 0.052156, , 
62.01, 0.052093, , 
62.04, 0.052220, , 
62.07, 0.052334, , 
62.10, 0.052362, , 
62.13, 0.052416, , 
62.16, 0.052648, , 
62.19, 0.052654, , 
62.22, 0.052581, , 
62.25, 0.052600, , 
62.29, 0.052876, , 
62.31, 0.053025, , 
62.34, 0.053000, , 
62.37, 0.053044, , 
62.40, 0.053174, , 
62.43, 0.053209, , 
62.46, 0.053120, , 
62.49, 0.053143, , 
62.52, 0.053212, , 
62.55, 0.053181, , 
62.58, 0.053127, , 
62.61, 0.053168, , 
62.64, 0.053168, , 
62.67, 0.053146, , 
62.70, 0.053105, , 
62.73, 0.053089, , 
62.76, 0.053152, , 
62.79, 0.053149, , 
62.82, 0.053095, , 
62.85, 0.053098, , 
62.88, 0.053184, , 
62.91, 0.053228, , 
62.94, 0.053149, , 
62.97, 0.053105, , 
63.00, 0.053174, , 
63.03, 0.053203, , 
63.06, 0.053105, , 
63.09, 0.053111, , 
63.12, 0.053162, , 
63.15, 0.053143, , 
63.18, 0.053098, , 
63.21, 0.053082, , 
63.24, 0.053225, , 
63.27, 0.053171, , 
63.30, 0.053092, , 
63.33, 0.053120, , 
63.36, 0.053200, , 
63.39, 0.053304, , 
63.42, 0.053387, , 
63.45, 0.053479, , 
63.48, 0.053615, , 
63.51, 0.053469, , 
63.54, 0.053330, , 
63.57, 0.053273, , 
63.60, 0.053263, , 
63.63, 0.053158, , 
63.66, 0.053092, , 
63.69, 0.053120, , 
63.72, 0.053149, , 
63.75, 0.053111, , 
63.78, 0.053085, , 
63.81, 0.053158, , 
63.84, 0.053139, , 
63.87, 0.052924, , 
63.90, 0.052771, , 
63.93, 0.052765, , 
63.96, 0.052721, , 
63.99, 0.052705, 20, 0.586
64.00, 0.052670, , 
64.02, 0.052632, , 
64.05, 0.052667, , 
64.08, 0.052737, , 
64.11, 0.052689, , 
64.14, 0.052632, , 
64.17, 0.052679, , 
64.21, 0.052714, , 
64.23, 0.052641, , 
64.26, 0.052632, , 
64.29, 0.052657, , 
64.32, 0.052673, , 
64.35, 0.052638, , 
64.38, 0.052622, , 
64.41, 0.052686, , 
64.44, 0.052721, , 
64.47, 0.052645, , 
64.50, 0.052610, , 
64.53, 0.052651, , 
64.56, 0.052673, , 
64.59, 0.052616, , 
64.62, 0.052578, , 
64.65, 0.052689, , 
64.68, 0.052714, , 
64.71, 0.052699, , 
64.74, 0.052752, , 
64.77, 0.053006, , 
64.80, 0.053082, , 
64.83, 0.053076, , 
64.86, 0.053124, , 
64.89, 0.053190, , 
64.92, 0.053222, , 
64.95, 0.053089, , 
64.98, 0.053152, , 
65.01, 0.053282, , 
65.04, 0.053238, , 
65.07, 0.053120, , 
65.10, 0.053149, , 
65.13, 0.053273, , 
65.16, 0.053203, , 
65.19, 0.053092, , 
65.22, 0.053139, , 
65.25, 0.053238, , 
65.28, 0.053203, , 
65.31, 0.053130, , 
65.34, 0.053162, , 
65.37, 0.053200, , 
65.40, 0.053171, , 
65.43, 0.053085, , 
65.46, 0.053152, , 
65.49, 0.053254, , 
65.52, 0.053193, , 
65.55, 0.053073, , 
65.58, 0.052994, , 
65.61, 0.052955, , 
65.64, 0.052794, , 
65.67, 0.052705, , 
65.70, 0.052730, , 
65.73, 0.052771, , 
65.76, 0.052676, , 
65.79, 0.052607, , 
65.82, 0.052651, , 
65.85, 0.052708, , 
65.88, 0.052638, , 
65.91, 0.052607, , 
65.94, 0.052610, , 
65.97, 0.052670, , 
66.00, 0.052660, , 
66.03, 0.052841, , 
66.06, 0.053025, , 
66.09, 0.053127, , 
66.12, 0.053095, , 
66.15, 0.053092, , 
66.18, 0.053177, , 
66.21, 0.053203, , 
66.24, 0.053085, , 
66.27, 0.053070, , 
66.30, 0.053101, , 
66.33, 0.053092, , 
66.36, 0.053054, , 
66.39, 0.053047, , 
66.42, 0.053111, , 
66.45, 0.053139, , 
66.48, 0.053108, , 
66.51, 0.053044, , 
66.54, 0.053057, , 
66.57, 0.052902, , 
66.60, 0.052832, , 
66.63, 0.052886, , 
66.66, 0.053060, , 
66.69, 0.053177, , 
66.72, 0.053304, , 
66.75, 0.053425, , 
66.78, 0.053583, , 
66.81, 0.053625, , 
66.84, 0.053542, , 
66.87, 0.053641, , 
66.90, 0.053774, , 
66.93, 0.053907, , 
66.96, 0.053948, , 
66.99, 0.054012, , 
67.02, 0.054154, , 
67.05, 0.054196, , 
67.08, 0.054040, , 
67.11, 0.054072, , 
67.14, 0.054097, , 
67.17, 0.053920, , 
67.19, 0.053863, 21, 0.585
67.20, 0.053796, , 
67.23, 0.053707, , 
67.26, 0.053552, , 
67.29, 0.053358, , 
67.32, 0.053168, , 
67.35, 0.053120, , 
67.38, 0.053149, , 
67.41, 0.053120, , 
67.44, 0.053082, , 
67.47, 0.053082, , 
67.50, 0.053130, , 
67.53, 0.053051, , 
67.56, 0.052870, , 
67.59, 0.052876, , 
67.62, 0.052835, , 
67.65, 0.052705, , 
67.68, 0.052565, , 
67.71, 0.052635, , 
67.74, 0.052664, , 
67.77, 0.052588, , 
67.80, 0.052534, , 
67.83, 0.052610, , 
67.86, 0.052600, , 
67.89, 0.052549, , 
67.92, 0.052511, , 
67.95, 0.052600, , 
67.98, 0.052645, , 
68.01, 0.052581, , 
68.04, 0.052543, , 
68.07, 0.052588, , 
68.10, 0.052648, , 
68.13, 0.052546, , 
68.16, 0.052543, , 
68.19, 0.052657, , 
68.22, 0.052679, , 
68.25, 0.052562, , 
68.28, 0.052413, , 
68.31, 0.052359, , 
68.34, 0.052220, , 
68.37, 0.052156, , 
68.40, 0.052137, , 
68.43, 0.052169, , 
68.46, 0.052181, , 
68.49, 0.052090, , 
68.52, 0.052112, , 
68.55, 0.052115, , 
68.58, 0.052134, , 
68.61, 0.052026, , 
68.64, 0.052020, , 
68.67, 0.052153, , 
68.70, 0.052175, , 
68.73, 0.052090, , 
68.76, 0.052121, , 
68.79, 0.052181, , 
68.82, 0.052175, , 
68.85, 0.052128, , 
68.88, 0.052162, , 
68.91, 0.052207, , 
68.94, 0.052201, , 
68.97, 0.052096, , 
69.00, 0.052124, , 
69.03, 0.052166, , 
69.06, 0.052166, , 
69.09, 0.052102, , 
69.12, 0.052134, , 
69.15, 0.052175, , 
69.18, 0.052159, , 
69.21, 0.052143, , 
69.24, 0.052153, , 
69.27, 0.052156, , 
69.30, 0.052131, , 
69.33, 0.052064, , 
69.36, 0.052140, , 
69.39, 0.052191, , 
69.42, 0.052090, , 
69.45, 0.052099, , 
69.48, 0.052096, , 
69.51, 0.052134, , 
69.54, 0.052007, , 
69.57, 0.051829, , 
69.60, 0.051798, , 
69.63, 0.051785, , 
69.66, 0.051747, , 
69.69, 0.051674, , 
69.72, 0.051693, , 
69.75, 0.051674, , 
69.78, 0.051626, , 
69.81, 0.051592, , 
69.84, 0.051620, , 
69.87, 0.051668, , 
69.90, 0.051664, , 
69.93, 0.051636, , 
69.96, 0.051534, , 
69.99, 0.051442, , 
70.02, 0.051224, , 
70.06, 0.051141, , 
70.08, 0.051211, , 
70.11, 0.051189, , 
70.14, 0.051138, , 
70.17, 0.051109, , 
70.20, 0.051176, , 
70.23, 0.051214, , 
70.26, 0.051141, , 
70.29, 0.051116, , 
70.32, 0.051179, , 
70.35, 0.051192, , 
70.38, 0.051068, , 
70.39, 0.051055, 22, 0.585
70.41, 0.051078, , 
70.44, 0.051157, , 
70.47, 0.051138, , 
70.50, 0.051116, , 
70.53, 0.051030, , 
70.56, 0.050960, , 
70.59, 0.050859, , 
70.62, 0.050659, , 
70.65, 0.050634, , 
70.68, 0.050684, , 
70.71, 0.050665, , 
70.74, 0.050653, , 
70.77, 0.050665, , 
70.80, 0.050615, , 
70.83, 0.050659, , 
70.86, 0.050605, , 
70.89, 0.050611, , 
70.92, 0.050729, , 
70.95, 0.050719, , 
70.98, 0.050596, , 
71.01, 0.050618, , 
71.04, 0.050713, , 
71.07, 0.050643, , 
71.10, 0.050656, , 
71.13, 0.050640, , 
71.16, 0.050665, , 
71.19, 0.050611, , 
71.22, 0.050596, , 
71.25, 0.050615, , 
71.28, 0.050634, , 
71.31, 0.050608, , 
71.34, 0.050557, , 
71.37, 0.050615, , 
71.40, 0.050649, , 
71.43, 0.050624, , 
71.46, 0.050596, , 
71.49, 0.050596, , 
71.52, 0.050510, , 
71.55, 0.050361, , 
71.58, 0.050215, , 
71.61, 0.050297, , 
71.64, 0.050259, , 
71.67, 0.050079, , 
71.70, 0.050085, , 
71.73, 0.050132, , 
71.76, 0.050117, , 
71.79, 0.050098, , 
71.82, 0.050101, , 
71.85, 0.050129, , 
71.88, 0.050234, , 
71.91, 0.050139, , 
71.94, 0.050136, , 
71.97, 0.050199, , 
72.00, 0.050177, , 
72.03, 0.050142, , 
72.06, 0.050107, , 
72.09, 0.050158, , 
72.12, 0.050015, , 
72.15, 0.049958, , 
72.18, 0.049837, , 
72.21, 0.049850, , 
72.24, 0.049774, , 
72.27, 0.049574, , 
72.30, 0.049663, , 
72.33, 0.049777, , 
72.36, 0.049745, , 
72.39, 0.049641, , 
72.42, 0.049698, , 
72.45, 0.049685, , 
72.48, 0.049511, , 
72.51, 0.049320, , 
72.54, 0.049333, , 
72.57, 0.049295, , 
72.60, 0.049251, , 
72.63, 0.049197, , 
72.66, 0.049289, , 
72.69, 0.049358, , 
72.72, 0.049266, , 
72.75, 0.049232, , 
72.78, 0.049235, , 
72.81, 0.049263, , 
72.84, 0.049149, , 
72.87, 0.049140, , 
72.90, 0.049225, , 
72.93, 0.049222, , 
72.96, 0.049048, , 
72.99, 0.048911, , 
73.02, 0.048854, , 
73.05, 0.048880, , 
73.08, 0.048759, , 
73.11, 0.048692, , 
73.14, 0.048781, , 
73.17, 0.048851, , 
73.20, 0.048768, , 
73.23, 0.048588, , 
73.26, 0.048486, , 
73.29, 0.048394, , 
73.32, 0.048296, , 
73.35, 0.048232, , 
73.38, 0.048277, , 
73.41, 0.048324, , 
73.44, 0.048198, , 
73.47, 0.048172, , 
73.50, 0.048290, , 
73.53, 0.048293, , 
73.56, 0.048220, , 
73.58, 0.048226, 23, 0.585
73.59, 0.048255, , 
73.62, 0.048328, , 
73.65, 0.048324, , 
73.68, 0.048267, , 
73.71, 0.048255, , 
73.74, 0.048264, , 
73.77, 0.048261, , 
73.80, 0.048179, , 
73.83, 0.048159, , 
73.86, 0.048296, , 
73.89, 0.048283, , 
73.92, 0.048179, , 
73.95, 0.048159, , 
73.98, 0.048267, , 
74.01, 0.048271, , 
74.04, 0.048242, , 
74.07, 0.048213, , 
74.10, 0.048106, , 
74.13, 0.047941, , 
74.16, 0.047776, , 
74.19, 0.047773, , 
74.22, 0.047769, , 
74.25, 0.047639, , 
74.28, 0.047395, , 
74.31, 0.047370, , 
74.34, 0.047322, , 
74.37, 0.047259, , 
74.40, 0.047198, , 
74.43, 0.047230, , 
74.46, 0.047255, , 
74.49, 0.047195, , 
74.52, 0.047122, , 
74.55, 0.047052, , 
74.58, 0.047005, , 
74.61, 0.046808, , 
74.64, 0.046643, , 
74.67, 0.046666, , 
74.70, 0.046713, , 
74.73, 0.046659, , 
74.76, 0.046596, , 
74.79, 0.046653, , 
74.82, 0.046716, , 
74.85, 0.046666, , 
74.88, 0.046608, , 
74.91, 0.046631, , 
74.94, 0.046678, , 
74.97, 0.046640, , 
75.00, 0.046593, , 
75.03, 0.046656, , 
75.06, 0.046685, , 
75.09, 0.046523, , 
75.12, 0.046421, , 
75.15, 0.046307, , 
75.18, 0.046221, , 
75.21, 0.046101, , 
75.24, 0.046120, , 
75.27, 0.046190, , 
75.30, 0.046190, , 
75.33, 0.046047, , 
75.36, 0.045926, , 
75.39, 0.045847, , 
75.42, 0.045727, , 
75.45, 0.045558, , 
75.48, 0.045543, , 
75.51, 0.045625, , 
75.54, 0.045628, , 
75.58, 0.045505, , 
75.60, 0.045530, , 
75.63, 0.045641, , 
75.66, 0.045647, , 
75.69, 0.045584, , 
75.72, 0.045539, , 
75.75, 0.045501, , 
75.79, 0.045336, , 
75.81, 0.045206, , 
75.84, 0.045095, , 
75.87, 0.045140, , 
75.90, 0.045099, , 
75.93, 0.045022, , 
75.96, 0.045121, , 
75.99, 0.045194, , 
76.02, 0.045146, , 
76.05, 0.045080, , 
76.08, 0.044981, , 
76.11, 0.044972, , 
76.14, 0.044813, , 
76.17, 0.044661, , 
76.20, 0.044680, , 
76.23, 0.044667, , 
76.26, 0.044597, , 
76.29, 0.044550, , 
76.32, 0.044623, , 
76.35, 0.044635, , 
76.38, 0.044623, , 
76.41, 0.044524, , 
76.44, 0.044566, , 
76.47, 0.044512, , 
76.50, 0.044547, , 
76.53, 0.044559, , 
76.56, 0.044585, , 
76.59, 0.044597, , 
76.62, 0.044585, , 
76.65, 0.044578, , 
76.68, 0.044632, , 
76.71, 0.044642, , 
76.75, 0.044588, , 
76.77, 0.044610, , 
76.78, 0.044604, 24, 0.586
76.80, 0.044626, , 
76.83, 0.044629, , 
76.86, 0.044623, , 
76.89, 0.044632, , 
76.92, 0.044699, , 
76.95, 0.044689, , 
76.98, 0.044632, , 
77.01, 0.044563, , 
77.04, 0.044451, , 
77.07, 0.044334, , 
77.10, 0.044210, , 
77.13, 0.044182, , 
77.17, 0.044277, , 
77.19, 0.044293, , 
77.22, 0.044157, , 
77.25, 0.044182, , 
77.28, 0.044172, , 
77.31, 0.043998, , 
77.34, 0.043773, , 
77.37, 0.043693, , 
77.40, 0.043766, , 
77.43, 0.043728, , 
77.46, 0.043614, , 
77.49, 0.043627, , 
77.52, 0.043722, , 
77.55, 0.043674, , 
77.59, 0.043595, , 
77.61, 0.043659, , 
77.64, 0.043728, , 
77.67, 0.043687, , 
77.70, 0.043636, , 
77.73, 0.043703, , 
77.76, 0.043706, , 
77.79, 0.043586, , 
77.82, 0.043452, , 
77.85, 0.043335, , 
77.88, 0.043313, , 
77.91, 0.043141, , 
77.94, 0.043126, , 
77.97, 0.043192, , 
78.00, 0.043240, , 
78.03, 0.043170, , 
78.06, 0.043072, , 
78.09, 0.043097, , 
78.12, 0.042986, , 
78.15, 0.042748, , 
78.18, 0.042691, , 
78.21, 0.042710, , 
78.24, 0.042704, , 
78.27, 0.042609, , 
78.30, 0.042618, , 
78.33, 0.042691, , 
78.36, 0.042694, , 
78.39, 0.042586, , 
78.42, 0.042586, , 
78.45, 0.042688, , 
78.48, 0.042729, , 
78.51, 0.042593, , 
78.54, 0.042640, , 
78.57, 0.042697, , 
78.60, 0.042615, , 
78.63, 0.042555, , 
78.66, 0.042593, , 
78.69, 0.042716, , 
78.72, 0.042697, , 
78.75, 0.042577, , 
78.78, 0.042574, , 
78.81, 0.042634, , 
78.84, 0.042463, , 
78.87, 0.042241, , 
78.90, 0.042155, , 
78.93, 0.042180, , 
78.96, 0.042111, , 
78.99, 0.042050, , 
79.02, 0.042085, , 
79.05, 0.042177, , 
79.08, 0.042149, , 
79.11, 0.041977, , 
79.14, 0.041981, , 
79.17, 0.041958, , 
79.20, 0.041765, , 
79.23, 0.041648, , 
79.26, 0.041559, , 
79.29, 0.041584, , 
79.32, 0.041590, , 
79.35, 0.041552, , 
79.38, 0.041568, , 
79.41, 0.041622, , 
79.44, 0.041587, , 
79.47, 0.041530, , 
79.50, 0.041606, , 
79.53, 0.041609, , 
79.56, 0.041536, , 
79.59, 0.041533, , 
79.62, 0.041559, , 
79.65, 0.041587, , 
79.68, 0.041603, , 
79.71, 0.041517, , 
79.74, 0.041606, , 
79.77, 0.041682, , 
79.80, 0.041578, , 
79.83, 0.041543, , 
79.86, 0.041600, , 
79.89, 0.041597, , 
79.92, 0.041533, , 
79.95, 0.041333, , 
79.98, 0.041286, 25, 0.585
79.99, 0.041292, , 
80.01, 0.041245, , 
80.04, 0.041004, , 
80.07, 0.041051, , 
80.10, 0.041207, , 
80.13, 0.041197, , 
80.16, 0.041032, , 
80.19, 0.041143, , 
80.22, 0.041169, , 
80.25, 0.041102, , 
80.28, 0.041064, , 
80.31, 0.041058, , 
80.34, 0.041140, , 
80.37, 0.041156, , 
80.40, 0.041086, , 
80.43, 0.041108, , 
80.46, 0.041165, , 
80.49, 0.041045, , 
80.52, 0.041048, , 
80.55, 0.041061, , 
80.58, 0.041118, , 
80.61, 0.041067, , 
80.64, 0.041048, , 
80.67, 0.041127, , 
80.70, 0.041169, , 
80.73, 0.041127, , 
80.76, 0.041045, , 
80.79, 0.041130, , 
80.82, 0.041184, , 
80.85, 0.040972, , 
80.88, 0.040861, , 
80.91, 0.040832, , 
80.94, 0.040744, , 
80.97, 0.040642, , 
81.00, 0.040563, , 
81.03, 0.040658, , 
81.06, 0.040686, , 
81.09, 0.040585, , 
81.12, 0.040531, , 
81.15, 0.040506, , 
81.18, 0.040417, , 
81.21, 0.040226, , 
81.24, 0.040106, , 
81.27, 0.040173, , 
81.30, 0.040204, , 
81.33, 0.040150, , 
81.36, 0.040144, , 
81.39, 0.040106, , 
81.42, 0.040198, , 
81.45, 0.040100, , 
81.48, 0.040090, , 
81.51, 0.040166, , 
81.54, 0.040198, , 
81.57, 0.040147, , 
81.60, 0.040157, , 
81.63, 0.040141, , 
81.66, 0.039976, , 
81.69, 0.039760, , 
81.72, 0.039735, , 
81.75, 0.039732, , 
81.78, 0.039735, , 
81.81, 0.039706, , 
81.84, 0.039709, , 
81.87, 0.039706, , 
81.90, 0.039671, , 
81.93, 0.039554, , 
81.96, 0.039640, , 
81.99, 0.039738, , 
82.02, 0.039690, , 
82.05, 0.039636, , 
82.08, 0.039706, , 
82.11, 0.039754, , 
82.14, 0.039719, , 
82.17, 0.039671, , 
82.20, 0.039687, , 
82.23, 0.039773, , 
82.26, 0.039703, , 
82.29, 0.039678, , 
82.32, 0.039700, , 
82.35, 0.039744, , 
82.38, 0.039665, , 
82.41, 0.039595, , 
82.44, 0.039805, , 
82.47, 0.039805, , 
82.50, 0.039611, , 
82.53, 0.039611, , 
82.56, 0.039754, , 
82.59, 0.039786, , 
82.62, 0.039646, , 
82.65, 0.039656, , 
82.68, 0.039735, , 
82.71, 0.039741, , 
82.74, 0.039697, , 
82.77, 0.039690, , 
82.80, 0.039665, , 
82.83, 0.039506, , 
82.86, 0.039357, , 
82.89, 0.039275, , 
82.92, 0.039297, , 
82.95, 0.039211, , 
82.98, 0.039056, , 
83.01, 0.039148, , 
83.04, 0.039297, , 
83.07, 0.039215, , 
83.10, 0.039066, , 
83.13, 0.039139, , 
83.16, 0.039234, , 
83.19, 0.039202, 26, 0.587
83.20, 0.039164, , 
83.22, 0.039091, , 
83.25, 0.039218, , 
83.28, 0.039186, , 
83.31, 0.039205, , 
83.34, 0.039145, , 
83.37, 0.039186, , 
83.40, 0.039211, , 
83.43, 0.039189, , 
83.46, 0.039056, , 
83.49, 0.038945, , 
83.52, 0.038824, , 
83.55, 0.038612, , 
83.58, 0.038587, , 
83.61, 0.038698, , 
83.64, 0.038672, , 
83.67, 0.038561, , 
83.70, 0.038536, , 
83.73, 0.038555, , 
83.76, 0.038555, , 
83.80, 0.038510, , 
83.82, 0.038466, , 
83.85, 0.038339, , 
83.88, 0.038203, , 
83.91, 0.038073, , 
83.94, 0.038041, , 
83.97, 0.038073, , 
84.01, 0.037981, , 
84.03, 0.037905, , 
84.06, 0.037965, , 
84.09, 0.038079, , 
84.12, 0.038025, , 
84.15, 0.037962, , 
84.18, 0.037984, , 
84.22, 0.038057, , 
84.24, 0.038000, , 
84.27, 0.037721, , 
84.30, 0.037625, , 
84.33, 0.037613, , 
84.36, 0.037534, , 
84.39, 0.037470, , 
84.43, 0.037521, , 
84.45, 0.037568, , 
84.48, 0.037454, , 
84.51, 0.037381, , 
84.54, 0.037448, , 
84.57, 0.037511, , 
84.60, 0.037461, , 
84.63, 0.037391, , 
84.66, 0.037505, , 
84.69, 0.037521, , 
84.72, 0.037400, , 
84.75, 0.037388, , 
84.78, 0.037527, , 
84.81, 0.037524, , 
84.84, 0.037464, , 
84.87, 0.037442, , 
84.90, 0.037457, , 
84.93, 0.037470, , 
84.96, 0.037375, , 
84.99, 0.037375, , 
85.02, 0.037429, , 
85.05, 0.037410, , 
85.08, 0.037400, , 
85.11, 0.037435, , 
85.14, 0.037673, , 
85.17, 0.037775, , 
85.20, 0.037806, , 
85.23, 0.037860, , 
85.26, 0.037940, , 
85.29, 0.037936, , 
85.32, 0.037949, , 
85.35, 0.038003, , 
85.38, 0.038016, , 
85.41, 0.037959, , 
85.44, 0.037946, , 
85.47, 0.037997, , 
85.50, 0.038000, , 
85.53, 0.037987, , 
85.56, 0.037892, , 
85.59, 0.037943, , 
85.62, 0.037984, , 
85.65, 0.037895, , 
85.68, 0.037873, , 
85.71, 0.037943, , 
85.74, 0.038028, , 
85.77, 0.037917, , 
85.80, 0.037914, , 
85.83, 0.037949, , 
85.86, 0.037955, , 
85.89, 0.037955, , 
85.92, 0.037854, , 
85.95, 0.037784, , 
85.98, 0.037705, , 
86.01, 0.037530, , 
86.04, 0.037397, , 
86.07, 0.037524, , 
86.10, 0.037429, , 
86.13, 0.037384, , 
86.16, 0.037365, , 
86.19, 0.037457, , 
86.22, 0.037432, , 
86.25, 0.037350, , 
86.28, 0.037350, , 
86.31, 0.037464, , 
86.34, 0.037432, , 
86.37, 0.037343, , 
86.40, 0.037340, , 
86.43, 0.037429, , 
86.46, 0.037435, , 
86.50, 0.037350, , 
86.52, 0.037343, , 
86.55, 0.037397, , 
86.58, 0.037302, , 
86.61, 0.037147, , 
86.64, 0.036997, , 
86.67, 0.037032, , 
86.70, 0.036966, , 
86.73, 0.036861, , 
86.76, 0.036852, , 
86.79, 0.036947, , 
86.82, 0.036896, , 
86.85, 0.036718, , 
86.88, 0.036614, , 
86.91, 0.036547, , 
86.94, 0.036398, , 
86.97, 0.036300, , 
87.00, 0.036306, , 
87.03, 0.036398, , 
87.06, 0.036414, , 
87.09, 0.036319, , 
87.12, 0.036331, , 
87.15, 0.036401, , 
87.18, 0.036404, , 
87.21, 0.036325, , 
87.24, 0.036395, , 
87.27, 0.036455, , 
87.30, 0.036344, , 
87.33, 0.036306, , 
87.36, 0.036411, , 
87.39, 0.036354, , 
87.42, 0.036043, , 
87.45, 0.035938, , 
87.48, 0.035957, , 
87.51, 0.035941, , 
87.54, 0.035798, , 
87.57, 0.035865, , 
87.60, 0.035992, , 
87.63, 0.035948, , 
87.66, 0.035745, , 
87.69, 0.035776, , 
87.72, 0.035827, , 
87.75, 0.035840, , 
87.78, 0.035840, , 
87.81, 0.035906, , 
87.84, 0.035868, , 
87.87, 0.035821, , 
87.90, 0.035783, , 
87.93, 0.035821, , 
87.96, 0.035954, , 
87.99, 0.035868, , 
88.02, 0.035802, , 
88.05, 0.035634, , 
88.08, 0.035462, , 
88.11, 0.035402, , 
88.14, 0.035377, , 
88.17, 0.035392, , 
88.20, 0.035405, , 
88.23, 0.035364, , 
88.26, 0.035275, , 
88.29, 0.035339, , 
88.32, 0.035402, , 
88.35, 0.035354, , 
88.38, 0.035354, , 
88.41, 0.035345, , 
88.44, 0.035351, , 
88.47, 0.035313, , 
88.50, 0.035285, , 
88.53, 0.035345, , 
88.56, 0.035370, , 
88.59, 0.035354, , 
88.62, 0.035316, , 
88.66, 0.035358, , 
88.68, 0.035361, , 
88.71, 0.035275, , 
88.74, 0.035329, , 
88.77, 0.035361, , 
88.80, 0.035326, , 
88.83, 0.035237, , 
88.86, 0.035294, , 
88.89, 0.035396, , 
88.92, 0.035386, , 
88.95, 0.035253, , 
88.98, 0.035281, , 
89.01, 0.035377, , 
89.04, 0.035367, , 
89.07, 0.035285, , 
89.10, 0.035310, , 
89.13, 0.035437, , 
89.16, 0.035450, , 
89.19, 0.035427, , 
89.22, 0.035396, , 
89.25, 0.035380, , 
89.28, 0.035358, , 
89.31, 0.035288, , 
89.34, 0.035351, , 
89.37, 0.035500, , 
89.40, 0.035437, , 
89.43, 0.035396, , 
89.46, 0.035434, , 
89.49, 0.035472, , 
89.52, 0.035348, , 
89.55, 0.035269, , 
89.58, 0.035300, , 
89.61, 0.035421, , 
89.64, 0.035351, , 
89.67, 0.035307, , 
89.70, 0.035472, , 
89.73, 0.035484, , 
89.76, 0.035373, , 
89.79, 0.035377, , 
89.82, 0.035440, , 
89.85, 0.035396, , 
89.88, 0.035329, , 
89.91, 0.035370, , 
89.94, 0.035472, , 
89.97, 0.035427, , 
90.00, 0.035373, , 
90.03, 0.035380, , 
90.06, 0.035481, , 
90.09, 0.035459, , 
90.12, 0.035354, , 
90.15, 0.035392, , 
90.18, 0.035526, , 
90.21, 0.035440, , 
90.24, 0.035405, , 
90.27, 0.035405, , 
90.30, 0.035462, , 
90.33, 0.035484, , 
90.36, 0.035427, , 
90.39, 0.035383, , 
90.42, 0.035431, , 
90.45, 0.035469, , 
90.48, 0.035437, , 
90.51, 0.035538, , 
90.54, 0.035573, , 
90.57, 0.035484, , 
90.60, 0.035484, , 
90.63, 0.035519, , 
90.66, 0.035583, , 
90.69, 0.035494, , 
90.72, 0.035446, , 
90.75, 0.035488, , 
90.78, 0.035570, , 
90.81, 0.035557, , 
90.84, 0.035507, , 
90.87, 0.035564, , 
90.90, 0.035554, , 
90.93, 0.035478, , 
90.96, 0.035450, , 
90.99, 0.035526, , 
91.02, 0.035561, , 
91.05, 0.035494, , 
91.08, 0.035516, , 
91.11, 0.035548, , 
91.14, 0.035580, , 
91.17, 0.035503, , 
91.20, 0.035611, , 
91.23, 0.035627, , 
91.26, 0.035570, , 
91.29, 0.035465, , 
91.32, 0.035526, , 
91.35, 0.035621, , 
91.38, 0.035535, , 
91.41, 0.035529, , 
91.44, 0.035583, , 
91.47, 0.035535, , 
91.50, 0.035462, , 
91.53, 0.035529, , 
91.56, 0.035545, , 
91.59, 0.035576, , 
91.62, 0.035497, , 
91.65, 0.035484, , 
91.68, 0.035570, , 
91.71, 0.035611, , 
91.74, 0.035475, , 
91.77, 0.035475, , 
91.80, 0.035535, , 
91.83, 0.035592, , 
91.86, 0.035576, , 
91.89, 0.035586, , 
91.92, 0.035570, , 
91.95, 0.035567, , 
91.98, 0.035507, , 
92.01, 0.035548, , 
92.04, 0.035567, , 
92.07, 0.035551, , 
92.10, 0.035503, , 
92.13, 0.035484, , 
92.16, 0.035576, , 
92.19, 0.035551, , 
92.22, 0.035465, , 
92.25, 0.035503, , 
92.28, 0.035586, , 
92.31, 0.035548, , 
92.34, 0.035418, , 
92.37, 0.035494, , 
92.40, 0.035586, , 
92.43, 0.035561, , 
92.46, 0.035446, , 
92.49, 0.035567, , 
92.52, 0.035624, , 
92.55, 0.035488, , 
92.58, 0.035367, , 
92.61, 0.035557, , 
92.64, 0.035614, , 
92.67, 0.035484, , 
92.70, 0.035437, , 
92.73, 0.035548, , 
92.76, 0.035561, , 
92.79, 0.035465, , 
92.82, 0.035491, , 
92.85, 0.035481, , 
92.88, 0.035580, , 
92.91, 0.035500, , 
92.94, 0.035446, , 
92.97, 0.035494, , 
93.00, 0.035491, , 
93.03, 0.035377, , 
93.06, 0.035408, , 
93.09, 0.035510, , 
93.12, 0.035510, , 
93.15, 0.035418, , 
93.18, 0.035389, , 
93.21, 0.035475, , 
93.24, 0.035459, , 
93.27, 0.035383, , 
93.30, 0.035421, , 
93.33, 0.035481, , 
93.36, 0.035478, , 
93.39, 0.035370, , 
93.42, 0.035437, , 
93.45, 0.035557, , 
93.48, 0.035497, , 
93.51, 0.035462, , 
93.54, 0.035459, , 
93.57, 0.035551, , 
93.60, 0.035421, , 
93.63, 0.035386, , 
93.66, 0.035554, , 
93.69, 0.035634, , 
93.72, 0.035592, , 
93.75, 0.035462, , 
93.78, 0.035532, , 
93.81, 0.035576, , 
93.84, 0.035573, , 
93.87, 0.035437, , 
93.90, 0.035503, , 
93.93, 0.035605, , 
93.96, 0.035500, , 
93.99, 0.035424, , 
94.02, 0.035545, , 
94.05, 0.035573, , 
94.08, 0.035437, , 
94.11, 0.035437, , 
94.14, 0.035592, , 
94.17, 0.035624, , 
94.20, 0.035481, , 
94.23, 0.035450, , 
94.26, 0.035554, , 
94.29, 0.035586, , 
94.32, 0.035446, , 
94.35, 0.035472, , 
94.38, 0.035592, , 
94.41, 0.035554, , 
94.44, 0.035386, , 
94.47, 0.035478, , 
94.50, 0.035561, , 
94.54, 0.035516, , 
94.56, 0.035431, , 
94.59, 0.035434, , 
94.62, 0.035554, , 
94.65, 0.035526, , 
94.68, 0.035424, , 
94.71, 0.035497, , 
94.75, 0.035570, , 
94.77, 0.035510, , 
94.80, 0.035396, , 
94.83, 0.035481, , 
94.86, 0.035519, , 
94.89, 0.035494, , 
94.92, 0.035411, , 
94.95, 0.035437, , 
94.98, 0.035450, , 
95.01, 0.035453, , 
95.04, 0.035354, , 
95.07, 0.035453, , 
95.10, 0.035443, , 
95.13, 0.035402, , 
95.16, 0.035380, , 
95.19, 0.035478, , 
95.22, 0.035507, , 
95.25, 0.035497, , 
95.28, 0.035399, , 
95.31, 0.035529, , 
95.34, 0.035500, , 
95.37, 0.035402, , 
95.40, 0.035402, , 
95.43, 0.035513, , 
95.46, 0.035469, , 
95.49, 0.035383, , 
95.52, 0.035437, , 
95.55, 0.035592, , 
95.58, 0.035576, , 
95.61, 0.035389, , 
95.64, 0.035446, , 
95.67, 0.035500, , 
95.70, 0.035481, , 
95.73, 0.035405, , 
95.76, 0.035405, , 
95.79, 0.035557, , 
95.82, 0.035488, , 
95.85, 0.035443, , 
95.88, 0.035469, , 
95.91, 0.035576, , 
95.94, 0.035491, , 
95.97, 0.035411, , 
96.00, 0.035459, , 
