Gradient Profiler Text Data File: 20240419_MV_I_40.csv
Date: 2024-04-19
Time: 15:44:31

User: jared
Experiment name: 
UV Unit: EM-1
Rotor Manufacturer: Beckman
Rotor Model: SW28.1
Speed: 28 rpm
Gradient: sucrose 10.0% to 50.0% w/v
Time: 4
w2t:  x 10^0
Sample Volume: 18 ml
Number of Tubes: 6
Volume per mm: 0.183 ml/mm

Absorbance Units Full Scale (AUFS): 2.00
Event Mark-triggered gradient; (with distance; auto start and stop)
Delay: No Delay
UV Wavelength: 254 nm
Samples / sec: 10 Hz
EM1 Speed: 0.30 mm/sec
Distance: 3.20 mm
Number: 30
Dead Volume: 0.000000 ml; Distance due to Dead Volume: 0.00 mm
Total Distance: 96.00 mm

Data Columns:
Distance(mm), Absorbance, Fraction Number, Fraction Volume(ml)
0.00, 0.097194, 0, 0.000
0.03, 0.097267, , 
0.06, 0.097321, , 
0.09, 0.097223, , 
0.12, 0.097280, , 
0.15, 0.097337, , 
0.18, 0.097280, , 
0.21, 0.097236, , 
0.24, 0.097435, , 
0.27, 0.099326, , 
0.30, 0.102044, , 
0.33, 0.104109, , 
0.36, 0.105042, , 
0.39, 0.104788, , 
0.42, 0.103703, , 
0.45, 0.102844, , 
0.48, 0.102051, , 
0.51, 0.101216, , 
0.54, 0.100918, , 
0.57, 0.102117, , 
0.60, 0.107189, , 
0.63, 0.120489, , 
0.66, 0.146823, , 
0.69, 0.187442, , 
0.72, 0.248531, , 
0.75, 0.307954, , 
0.78, 0.370361, , 
0.81, 0.444058, , 
0.84, 0.508382, , 
0.87, 0.574291, , 
0.90, 0.641616, , 
0.93, 0.710098, , 
0.96, 0.790814, , 
0.99, 0.860286, , 
1.02, 0.941497, , 
1.05, 1.011016, , 
1.08, 1.079936, , 
1.11, 1.146975, , 
1.14, 1.209192, , 
1.17, 1.269405, , 
1.20, 1.306450, , 
1.23, 1.330611, , 
1.26, 1.347511, , 
1.29, 1.355006, , 
1.32, 1.361975, , 
1.35, 1.366044, , 
1.38, 1.369283, , 
1.41, 1.372677, , 
1.44, 1.375367, , 
1.47, 1.378206, , 
1.50, 1.380026, , 
1.53, 1.382294, , 
1.56, 1.385111, , 
1.59, 1.387668, , 
1.62, 1.390487, , 
1.65, 1.394262, , 
1.68, 1.397656, , 
1.71, 1.400844, , 
1.74, 1.404003, , 
1.77, 1.407648, , 
1.80, 1.410702, , 
1.83, 1.413570, , 
1.86, 1.416944, , 
1.89, 1.419853, , 
1.92, 1.421950, , 
1.95, 1.424319, , 
1.98, 1.425931, , 
2.01, 1.427593, , 
2.04, 1.428915, , 
2.07, 1.430152, , 
2.10, 1.431849, , 
2.13, 1.433140, , 
2.16, 1.434736, , 
2.19, 1.435878, , 
2.22, 1.437016, , 
2.25, 1.438450, , 
2.28, 1.439583, , 
2.31, 1.440908, , 
2.34, 1.442015, , 
2.37, 1.443354, , 
2.40, 1.444699, , 
2.43, 1.445803, , 
2.46, 1.447566, , 
2.49, 1.449419, , 
2.52, 1.451325, , 
2.55, 1.453225, , 
2.58, 1.455071, , 
2.61, 1.456844, , 
2.64, 1.457805, , 
2.67, 1.458529, , 
2.70, 1.459375, , 
2.73, 1.459864, , 
2.76, 1.460162, , 
2.79, 1.460387, , 
2.82, 1.460505, , 
2.85, 1.460419, , 
2.88, 1.460115, , 
2.91, 1.459651, , 
2.94, 1.459217, , 
2.97, 1.458652, , 
3.00, 1.457431, , 
3.03, 1.456327, , 
3.06, 1.454976, , 
3.09, 1.453679, , 
3.12, 1.452137, , 
3.15, 1.450174, , 
3.18, 1.448600, , 
3.19, 1.447912, 1, 0.584
3.21, 1.446037, , 
3.24, 1.443560, , 
3.27, 1.440902, , 
3.30, 1.437572, , 
3.33, 1.434295, , 
3.36, 1.430010, , 
3.39, 1.426746, , 
3.42, 1.422632, , 
3.45, 1.417309, , 
3.48, 1.412523, , 
3.51, 1.406721, , 
3.54, 1.401465, , 
3.57, 1.395667, , 
3.60, 1.389422, , 
3.63, 1.382976, , 
3.66, 1.375183, , 
3.69, 1.368046, , 
3.72, 1.360627, , 
3.75, 1.351571, , 
3.78, 1.343400, , 
3.81, 1.334563, , 
3.84, 1.323683, , 
3.87, 1.315636, , 
3.90, 1.305613, , 
3.93, 1.293268, , 
3.96, 1.282248, , 
3.99, 1.269104, , 
4.02, 1.257387, , 
4.05, 1.245238, , 
4.08, 1.232687, , 
4.11, 1.219739, , 
4.14, 1.204136, , 
4.17, 1.190405, , 
4.20, 1.176271, , 
4.23, 1.159536, , 
4.26, 1.144919, , 
4.29, 1.130170, , 
4.32, 1.115458, , 
4.35, 1.100658, , 
4.38, 1.083298, , 
4.41, 1.068263, , 
4.44, 1.050846, , 
4.47, 1.035948, , 
4.51, 1.020951, , 
4.53, 1.005963, , 
4.56, 0.991036, , 
4.59, 0.973892, , 
4.62, 0.959355, , 
4.65, 0.944707, , 
4.68, 0.927819, , 
4.71, 0.915814, , 
4.74, 0.898955, , 
4.77, 0.884599, , 
4.80, 0.870398, , 
4.83, 0.854167, , 
4.86, 0.840284, , 
4.89, 0.824221, , 
4.92, 0.812961, , 
4.95, 0.799604, , 
4.98, 0.784172, , 
5.01, 0.771218, , 
5.04, 0.756402, , 
5.07, 0.743793, , 
5.10, 0.731194, , 
5.13, 0.718748, , 
5.16, 0.706688, , 
5.19, 0.692874, , 
5.22, 0.681357, , 
5.25, 0.668463, , 
5.29, 0.657850, , 
5.31, 0.649086, , 
5.34, 0.636963, , 
5.37, 0.626869, , 
5.40, 0.617135, , 
5.43, 0.605855, , 
5.46, 0.596302, , 
5.49, 0.587043, , 
5.52, 0.576540, , 
5.55, 0.567703, , 
5.58, 0.559114, , 
5.61, 0.550749, , 
5.64, 0.542528, , 
5.67, 0.533009, , 
5.70, 0.524825, , 
5.73, 0.516822, , 
5.76, 0.508880, , 
5.79, 0.499662, , 
5.82, 0.491777, , 
5.85, 0.482867, , 
5.88, 0.475460, , 
5.91, 0.469307, , 
5.94, 0.460689, , 
5.97, 0.453606, , 
6.00, 0.445650, , 
6.03, 0.438758, , 
6.06, 0.431913, , 
6.09, 0.423983, , 
6.12, 0.418467, , 
6.15, 0.410851, , 
6.18, 0.404507, , 
6.21, 0.398563, , 
6.24, 0.391826, , 
6.27, 0.386116, , 
6.30, 0.380569, , 
6.33, 0.375208, , 
6.36, 0.369943, , 
6.39, 0.364744, 2, 0.585
6.39, 0.363884, , 
6.42, 0.358793, , 
6.45, 0.353135, , 
6.48, 0.348278, , 
6.51, 0.344291, , 
6.54, 0.338883, , 
6.57, 0.334553, , 
6.60, 0.329523, , 
6.63, 0.325146, , 
6.66, 0.320965, , 
6.69, 0.316229, , 
6.72, 0.312756, , 
6.75, 0.307890, , 
6.78, 0.303938, , 
6.81, 0.299405, , 
6.84, 0.295558, , 
6.87, 0.291653, , 
6.90, 0.287355, , 
6.93, 0.284348, , 
6.96, 0.280688, , 
6.99, 0.276504, , 
7.02, 0.273012, , 
7.05, 0.269532, , 
7.08, 0.265351, , 
7.11, 0.261862, , 
7.14, 0.258595, , 
7.17, 0.254909, , 
7.20, 0.251772, , 
7.23, 0.248727, , 
7.26, 0.245866, , 
7.29, 0.243110, , 
7.32, 0.239836, , 
7.35, 0.237137, , 
7.38, 0.234209, , 
7.41, 0.231707, , 
7.44, 0.229147, , 
7.47, 0.226368, , 
7.50, 0.224510, , 
7.53, 0.222238, , 
7.56, 0.219558, , 
7.59, 0.217322, , 
7.62, 0.214899, , 
7.65, 0.212691, , 
7.68, 0.210442, , 
7.71, 0.208380, , 
7.74, 0.206404, , 
7.77, 0.203936, , 
7.80, 0.201684, , 
7.83, 0.199613, , 
7.86, 0.197317, , 
7.89, 0.195356, , 
7.92, 0.193444, , 
7.95, 0.191553, , 
7.98, 0.189739, , 
8.01, 0.187541, , 
8.04, 0.185596, , 
8.07, 0.183588, , 
8.11, 0.181968, , 
8.13, 0.180547, , 
8.16, 0.178761, , 
8.19, 0.177283, , 
8.22, 0.175874, , 
8.25, 0.174336, , 
8.28, 0.172734, , 
8.31, 0.171434, , 
8.34, 0.169921, , 
8.37, 0.168519, , 
8.40, 0.167158, , 
8.43, 0.165927, , 
8.46, 0.164766, , 
8.49, 0.163294, , 
8.52, 0.162070, , 
8.55, 0.161080, , 
8.58, 0.159697, , 
8.61, 0.158327, , 
8.64, 0.157106, , 
8.67, 0.156012, , 
8.70, 0.154610, , 
8.73, 0.153338, , 
8.76, 0.152136, , 
8.79, 0.150968, , 
8.82, 0.149845, , 
8.85, 0.148545, , 
8.88, 0.147463, , 
8.91, 0.146302, , 
8.94, 0.145176, , 
8.97, 0.144206, , 
9.00, 0.143029, , 
9.03, 0.142011, , 
9.06, 0.140732, , 
9.09, 0.139721, , 
9.12, 0.138842, , 
9.15, 0.137833, , 
9.18, 0.137082, , 
9.21, 0.136143, , 
9.24, 0.135423, , 
9.27, 0.134734, , 
9.30, 0.133811, , 
9.33, 0.133015, , 
9.37, 0.132244, , 
9.39, 0.131673, , 
9.42, 0.130956, , 
9.45, 0.130056, , 
9.48, 0.129453, , 
9.51, 0.128806, , 
9.54, 0.128118, , 
9.57, 0.127283, , 
9.59, 0.126982, 3, 0.585
9.60, 0.126678, , 
9.63, 0.125964, , 
9.66, 0.125326, , 
9.69, 0.124689, , 
9.72, 0.124042, , 
9.75, 0.123369, , 
9.78, 0.122560, , 
9.81, 0.121951, , 
9.84, 0.121342, , 
9.88, 0.120730, , 
9.90, 0.120137, , 
9.93, 0.119290, , 
9.96, 0.118802, , 
9.99, 0.118269, , 
10.02, 0.117466, , 
10.05, 0.116914, , 
10.08, 0.116334, , 
10.11, 0.115868, , 
10.14, 0.115287, , 
10.17, 0.114815, , 
10.20, 0.114481, , 
10.23, 0.113933, , 
10.26, 0.113485, , 
10.29, 0.113222, , 
10.32, 0.112949, , 
10.35, 0.112540, , 
10.38, 0.112036, , 
10.41, 0.111798, , 
10.44, 0.111528, , 
10.47, 0.111030, , 
10.50, 0.110656, , 
10.53, 0.110485, , 
10.56, 0.110215, , 
10.59, 0.109736, , 
10.62, 0.109279, , 
10.65, 0.109013, , 
10.68, 0.108594, , 
10.71, 0.108192, , 
10.74, 0.107909, , 
10.77, 0.107668, , 
10.80, 0.107424, , 
10.83, 0.107012, , 
10.86, 0.106621, , 
10.89, 0.106342, , 
10.93, 0.105943, , 
10.95, 0.105603, , 
10.98, 0.105305, , 
11.01, 0.105165, , 
11.04, 0.104832, , 
11.07, 0.104496, , 
11.10, 0.104455, , 
11.14, 0.104404, , 
11.16, 0.104293, , 
11.19, 0.104100, , 
11.22, 0.104033, , 
11.25, 0.104039, , 
11.28, 0.103732, , 
11.31, 0.103630, , 
11.34, 0.103627, , 
11.37, 0.103583, , 
11.40, 0.103465, , 
11.43, 0.103351, , 
11.46, 0.103396, , 
11.49, 0.103453, , 
11.52, 0.103386, , 
11.55, 0.103310, , 
11.58, 0.103418, , 
11.61, 0.103361, , 
11.64, 0.103129, , 
11.67, 0.103031, , 
11.70, 0.103132, , 
11.73, 0.103275, , 
11.76, 0.103316, , 
11.79, 0.103256, , 
11.82, 0.103396, , 
11.85, 0.103418, , 
11.88, 0.103326, , 
11.91, 0.103354, , 
11.94, 0.103434, , 
11.97, 0.103424, , 
12.00, 0.103326, , 
12.03, 0.103481, , 
12.06, 0.103725, , 
12.09, 0.103789, , 
12.12, 0.103700, , 
12.15, 0.103814, , 
12.18, 0.103900, , 
12.21, 0.103932, , 
12.24, 0.103992, , 
12.27, 0.104154, , 
12.30, 0.104274, , 
12.33, 0.104274, , 
12.36, 0.104236, , 
12.39, 0.104322, , 
12.42, 0.104363, , 
12.45, 0.104373, , 
12.48, 0.104268, , 
12.51, 0.104315, , 
12.54, 0.104363, , 
12.57, 0.104296, , 
12.60, 0.104252, , 
12.63, 0.104401, , 
12.66, 0.104433, , 
12.69, 0.104357, , 
12.72, 0.104274, , 
12.75, 0.104376, , 
12.79, 0.104353, , 
12.79, 0.104338, 4, 0.587
12.81, 0.104249, , 
12.84, 0.104144, , 
12.87, 0.104147, , 
12.90, 0.104043, , 
12.93, 0.103808, , 
12.96, 0.103795, , 
12.99, 0.103760, , 
13.02, 0.103611, , 
13.05, 0.103478, , 
13.08, 0.103342, , 
13.11, 0.103281, , 
13.14, 0.103104, , 
13.17, 0.102742, , 
13.21, 0.102558, , 
13.23, 0.102400, , 
13.26, 0.102111, , 
13.29, 0.101848, , 
13.32, 0.101622, , 
13.35, 0.101537, , 
13.38, 0.101150, , 
13.41, 0.100925, , 
13.44, 0.100712, , 
13.47, 0.100439, , 
13.50, 0.100122, , 
13.53, 0.099707, , 
13.56, 0.099475, , 
13.59, 0.099291, , 
13.62, 0.098968, , 
13.65, 0.098581, , 
13.68, 0.098219, , 
13.71, 0.097921, , 
13.74, 0.097556, , 
13.77, 0.097172, , 
13.80, 0.096896, , 
13.83, 0.096573, , 
13.86, 0.096173, , 
13.89, 0.095824, , 
13.92, 0.095469, , 
13.95, 0.095145, , 
13.98, 0.094625, , 
14.01, 0.094267, , 
14.04, 0.094092, , 
14.07, 0.093788, , 
14.10, 0.093309, , 
14.13, 0.092808, , 
14.16, 0.092554, , 
14.19, 0.092265, , 
14.22, 0.091859, , 
14.25, 0.091479, , 
14.28, 0.091161, , 
14.31, 0.090736, , 
14.34, 0.090270, , 
14.37, 0.090023, , 
14.40, 0.089667, , 
14.43, 0.089265, , 
14.46, 0.088925, , 
14.49, 0.088579, , 
14.52, 0.088303, , 
14.55, 0.087948, , 
14.58, 0.087517, , 
14.61, 0.087314, , 
14.64, 0.087114, , 
14.67, 0.086565, , 
14.70, 0.086292, , 
14.73, 0.086070, , 
14.76, 0.085820, , 
14.79, 0.085465, , 
14.82, 0.085087, , 
14.85, 0.084843, , 
14.88, 0.084573, , 
14.91, 0.084250, , 
14.94, 0.083974, , 
14.97, 0.083720, , 
15.00, 0.083501, , 
15.03, 0.083146, , 
15.06, 0.082826, , 
15.09, 0.082613, , 
15.12, 0.082407, , 
15.15, 0.082077, , 
15.18, 0.081823, , 
15.21, 0.081639, , 
15.24, 0.081414, , 
15.27, 0.081144, , 
15.30, 0.080957, , 
15.33, 0.080827, , 
15.36, 0.080669, , 
15.39, 0.080415, , 
15.42, 0.080269, , 
15.45, 0.080082, , 
15.48, 0.079882, , 
15.51, 0.079552, , 
15.54, 0.079400, , 
15.57, 0.079359, , 
15.60, 0.079130, , 
15.63, 0.078854, , 
15.66, 0.078712, , 
15.69, 0.078639, , 
15.72, 0.078442, , 
15.75, 0.078204, , 
15.78, 0.078166, , 
15.81, 0.078172, , 
15.84, 0.077979, , 
15.87, 0.077776, , 
15.90, 0.077725, , 
15.93, 0.077706, , 
15.96, 0.077509, , 
15.99, 0.077284, 5, 0.585
15.99, 0.077262, , 
16.02, 0.077195, , 
16.05, 0.077176, , 
16.08, 0.077008, , 
16.11, 0.076850, , 
16.14, 0.076774, , 
16.17, 0.076723, , 
16.20, 0.076621, , 
16.23, 0.076374, , 
16.26, 0.076276, , 
16.29, 0.076206, , 
16.32, 0.076092, , 
16.35, 0.075923, , 
16.38, 0.075800, , 
16.41, 0.075720, , 
16.44, 0.075575, , 
16.47, 0.075387, , 
16.50, 0.075365, , 
16.53, 0.075254, , 
16.56, 0.075089, , 
16.59, 0.075023, , 
16.62, 0.075019, , 
16.65, 0.074908, , 
16.68, 0.074690, , 
16.71, 0.074598, , 
16.74, 0.074607, , 
16.77, 0.074575, , 
16.80, 0.074404, , 
16.83, 0.074315, , 
16.86, 0.074249, , 
16.89, 0.074138, , 
16.92, 0.074046, , 
16.95, 0.074008, , 
16.98, 0.073874, , 
17.01, 0.073713, , 
17.04, 0.073522, , 
17.07, 0.073535, , 
17.10, 0.073608, , 
17.13, 0.073449, , 
17.16, 0.073237, , 
17.19, 0.073180, , 
17.22, 0.073062, , 
17.25, 0.072837, , 
17.28, 0.072656, , 
17.31, 0.072644, , 
17.34, 0.072580, , 
17.37, 0.072431, , 
17.40, 0.072241, , 
17.43, 0.072165, , 
17.46, 0.072104, , 
17.49, 0.071933, , 
17.52, 0.071762, , 
17.55, 0.071673, , 
17.58, 0.071591, , 
17.61, 0.071422, , 
17.64, 0.071296, , 
17.67, 0.071238, , 
17.70, 0.071204, , 
17.73, 0.071134, , 
17.76, 0.071080, , 
17.79, 0.071169, , 
17.82, 0.071150, , 
17.85, 0.071035, , 
17.88, 0.070953, , 
17.91, 0.070836, , 
17.94, 0.070731, , 
17.97, 0.070604, , 
18.00, 0.070576, , 
18.03, 0.070576, , 
18.06, 0.070579, , 
18.09, 0.070541, , 
18.12, 0.070601, , 
18.15, 0.070629, , 
18.18, 0.070499, , 
18.21, 0.070214, , 
18.24, 0.070157, , 
18.27, 0.070144, , 
18.30, 0.070135, , 
18.33, 0.070046, , 
18.36, 0.070103, , 
18.39, 0.070217, , 
18.42, 0.070141, , 
18.45, 0.070024, , 
18.48, 0.070005, , 
18.51, 0.070144, , 
18.54, 0.070097, , 
18.57, 0.070001, , 
18.60, 0.070131, , 
18.63, 0.070189, , 
18.66, 0.070255, , 
18.69, 0.070293, , 
18.72, 0.070480, , 
18.75, 0.070725, , 
18.78, 0.070756, , 
18.81, 0.070845, , 
18.84, 0.071007, , 
18.87, 0.071242, , 
18.90, 0.071337, , 
18.93, 0.071495, , 
18.96, 0.071924, , 
18.99, 0.072257, , 
19.03, 0.072463, , 
19.05, 0.072704, , 
19.08, 0.073145, , 
19.11, 0.073655, , 
19.14, 0.074020, , 
19.17, 0.074423, , 
19.19, 0.074705, 6, 0.585
19.20, 0.075010, , 
19.23, 0.075463, , 
19.26, 0.075882, , 
19.29, 0.076383, , 
19.32, 0.077065, , 
19.35, 0.077639, , 
19.38, 0.078166, , 
19.41, 0.078908, , 
19.44, 0.079438, , 
19.47, 0.080256, , 
19.50, 0.080935, , 
19.53, 0.081585, , 
19.56, 0.082429, , 
19.59, 0.083346, , 
19.62, 0.084050, , 
19.65, 0.085062, , 
19.68, 0.085890, , 
19.71, 0.086584, , 
19.74, 0.087257, , 
19.77, 0.088126, , 
19.80, 0.089220, , 
19.83, 0.089943, , 
19.86, 0.090587, , 
19.89, 0.091488, , 
19.92, 0.092313, , 
19.95, 0.093134, , 
19.98, 0.093845, , 
20.01, 0.094571, , 
20.04, 0.095402, , 
20.07, 0.096059, , 
20.10, 0.096696, , 
20.13, 0.097321, , 
20.16, 0.097968, , 
20.19, 0.098374, , 
20.22, 0.098815, , 
20.26, 0.099323, , 
20.28, 0.099745, , 
20.31, 0.100239, , 
20.34, 0.100620, , 
20.37, 0.101017, , 
20.40, 0.101388, , 
20.43, 0.101622, , 
20.46, 0.101775, , 
20.49, 0.102057, , 
20.52, 0.102228, , 
20.55, 0.102346, , 
20.58, 0.102362, , 
20.61, 0.102425, , 
20.64, 0.102466, , 
20.67, 0.102377, , 
20.70, 0.102342, , 
20.73, 0.102457, , 
20.76, 0.102479, , 
20.79, 0.102342, , 
20.82, 0.102209, , 
20.85, 0.102082, , 
20.88, 0.102016, , 
20.91, 0.101803, , 
20.94, 0.101600, , 
20.97, 0.101343, , 
21.00, 0.101216, , 
21.03, 0.100944, , 
21.06, 0.100668, , 
21.09, 0.100500, , 
21.12, 0.100312, , 
21.15, 0.099957, , 
21.18, 0.099748, , 
21.21, 0.099545, , 
21.24, 0.099345, , 
21.27, 0.099012, , 
21.30, 0.098796, , 
21.33, 0.098669, , 
21.36, 0.098431, , 
21.39, 0.098213, , 
21.42, 0.097987, , 
21.45, 0.097756, , 
21.48, 0.097515, , 
21.51, 0.097198, , 
21.54, 0.096941, , 
21.57, 0.096858, , 
21.60, 0.096592, , 
21.63, 0.096227, , 
21.66, 0.096056, , 
21.69, 0.095913, , 
21.72, 0.095691, , 
21.75, 0.095221, , 
21.78, 0.094968, , 
21.81, 0.094838, , 
21.84, 0.094543, , 
21.87, 0.094238, , 
21.90, 0.093950, , 
21.93, 0.093785, , 
21.96, 0.093537, , 
21.99, 0.093236, , 
22.02, 0.093103, , 
22.05, 0.092896, , 
22.08, 0.092719, , 
22.11, 0.092424, , 
22.14, 0.092176, , 
22.17, 0.092046, , 
22.20, 0.091777, , 
22.23, 0.091447, , 
22.26, 0.091206, , 
22.29, 0.090965, , 
22.32, 0.090660, , 
22.35, 0.090362, , 
22.38, 0.090200, , 
22.39, 0.090172, 7, 0.585
22.41, 0.090013, , 
22.44, 0.089718, , 
22.47, 0.089547, , 
22.50, 0.089452, , 
22.53, 0.089309, , 
22.56, 0.088970, , 
22.59, 0.088671, , 
22.62, 0.088545, , 
22.65, 0.088361, , 
22.68, 0.088062, , 
22.71, 0.087752, , 
22.74, 0.087698, , 
22.77, 0.087618, , 
22.80, 0.087349, , 
22.83, 0.087098, , 
22.86, 0.087006, , 
22.89, 0.086841, , 
22.92, 0.086584, , 
22.95, 0.086378, , 
22.98, 0.086267, , 
23.01, 0.086137, , 
23.04, 0.085814, , 
23.07, 0.085642, , 
23.10, 0.085582, , 
23.13, 0.085436, , 
23.16, 0.085262, , 
23.19, 0.085125, , 
23.22, 0.085071, , 
23.25, 0.084951, , 
23.28, 0.084745, , 
23.31, 0.084580, , 
23.34, 0.084465, , 
23.37, 0.084351, , 
23.40, 0.084180, , 
23.43, 0.084028, , 
23.46, 0.084088, , 
23.49, 0.084031, , 
23.52, 0.083828, , 
23.55, 0.083704, , 
23.58, 0.083704, , 
23.61, 0.083644, , 
23.64, 0.083523, , 
23.67, 0.083495, , 
23.70, 0.083571, , 
23.73, 0.083485, , 
23.76, 0.083317, , 
23.79, 0.083127, , 
23.82, 0.083155, , 
23.85, 0.083108, , 
23.88, 0.082978, , 
23.91, 0.082968, , 
23.94, 0.083098, , 
23.97, 0.083076, , 
24.00, 0.083003, , 
24.03, 0.083006, , 
24.06, 0.083143, , 
24.10, 0.083225, , 
24.12, 0.083301, , 
24.15, 0.083393, , 
24.18, 0.083523, , 
24.21, 0.083546, , 
24.24, 0.083469, , 
24.27, 0.083612, , 
24.30, 0.083879, , 
24.33, 0.083939, , 
24.36, 0.084066, , 
24.39, 0.084234, , 
24.42, 0.084437, , 
24.45, 0.084580, , 
24.48, 0.084837, , 
24.52, 0.085141, , 
24.54, 0.085506, , 
24.57, 0.085874, , 
24.60, 0.086229, , 
24.63, 0.086737, , 
24.66, 0.087273, , 
24.69, 0.087802, , 
24.72, 0.088215, , 
24.75, 0.088827, , 
24.78, 0.089734, , 
24.81, 0.090498, , 
24.84, 0.091428, , 
24.87, 0.092820, , 
24.90, 0.094099, , 
24.93, 0.095520, , 
24.97, 0.096953, , 
24.99, 0.098393, , 
25.02, 0.100573, , 
25.05, 0.102492, , 
25.08, 0.104937, , 
25.11, 0.107969, , 
25.14, 0.110859, , 
25.17, 0.114402, , 
25.20, 0.117197, , 
25.23, 0.120854, , 
25.26, 0.125504, , 
25.29, 0.129729, , 
25.32, 0.135169, , 
25.35, 0.140155, , 
25.38, 0.145129, , 
25.41, 0.151254, , 
25.44, 0.157287, , 
25.47, 0.164830, , 
25.50, 0.171656, , 
25.53, 0.178710, , 
25.56, 0.187496, , 
25.59, 0.194205, 8, 0.585
25.59, 0.195566, , 
25.62, 0.203990, , 
25.65, 0.212469, , 
25.68, 0.221296, , 
25.71, 0.232021, , 
25.74, 0.241590, , 
25.77, 0.252946, , 
25.80, 0.262877, , 
25.83, 0.270354, , 
25.86, 0.283368, , 
25.89, 0.293715, , 
25.92, 0.305946, , 
25.95, 0.316591, , 
25.98, 0.327214, , 
26.01, 0.339426, , 
26.04, 0.348158, , 
26.07, 0.360325, , 
26.10, 0.370549, , 
26.13, 0.380521, , 
26.16, 0.391252, , 
26.19, 0.401605, , 
26.22, 0.412440, , 
26.25, 0.419799, , 
26.28, 0.428481, , 
26.31, 0.438231, , 
26.34, 0.446218, , 
26.37, 0.454960, , 
26.40, 0.462141, , 
26.43, 0.469066, , 
26.46, 0.475609, , 
26.49, 0.481541, , 
26.52, 0.487193, , 
26.55, 0.493480, , 
26.58, 0.498359, , 
26.61, 0.503621, , 
26.64, 0.507725, , 
26.67, 0.511636, , 
26.70, 0.515163, , 
26.73, 0.518272, , 
26.76, 0.521675, , 
26.79, 0.524435, , 
26.82, 0.526801, , 
26.85, 0.529085, , 
26.88, 0.530877, , 
26.91, 0.532508, , 
26.94, 0.533729, , 
26.97, 0.534677, , 
27.00, 0.535619, , 
27.03, 0.536295, , 
27.06, 0.536707, , 
27.09, 0.536837, , 
27.12, 0.536774, , 
27.15, 0.536771, , 
27.18, 0.536603, , 
27.21, 0.535987, , 
27.24, 0.535549, , 
27.27, 0.534940, , 
27.30, 0.533957, , 
27.33, 0.533082, , 
27.36, 0.531794, , 
27.39, 0.530630, , 
27.42, 0.529231, , 
27.45, 0.527436, , 
27.48, 0.525891, , 
27.51, 0.524013, , 
27.54, 0.522573, , 
27.57, 0.520683, , 
27.60, 0.518513, , 
27.63, 0.516594, , 
27.66, 0.514050, , 
27.69, 0.511836, , 
27.72, 0.509676, , 
27.75, 0.507427, , 
27.78, 0.504969, , 
27.81, 0.502025, , 
27.84, 0.499488, , 
27.87, 0.496991, , 
27.90, 0.493873, , 
27.93, 0.491212, , 
27.96, 0.488662, , 
27.99, 0.485963, , 
28.02, 0.483102, , 
28.05, 0.479689, , 
28.08, 0.476878, , 
28.11, 0.473573, , 
28.14, 0.470541, , 
28.17, 0.468051, , 
28.20, 0.464688, , 
28.23, 0.461710, , 
28.26, 0.457996, , 
28.29, 0.454846, , 
28.32, 0.451687, , 
28.35, 0.448118, , 
28.38, 0.445463, , 
28.41, 0.441644, , 
28.44, 0.438431, , 
28.47, 0.435161, , 
28.50, 0.431231, , 
28.53, 0.427786, , 
28.56, 0.423888, , 
28.59, 0.421014, , 
28.62, 0.417515, , 
28.65, 0.413449, , 
28.68, 0.409979, , 
28.71, 0.405928, , 
28.74, 0.402357, , 
28.77, 0.398795, , 
28.79, 0.397050, 9, 0.586
28.80, 0.395287, , 
28.83, 0.391655, , 
28.86, 0.387931, , 
28.89, 0.383626, , 
28.92, 0.380096, , 
28.95, 0.376458, , 
28.98, 0.372122, , 
29.01, 0.368411, , 
29.04, 0.364176, , 
29.07, 0.361480, , 
29.10, 0.357391, , 
29.13, 0.353287, , 
29.16, 0.349722, , 
29.19, 0.345433, , 
29.22, 0.341811, , 
29.25, 0.338214, , 
29.28, 0.334814, , 
29.31, 0.331264, , 
29.34, 0.326925, , 
29.37, 0.323315, , 
29.40, 0.319782, , 
29.43, 0.315772, , 
29.46, 0.312302, , 
29.49, 0.308937, , 
29.52, 0.305670, , 
29.55, 0.302282, , 
29.58, 0.298301, , 
29.61, 0.294965, , 
29.64, 0.291168, , 
29.67, 0.288430, , 
29.70, 0.285198, , 
29.73, 0.281547, , 
29.76, 0.278429, , 
29.79, 0.274737, , 
29.82, 0.271518, , 
29.85, 0.268454, , 
29.88, 0.265510, , 
29.91, 0.262446, , 
29.94, 0.258947, , 
29.97, 0.256083, , 
30.00, 0.253206, , 
30.03, 0.250288, , 
30.06, 0.247014, , 
30.09, 0.244413, , 
30.12, 0.241816, , 
30.15, 0.238660, , 
30.18, 0.235973, , 
30.21, 0.233362, , 
30.24, 0.230834, , 
30.27, 0.228262, , 
30.30, 0.225230, , 
30.33, 0.222730, , 
30.36, 0.219929, , 
30.39, 0.217395, , 
30.42, 0.215431, , 
30.45, 0.212697, , 
30.48, 0.210391, , 
30.51, 0.207616, , 
30.54, 0.205284, , 
30.57, 0.202966, , 
30.60, 0.200416, , 
30.63, 0.198557, , 
30.66, 0.195949, , 
30.69, 0.193770, , 
30.72, 0.191683, , 
30.75, 0.189050, , 
30.78, 0.186941, , 
30.81, 0.184635, , 
30.84, 0.182891, , 
30.87, 0.180724, , 
30.90, 0.178409, , 
30.93, 0.176420, , 
30.96, 0.174152, , 
30.99, 0.172236, , 
31.02, 0.170384, , 
31.05, 0.168661, , 
31.08, 0.166971, , 
31.11, 0.164833, , 
31.14, 0.163025, , 
31.17, 0.161337, , 
31.20, 0.159326, , 
31.23, 0.157426, , 
31.26, 0.155675, , 
31.29, 0.154045, , 
31.32, 0.152386, , 
31.35, 0.150480, , 
31.38, 0.148846, , 
31.41, 0.147045, , 
31.44, 0.145452, , 
31.47, 0.144091, , 
31.50, 0.142283, , 
31.53, 0.140774, , 
31.56, 0.138966, , 
31.59, 0.137342, , 
31.62, 0.135819, , 
31.65, 0.134157, , 
31.68, 0.132907, , 
31.71, 0.131102, , 
31.74, 0.129773, , 
31.77, 0.128479, , 
31.80, 0.126903, , 
31.83, 0.125517, , 
31.86, 0.123988, , 
31.89, 0.123023, , 
31.92, 0.121831, , 
31.95, 0.120403, , 
31.98, 0.119322, , 
31.99, 0.119135, 10, 0.585
32.01, 0.118183, , 
32.04, 0.117054, , 
32.08, 0.115871, , 
32.10, 0.114846, , 
32.13, 0.113863, , 
32.16, 0.112623, , 
32.19, 0.111538, , 
32.22, 0.110583, , 
32.25, 0.109451, , 
32.29, 0.108420, , 
32.31, 0.107249, , 
32.34, 0.106361, , 
32.37, 0.105508, , 
32.40, 0.104420, , 
32.43, 0.103408, , 
32.46, 0.102374, , 
32.50, 0.101584, , 
32.52, 0.100956, , 
32.55, 0.099795, , 
32.58, 0.098942, , 
32.61, 0.097984, , 
32.64, 0.097080, , 
32.67, 0.096259, , 
32.70, 0.095580, , 
32.73, 0.094844, , 
32.76, 0.093851, , 
32.79, 0.093058, , 
32.82, 0.092383, , 
32.85, 0.091644, , 
32.88, 0.090924, , 
32.91, 0.090184, , 
32.94, 0.089613, , 
32.97, 0.089071, , 
33.00, 0.088202, , 
33.03, 0.087428, , 
33.06, 0.086714, , 
33.09, 0.086118, , 
33.12, 0.085572, , 
33.15, 0.084954, , 
33.18, 0.084335, , 
33.21, 0.083628, , 
33.24, 0.083025, , 
33.27, 0.082461, , 
33.30, 0.081953, , 
33.33, 0.081516, , 
33.36, 0.080881, , 
33.39, 0.080199, , 
33.42, 0.079781, , 
33.45, 0.079352, , 
33.48, 0.078743, , 
33.51, 0.078248, , 
33.54, 0.077814, , 
33.57, 0.077189, , 
33.60, 0.076571, , 
33.63, 0.075996, , 
33.66, 0.075600, , 
33.69, 0.075191, , 
33.72, 0.074569, , 
33.75, 0.074138, , 
33.78, 0.073744, , 
33.81, 0.073326, , 
33.84, 0.072989, , 
33.87, 0.072606, , 
33.90, 0.072336, , 
33.93, 0.071867, , 
33.96, 0.071372, , 
33.99, 0.071086, , 
34.02, 0.070804, , 
34.05, 0.070544, , 
34.08, 0.070103, , 
34.11, 0.069840, , 
34.14, 0.069570, , 
34.17, 0.069250, , 
34.20, 0.068936, , 
34.23, 0.068599, , 
34.26, 0.068393, , 
34.29, 0.068105, , 
34.32, 0.067575, , 
34.35, 0.067381, , 
34.38, 0.067248, , 
34.41, 0.067007, , 
34.44, 0.066738, , 
34.47, 0.066541, , 
34.50, 0.066335, , 
34.53, 0.066078, , 
34.56, 0.065780, , 
34.59, 0.065627, , 
34.62, 0.065453, , 
34.65, 0.065171, , 
34.68, 0.064882, , 
34.71, 0.064698, , 
34.74, 0.064615, , 
34.77, 0.064425, , 
34.80, 0.064194, , 
34.83, 0.064073, , 
34.86, 0.063940, , 
34.89, 0.063743, , 
34.92, 0.063515, , 
34.95, 0.063369, , 
34.98, 0.063344, , 
35.01, 0.063226, , 
35.04, 0.063131, , 
35.07, 0.063083, , 
35.10, 0.062966, , 
35.13, 0.062798, , 
35.16, 0.062684, , 
35.19, 0.062738, 11, 0.586
35.19, 0.062719, , 
35.22, 0.062750, , 
35.25, 0.062681, , 
35.28, 0.062665, , 
35.31, 0.062671, , 
35.34, 0.062696, , 
35.37, 0.062557, , 
35.40, 0.062382, , 
35.43, 0.062341, , 
35.46, 0.062297, , 
35.49, 0.062224, , 
35.52, 0.062221, , 
35.55, 0.062176, , 
35.58, 0.062157, , 
35.61, 0.062097, , 
35.65, 0.062056, , 
35.67, 0.061999, , 
35.70, 0.061967, , 
35.73, 0.061770, , 
35.76, 0.061634, , 
35.79, 0.061653, , 
35.82, 0.061710, , 
35.85, 0.061637, , 
35.88, 0.061589, , 
35.91, 0.061634, , 
35.94, 0.061659, , 
35.97, 0.061621, , 
36.00, 0.061580, , 
36.03, 0.061726, , 
36.06, 0.061697, , 
36.09, 0.061631, , 
36.12, 0.061586, , 
36.15, 0.061678, , 
36.18, 0.061678, , 
36.21, 0.061612, , 
36.24, 0.061634, , 
36.27, 0.061694, , 
36.30, 0.061666, , 
36.33, 0.061615, , 
36.36, 0.061599, , 
36.39, 0.061704, , 
36.42, 0.061707, , 
36.45, 0.061659, , 
36.48, 0.061669, , 
36.51, 0.061739, , 
36.54, 0.061726, , 
36.57, 0.061662, , 
36.60, 0.061612, , 
36.63, 0.061504, , 
36.66, 0.061440, , 
36.69, 0.061285, , 
36.72, 0.061285, , 
36.75, 0.061298, , 
36.78, 0.061196, , 
36.81, 0.061130, , 
36.84, 0.061174, , 
36.87, 0.061260, , 
36.90, 0.061250, , 
36.93, 0.061199, , 
36.96, 0.061164, , 
36.99, 0.061199, , 
37.02, 0.061212, , 
37.05, 0.061149, , 
37.08, 0.061187, , 
37.11, 0.061298, , 
37.14, 0.061209, , 
37.17, 0.061120, , 
37.20, 0.061136, , 
37.23, 0.061050, , 
37.26, 0.060876, , 
37.29, 0.060743, , 
37.32, 0.060758, , 
37.35, 0.060758, , 
37.38, 0.060685, , 
37.41, 0.060625, , 
37.44, 0.060720, , 
37.47, 0.060777, , 
37.50, 0.060657, , 
37.53, 0.060482, , 
37.56, 0.060463, , 
37.59, 0.060397, , 
37.62, 0.060346, , 
37.65, 0.060235, , 
37.68, 0.060292, , 
37.71, 0.060197, , 
37.74, 0.059953, , 
37.78, 0.059873, , 
37.80, 0.059918, , 
37.83, 0.059905, , 
37.86, 0.059800, , 
37.89, 0.059667, , 
37.92, 0.059651, , 
37.95, 0.059537, , 
37.99, 0.059331, , 
38.01, 0.059271, , 
38.04, 0.059239, , 
38.07, 0.059109, , 
38.10, 0.058877, , 
38.13, 0.058865, , 
38.16, 0.058909, , 
38.20, 0.058843, , 
38.22, 0.058687, , 
38.25, 0.058595, , 
38.28, 0.058560, , 
38.31, 0.058484, , 
38.34, 0.058303, , 
38.37, 0.058148, , 
38.38, 0.058078, 12, 0.585
38.40, 0.058084, , 
38.43, 0.058005, , 
38.46, 0.057869, , 
38.49, 0.057723, , 
38.52, 0.057609, , 
38.55, 0.057466, , 
38.58, 0.057368, , 
38.61, 0.057333, , 
38.64, 0.057263, , 
38.67, 0.057028, , 
38.70, 0.056911, , 
38.73, 0.056816, , 
38.76, 0.056705, , 
38.79, 0.056641, , 
38.82, 0.056467, , 
38.85, 0.056267, , 
38.88, 0.056134, , 
38.91, 0.055966, , 
38.94, 0.055747, , 
38.97, 0.055636, , 
39.01, 0.055569, , 
39.03, 0.055452, , 
39.06, 0.055344, , 
39.09, 0.055188, , 
39.12, 0.055100, , 
39.15, 0.054852, , 
39.18, 0.054567, , 
39.21, 0.054481, , 
39.24, 0.054386, , 
39.27, 0.054113, , 
39.30, 0.053891, , 
39.33, 0.053815, , 
39.36, 0.053742, , 
39.39, 0.053536, , 
39.42, 0.053422, , 
39.45, 0.053374, , 
39.48, 0.053228, , 
39.51, 0.053082, , 
39.54, 0.052921, , 
39.57, 0.052914, , 
39.60, 0.052876, , 
39.63, 0.052597, , 
39.66, 0.052435, , 
39.69, 0.052410, , 
39.72, 0.052410, , 
39.75, 0.052204, , 
39.78, 0.052029, , 
39.81, 0.052007, , 
39.84, 0.051944, , 
39.87, 0.051867, , 
39.90, 0.051750, , 
39.93, 0.051699, , 
39.96, 0.051550, , 
39.99, 0.051395, , 
40.02, 0.051293, , 
40.05, 0.051233, , 
40.08, 0.051144, , 
40.11, 0.050983, , 
40.14, 0.050935, , 
40.17, 0.050983, , 
40.20, 0.050840, , 
40.23, 0.050611, , 
40.26, 0.050491, , 
40.29, 0.050526, , 
40.32, 0.050456, , 
40.35, 0.050421, , 
40.38, 0.050348, , 
40.41, 0.050259, , 
40.44, 0.050148, , 
40.47, 0.049958, , 
40.50, 0.049917, , 
40.53, 0.049952, , 
40.56, 0.049926, , 
40.59, 0.049856, , 
40.62, 0.049815, , 
40.65, 0.049983, , 
40.68, 0.049920, , 
40.71, 0.049774, , 
40.74, 0.049657, , 
40.77, 0.049615, , 
40.80, 0.049469, , 
40.83, 0.049336, , 
40.86, 0.049295, , 
40.89, 0.049406, , 
40.92, 0.049352, , 
40.95, 0.049358, , 
40.98, 0.049374, , 
41.01, 0.049403, , 
41.04, 0.049330, , 
41.07, 0.049276, , 
41.10, 0.049352, , 
41.13, 0.049384, , 
41.16, 0.049365, , 
41.19, 0.049263, , 
41.22, 0.049362, , 
41.25, 0.049419, , 
41.28, 0.049292, , 
41.31, 0.049251, , 
41.34, 0.049266, , 
41.37, 0.049292, , 
41.40, 0.049203, , 
41.43, 0.049175, , 
41.46, 0.049314, , 
41.49, 0.049327, , 
41.52, 0.049247, , 
41.55, 0.049247, , 
41.58, 0.049266, , 
41.58, 0.049279, 13, 0.586
41.61, 0.049263, , 
41.64, 0.049206, , 
41.67, 0.049219, , 
41.71, 0.049400, , 
41.73, 0.049492, , 
41.76, 0.049565, , 
41.79, 0.049622, , 
41.82, 0.049739, , 
41.85, 0.049742, , 
41.88, 0.049704, , 
41.92, 0.049720, , 
41.94, 0.049771, , 
41.97, 0.049936, , 
42.00, 0.049952, , 
42.03, 0.050069, , 
42.06, 0.050310, , 
42.09, 0.050285, , 
42.13, 0.050231, , 
42.15, 0.050310, , 
42.18, 0.050526, , 
42.21, 0.050608, , 
42.24, 0.050618, , 
42.27, 0.050675, , 
42.30, 0.050754, , 
42.33, 0.050814, , 
42.36, 0.050821, , 
42.39, 0.050967, , 
42.42, 0.051059, , 
42.45, 0.051157, , 
42.48, 0.051214, , 
42.51, 0.051300, , 
42.55, 0.051487, , 
42.57, 0.051611, , 
42.60, 0.051572, , 
42.63, 0.051671, , 
42.66, 0.051937, , 
42.69, 0.052023, , 
42.72, 0.052102, , 
42.76, 0.052216, , 
42.78, 0.052315, , 
42.81, 0.052464, , 
42.84, 0.052537, , 
42.87, 0.052771, , 
42.90, 0.053006, , 
42.93, 0.053035, , 
42.97, 0.053136, , 
42.99, 0.053181, , 
43.02, 0.053365, , 
43.05, 0.053441, , 
43.08, 0.053568, , 
43.11, 0.053783, , 
43.14, 0.053977, , 
43.17, 0.054050, , 
43.20, 0.054062, , 
43.23, 0.054173, , 
43.26, 0.054449, , 
43.29, 0.054434, , 
43.32, 0.054602, , 
43.35, 0.054830, , 
43.38, 0.054960, , 
43.41, 0.055100, , 
43.44, 0.055125, , 
43.47, 0.055300, , 
43.50, 0.055487, , 
43.53, 0.055464, , 
43.56, 0.055496, , 
43.59, 0.055633, , 
43.62, 0.055728, , 
43.65, 0.055845, , 
43.68, 0.055940, , 
43.71, 0.056083, , 
43.74, 0.056248, , 
43.77, 0.056387, , 
43.80, 0.056451, , 
43.83, 0.056511, , 
43.86, 0.056641, , 
43.89, 0.056562, , 
43.92, 0.056559, , 
43.95, 0.056686, , 
43.98, 0.056889, , 
44.01, 0.056936, , 
44.04, 0.057003, , 
44.07, 0.057111, , 
44.10, 0.057130, , 
44.13, 0.057057, , 
44.16, 0.057060, , 
44.19, 0.057088, , 
44.22, 0.057114, , 
44.25, 0.057069, , 
44.28, 0.057098, , 
44.31, 0.057260, , 
44.34, 0.057380, , 
44.37, 0.057437, , 
44.40, 0.057491, , 
44.43, 0.057602, , 
44.46, 0.057615, , 
44.49, 0.057548, , 
44.52, 0.057548, , 
44.55, 0.057675, , 
44.58, 0.057628, , 
44.61, 0.057586, , 
44.64, 0.057640, , 
44.67, 0.057621, , 
44.70, 0.057583, , 
44.73, 0.057504, , 
44.76, 0.057602, , 
44.79, 0.057647, 14, 0.586
44.79, 0.057628, , 
44.82, 0.057533, , 
44.85, 0.057526, , 
44.88, 0.057577, , 
44.91, 0.057590, , 
44.94, 0.057469, , 
44.97, 0.057323, , 
45.00, 0.057250, , 
45.03, 0.057152, , 
45.06, 0.057088, , 
45.09, 0.057022, , 
45.12, 0.057057, , 
45.15, 0.056917, , 
45.18, 0.056759, , 
45.21, 0.056597, , 
45.24, 0.056673, , 
45.27, 0.056663, , 
45.30, 0.056530, , 
45.33, 0.056451, , 
45.36, 0.056337, , 
45.39, 0.056213, , 
45.42, 0.056131, , 
45.45, 0.056070, , 
45.48, 0.056054, , 
45.51, 0.055953, , 
45.54, 0.055769, , 
45.57, 0.055629, , 
45.60, 0.055629, , 
45.63, 0.055582, , 
45.66, 0.055477, , 
45.69, 0.055369, , 
45.72, 0.055388, , 
45.75, 0.055220, , 
45.78, 0.055049, , 
45.81, 0.054966, , 
45.84, 0.054925, , 
45.87, 0.054782, , 
45.90, 0.054599, , 
45.93, 0.054602, , 
45.96, 0.054614, , 
45.99, 0.054516, , 
46.02, 0.054351, , 
46.05, 0.054215, , 
46.08, 0.054208, , 
46.11, 0.054183, , 
46.14, 0.053970, , 
46.17, 0.053951, , 
46.20, 0.053866, , 
46.23, 0.053739, , 
46.26, 0.053603, , 
46.29, 0.053622, , 
46.32, 0.053672, , 
46.35, 0.053644, , 
46.38, 0.053526, , 
46.41, 0.053438, , 
46.44, 0.053304, , 
46.47, 0.053187, , 
46.50, 0.053155, , 
46.53, 0.053225, , 
46.56, 0.053241, , 
46.59, 0.053149, , 
46.62, 0.053143, , 
46.65, 0.053092, , 
46.68, 0.053038, , 
46.71, 0.052879, , 
46.74, 0.052743, , 
46.77, 0.052759, , 
46.81, 0.052759, , 
46.83, 0.052664, , 
46.86, 0.052616, , 
46.89, 0.052705, , 
46.92, 0.052654, , 
46.95, 0.052562, , 
46.98, 0.052594, , 
47.01, 0.052648, , 
47.04, 0.052603, , 
47.07, 0.052654, , 
47.10, 0.052670, , 
47.13, 0.052727, , 
47.16, 0.052692, , 
47.19, 0.052578, , 
47.22, 0.052537, , 
47.25, 0.052638, , 
47.28, 0.052657, , 
47.31, 0.052515, , 
47.34, 0.052543, , 
47.37, 0.052638, , 
47.40, 0.052613, , 
47.43, 0.052588, , 
47.46, 0.052714, , 
47.49, 0.052959, , 
47.52, 0.053044, , 
47.55, 0.053003, , 
47.58, 0.053041, , 
47.61, 0.053162, , 
47.64, 0.053136, , 
47.67, 0.053111, , 
47.70, 0.053162, , 
47.73, 0.053266, , 
47.76, 0.053368, , 
47.79, 0.053476, , 
47.82, 0.053552, , 
47.85, 0.053656, , 
47.88, 0.053691, , 
47.91, 0.053695, , 
47.94, 0.053831, , 
47.97, 0.053993, , 
47.99, 0.054009, 15, 0.585
48.00, 0.054018, , 
48.03, 0.054053, , 
48.06, 0.054047, , 
48.09, 0.054164, , 
48.12, 0.054291, , 
48.15, 0.054288, , 
48.18, 0.054437, , 
48.21, 0.054595, , 
48.24, 0.054567, , 
48.27, 0.054560, , 
48.30, 0.054681, , 
48.33, 0.054868, , 
48.36, 0.054909, , 
48.39, 0.054960, , 
48.42, 0.055097, , 
48.45, 0.055211, , 
48.48, 0.055328, , 
48.51, 0.055458, , 
48.54, 0.055588, , 
48.57, 0.055677, , 
48.60, 0.055801, , 
48.63, 0.055947, , 
48.66, 0.056115, , 
48.69, 0.056242, , 
48.72, 0.056334, , 
48.75, 0.056426, , 
48.78, 0.056606, , 
48.81, 0.056692, , 
48.84, 0.056787, , 
48.87, 0.056974, , 
48.90, 0.057092, , 
48.93, 0.057111, , 
48.96, 0.057088, , 
48.99, 0.057247, , 
49.02, 0.057450, , 
49.05, 0.057501, , 
49.08, 0.057507, , 
49.11, 0.057609, , 
49.14, 0.057770, , 
49.17, 0.057862, , 
49.20, 0.057923, , 
49.23, 0.058021, , 
49.26, 0.058123, , 
49.29, 0.058151, , 
49.32, 0.058161, , 
49.35, 0.058360, , 
49.38, 0.058529, , 
49.41, 0.058541, , 
49.44, 0.058567, , 
49.47, 0.058741, , 
49.50, 0.058900, , 
49.53, 0.058998, , 
49.56, 0.059004, , 
49.59, 0.059093, , 
49.62, 0.059122, , 
49.65, 0.059058, , 
49.68, 0.059011, , 
49.71, 0.059112, , 
49.74, 0.059160, , 
49.77, 0.059087, , 
49.81, 0.059112, , 
49.83, 0.059128, , 
49.86, 0.059153, , 
49.89, 0.059077, , 
49.92, 0.059065, , 
49.95, 0.059141, , 
49.98, 0.059112, , 
50.01, 0.059093, , 
50.04, 0.059049, , 
50.07, 0.059109, , 
50.10, 0.059141, , 
50.13, 0.059103, , 
50.16, 0.059103, , 
50.19, 0.059176, , 
50.22, 0.059176, , 
50.25, 0.059052, , 
50.28, 0.059112, , 
50.31, 0.059211, , 
50.34, 0.059160, , 
50.37, 0.059074, , 
50.40, 0.059119, , 
50.43, 0.059188, , 
50.46, 0.059144, , 
50.49, 0.059087, , 
50.52, 0.059080, , 
50.55, 0.059080, , 
50.58, 0.058890, , 
50.61, 0.058744, , 
50.64, 0.058716, , 
50.67, 0.058741, , 
50.70, 0.058630, , 
50.73, 0.058579, , 
50.76, 0.058576, , 
50.79, 0.058478, , 
50.82, 0.058376, , 
50.85, 0.058195, , 
50.88, 0.058218, , 
50.91, 0.058237, , 
50.94, 0.058189, , 
50.97, 0.058110, , 
51.00, 0.058110, , 
51.03, 0.058069, , 
51.06, 0.057888, , 
51.09, 0.057723, , 
51.12, 0.057707, , 
51.15, 0.057637, , 
51.18, 0.057586, 16, 0.585
51.19, 0.057574, , 
51.21, 0.057590, , 
51.24, 0.057669, , 
51.27, 0.057666, , 
51.30, 0.057615, , 
51.33, 0.057586, , 
51.36, 0.057688, , 
51.39, 0.057561, , 
51.42, 0.057390, , 
51.45, 0.057279, , 
51.48, 0.057225, , 
51.51, 0.057209, , 
51.54, 0.057146, , 
51.57, 0.057187, , 
51.60, 0.057120, , 
51.63, 0.057127, , 
51.66, 0.057060, , 
51.69, 0.057003, , 
51.72, 0.056949, , 
51.75, 0.056762, , 
51.78, 0.056590, , 
51.81, 0.056562, , 
51.84, 0.056670, , 
51.87, 0.056657, , 
51.90, 0.056575, , 
51.93, 0.056635, , 
51.96, 0.056705, , 
51.99, 0.056600, , 
52.02, 0.056508, , 
52.05, 0.056590, , 
52.08, 0.056793, , 
52.11, 0.056892, , 
52.15, 0.056936, , 
52.17, 0.057060, , 
52.20, 0.057184, , 
52.23, 0.057111, , 
52.26, 0.057092, , 
52.29, 0.057146, , 
52.32, 0.057206, , 
52.35, 0.057076, , 
52.38, 0.057022, , 
52.41, 0.057120, , 
52.44, 0.057184, , 
52.47, 0.057073, , 
52.50, 0.057044, , 
52.53, 0.057079, , 
52.56, 0.057127, , 
52.59, 0.057117, , 
52.62, 0.057057, , 
52.65, 0.057193, , 
52.68, 0.057364, , 
52.71, 0.057358, , 
52.74, 0.057437, , 
52.77, 0.057501, , 
52.80, 0.057514, , 
52.83, 0.057523, , 
52.86, 0.057510, , 
52.89, 0.057666, , 
52.92, 0.057650, , 
52.95, 0.057577, , 
52.98, 0.057710, , 
53.01, 0.057983, , 
53.04, 0.058072, , 
53.07, 0.058056, , 
53.10, 0.058065, , 
53.13, 0.058135, , 
53.16, 0.058097, , 
53.19, 0.058116, , 
53.22, 0.058297, , 
53.25, 0.058478, , 
53.28, 0.058563, , 
53.31, 0.058535, , 
53.34, 0.058563, , 
53.37, 0.058636, , 
53.40, 0.058608, , 
53.43, 0.058716, , 
53.46, 0.058843, , 
53.49, 0.059008, , 
53.52, 0.059008, , 
53.55, 0.059036, , 
53.58, 0.059141, , 
53.61, 0.059236, , 
53.64, 0.059306, , 
53.67, 0.059379, , 
53.70, 0.059509, , 
53.73, 0.059620, , 
53.76, 0.059658, , 
53.79, 0.059781, , 
53.82, 0.059975, , 
53.85, 0.060042, , 
53.88, 0.059972, , 
53.91, 0.059991, , 
53.94, 0.060121, , 
53.97, 0.060134, , 
54.00, 0.060121, , 
54.03, 0.060200, , 
54.06, 0.060463, , 
54.09, 0.060543, , 
54.12, 0.060470, , 
54.15, 0.060359, , 
54.18, 0.060381, , 
54.21, 0.060257, , 
54.24, 0.060089, , 
54.27, 0.060118, , 
54.30, 0.060206, , 
54.33, 0.060175, , 
54.36, 0.060035, , 
54.39, 0.060070, 17, 0.587
54.40, 0.060086, , 
54.42, 0.060235, , 
54.45, 0.060419, , 
54.48, 0.060441, , 
54.51, 0.060527, , 
54.54, 0.060635, , 
54.57, 0.060584, , 
54.60, 0.060543, , 
54.63, 0.060597, , 
54.66, 0.060635, , 
54.69, 0.060543, , 
54.72, 0.060501, , 
54.75, 0.060606, , 
54.78, 0.060622, , 
54.81, 0.060584, , 
54.84, 0.060527, , 
54.87, 0.060587, , 
54.90, 0.060606, , 
54.93, 0.060638, , 
54.96, 0.060555, , 
54.99, 0.060666, , 
55.02, 0.060673, , 
55.05, 0.060574, , 
55.08, 0.060511, , 
55.11, 0.060422, , 
55.14, 0.060340, , 
55.17, 0.060270, , 
55.20, 0.060070, , 
55.23, 0.060089, , 
55.26, 0.060175, , 
55.29, 0.060089, , 
55.32, 0.060045, , 
55.35, 0.060165, , 
55.38, 0.060149, , 
55.41, 0.060105, , 
55.44, 0.060064, , 
55.47, 0.060115, , 
55.50, 0.060134, , 
55.53, 0.060089, , 
55.56, 0.059946, , 
55.59, 0.059858, , 
55.62, 0.059693, , 
55.65, 0.059610, , 
55.68, 0.059594, , 
55.71, 0.059658, , 
55.74, 0.059670, , 
55.77, 0.059534, , 
55.80, 0.059569, , 
55.83, 0.059601, , 
55.86, 0.059607, , 
55.89, 0.059563, , 
55.92, 0.059613, , 
55.95, 0.059623, , 
55.98, 0.059604, , 
56.01, 0.059544, , 
56.04, 0.059604, , 
56.07, 0.059597, , 
56.10, 0.059623, , 
56.13, 0.059724, , 
56.16, 0.059880, , 
56.19, 0.059905, , 
56.22, 0.059775, , 
56.25, 0.059667, , 
56.28, 0.059648, , 
56.31, 0.059670, , 
56.34, 0.059610, , 
56.37, 0.059588, , 
56.40, 0.059658, , 
56.43, 0.059693, , 
56.46, 0.059597, , 
56.49, 0.059521, , 
56.52, 0.059604, , 
56.55, 0.059636, , 
56.58, 0.059452, , 
56.61, 0.059233, , 
56.64, 0.059195, , 
56.67, 0.059198, , 
56.70, 0.059087, , 
56.73, 0.059049, , 
56.76, 0.059099, , 
56.79, 0.059096, , 
56.82, 0.059115, , 
56.85, 0.059128, , 
56.88, 0.059172, , 
56.91, 0.059153, , 
56.94, 0.059061, , 
56.97, 0.059096, , 
57.00, 0.059179, , 
57.03, 0.059274, , 
57.06, 0.059280, , 
57.09, 0.059325, , 
57.12, 0.059429, , 
57.15, 0.059594, , 
57.18, 0.059601, , 
57.21, 0.059594, , 
57.24, 0.059655, , 
57.27, 0.059677, , 
57.30, 0.059626, , 
57.33, 0.059617, , 
57.36, 0.059842, , 
57.39, 0.059972, , 
57.42, 0.059988, , 
57.45, 0.060045, , 
57.48, 0.060257, , 
57.51, 0.060375, , 
57.54, 0.060397, , 
57.57, 0.060527, , 
57.58, 0.060565, 18, 0.584
57.60, 0.060613, , 
57.63, 0.060676, , 
57.66, 0.060606, , 
57.69, 0.060638, , 
57.72, 0.060806, , 
57.75, 0.060923, , 
57.78, 0.061022, , 
57.81, 0.061130, , 
57.84, 0.061294, , 
57.87, 0.061437, , 
57.90, 0.061447, , 
57.93, 0.061580, , 
57.96, 0.061678, , 
57.99, 0.061666, , 
58.02, 0.061618, , 
58.05, 0.061675, , 
58.08, 0.061815, , 
58.11, 0.061850, , 
58.14, 0.061926, , 
58.17, 0.062141, , 
58.20, 0.062170, , 
58.23, 0.062059, , 
58.26, 0.061992, , 
58.29, 0.062119, , 
58.32, 0.062116, , 
58.35, 0.061929, , 
58.38, 0.061694, , 
58.41, 0.061605, , 
58.44, 0.061475, , 
58.47, 0.061164, , 
58.50, 0.061028, , 
58.53, 0.061120, , 
58.56, 0.061149, , 
58.59, 0.061076, , 
58.62, 0.061047, , 
58.65, 0.061082, , 
58.68, 0.061104, , 
58.71, 0.061050, , 
58.74, 0.061120, , 
58.77, 0.061336, , 
58.80, 0.061409, , 
58.83, 0.061440, , 
58.86, 0.061453, , 
58.89, 0.061539, , 
58.92, 0.061482, , 
58.95, 0.061329, , 
58.98, 0.061339, , 
59.01, 0.061501, , 
59.04, 0.061494, , 
59.07, 0.061437, , 
59.10, 0.061333, , 
59.13, 0.061298, , 
59.16, 0.061187, , 
59.19, 0.061028, , 
59.22, 0.061038, , 
59.25, 0.061164, , 
59.28, 0.061149, , 
59.31, 0.060958, , 
59.34, 0.060844, , 
59.37, 0.060752, , 
59.40, 0.060635, , 
59.43, 0.060590, , 
59.46, 0.060597, , 
59.49, 0.060651, , 
59.52, 0.060616, , 
59.55, 0.060540, , 
59.58, 0.060486, , 
59.61, 0.060619, , 
59.64, 0.060584, , 
59.67, 0.060476, , 
59.70, 0.060546, , 
59.73, 0.060638, , 
59.76, 0.060663, , 
59.79, 0.060574, , 
59.82, 0.060559, , 
59.85, 0.060581, , 
59.88, 0.060587, , 
59.91, 0.060527, , 
59.94, 0.060590, , 
59.97, 0.060689, , 
60.00, 0.060616, , 
60.03, 0.060578, , 
60.06, 0.060597, , 
60.09, 0.060676, , 
60.12, 0.060593, , 
60.16, 0.060581, , 
60.18, 0.060581, , 
60.21, 0.060597, , 
60.24, 0.060673, , 
60.27, 0.060695, , 
60.30, 0.060828, , 
60.33, 0.061019, , 
60.36, 0.060996, , 
60.39, 0.060999, , 
60.42, 0.061168, , 
60.45, 0.061171, , 
60.48, 0.061130, , 
60.51, 0.061183, , 
60.54, 0.061161, , 
60.57, 0.061177, , 
60.60, 0.061193, , 
60.63, 0.061377, , 
60.66, 0.061837, , 
60.69, 0.062421, , 
60.72, 0.062899, , 
60.75, 0.063353, , 
60.78, 0.063699, , 
60.79, 0.063769, 19, 0.586
60.81, 0.063994, , 
60.84, 0.064127, , 
60.87, 0.064305, , 
60.90, 0.064577, , 
60.93, 0.064593, , 
60.96, 0.064441, , 
60.99, 0.064514, , 
61.02, 0.064669, , 
61.05, 0.064660, , 
61.08, 0.064549, , 
61.11, 0.064590, , 
61.14, 0.064615, , 
61.17, 0.064397, , 
61.20, 0.063975, , 
61.23, 0.063562, , 
61.26, 0.063191, , 
61.29, 0.062801, , 
61.32, 0.062462, , 
61.35, 0.062217, , 
61.38, 0.062081, , 
61.41, 0.061961, , 
61.44, 0.061685, , 
61.47, 0.061647, , 
61.50, 0.061707, , 
61.53, 0.061634, , 
61.56, 0.061551, , 
61.59, 0.061602, , 
61.62, 0.061650, , 
61.65, 0.061596, , 
61.68, 0.061551, , 
61.71, 0.061621, , 
61.74, 0.061685, , 
61.77, 0.061570, , 
61.80, 0.061567, , 
61.83, 0.061624, , 
61.86, 0.061688, , 
61.89, 0.061628, , 
61.92, 0.061612, , 
61.95, 0.061713, , 
61.98, 0.061710, , 
62.01, 0.061678, , 
62.04, 0.061666, , 
62.07, 0.061678, , 
62.10, 0.061659, , 
62.13, 0.061628, , 
62.16, 0.061589, , 
62.19, 0.061716, , 
62.22, 0.061773, , 
62.25, 0.061647, , 
62.28, 0.061631, , 
62.31, 0.061735, , 
62.34, 0.061662, , 
62.37, 0.061425, , 
62.40, 0.061298, , 
62.43, 0.061301, , 
62.46, 0.061294, , 
62.49, 0.061123, , 
62.52, 0.061095, , 
62.55, 0.061247, , 
62.58, 0.061272, , 
62.61, 0.061161, , 
62.64, 0.061180, , 
62.67, 0.061196, , 
62.70, 0.061206, , 
62.73, 0.061085, , 
62.76, 0.061155, , 
62.79, 0.061488, , 
62.82, 0.062233, , 
62.85, 0.063068, , 
62.88, 0.064133, , 
62.91, 0.064996, , 
62.94, 0.065662, , 
62.97, 0.066128, , 
63.00, 0.066633, , 
63.03, 0.067115, , 
63.06, 0.067366, , 
63.09, 0.067584, , 
63.12, 0.067797, , 
63.15, 0.067962, , 
63.18, 0.068054, , 
63.21, 0.068168, , 
63.24, 0.068301, , 
63.27, 0.068482, , 
63.30, 0.068295, , 
63.33, 0.067860, , 
63.36, 0.067140, , 
63.40, 0.066328, , 
63.42, 0.065462, , 
63.45, 0.064787, , 
63.48, 0.064267, , 
63.51, 0.063899, , 
63.54, 0.063512, , 
63.57, 0.063191, , 
63.60, 0.063090, , 
63.63, 0.062909, , 
63.66, 0.062706, , 
63.69, 0.062614, , 
63.72, 0.062655, , 
63.75, 0.062671, , 
63.78, 0.062595, , 
63.81, 0.062509, , 
63.84, 0.062614, , 
63.87, 0.062674, , 
63.90, 0.062601, , 
63.93, 0.062525, , 
63.96, 0.062497, , 
63.98, 0.062455, 20, 0.585
63.99, 0.062424, , 
64.02, 0.062309, , 
64.05, 0.062214, , 
64.08, 0.062227, , 
64.11, 0.062268, , 
64.14, 0.062237, , 
64.17, 0.062195, , 
64.20, 0.062230, , 
64.23, 0.062309, , 
64.26, 0.062237, , 
64.29, 0.062195, , 
64.32, 0.062262, , 
64.35, 0.062287, , 
64.38, 0.062198, , 
64.41, 0.062179, , 
64.44, 0.062176, , 
64.47, 0.062208, , 
64.50, 0.062170, , 
64.53, 0.062189, , 
64.56, 0.062214, , 
64.59, 0.062192, , 
64.62, 0.062081, , 
64.65, 0.062091, , 
64.68, 0.062189, , 
64.71, 0.062214, , 
64.74, 0.062198, , 
64.77, 0.062170, , 
64.80, 0.062176, , 
64.83, 0.062164, , 
64.86, 0.062091, , 
64.89, 0.061986, , 
64.92, 0.061964, , 
64.95, 0.061843, , 
64.98, 0.061647, , 
65.01, 0.061650, , 
65.04, 0.061704, , 
65.07, 0.061624, , 
65.11, 0.061596, , 
65.13, 0.061647, , 
65.16, 0.061723, , 
65.19, 0.061608, , 
65.22, 0.061564, , 
65.25, 0.061662, , 
65.28, 0.061672, , 
65.31, 0.061628, , 
65.34, 0.061555, , 
65.37, 0.061469, , 
65.40, 0.061339, , 
65.43, 0.061225, , 
65.46, 0.061123, , 
65.49, 0.061142, , 
65.53, 0.061174, , 
65.55, 0.061015, , 
65.58, 0.060996, , 
65.61, 0.061091, , 
65.64, 0.061152, , 
65.67, 0.061028, , 
65.70, 0.060844, , 
65.73, 0.060822, , 
65.76, 0.060768, , 
65.79, 0.060654, , 
65.82, 0.060590, , 
65.85, 0.060641, , 
65.88, 0.060711, , 
65.91, 0.060622, , 
65.94, 0.060597, , 
65.97, 0.060701, , 
66.00, 0.060701, , 
66.03, 0.060574, , 
66.06, 0.060517, , 
66.09, 0.060613, , 
66.12, 0.060663, , 
66.15, 0.060600, , 
66.18, 0.060600, , 
66.21, 0.060651, , 
66.24, 0.060628, , 
66.27, 0.060555, , 
66.30, 0.060587, , 
66.33, 0.060641, , 
66.36, 0.060651, , 
66.39, 0.060584, , 
66.42, 0.060590, , 
66.45, 0.060698, , 
66.48, 0.060666, , 
66.51, 0.060574, , 
66.54, 0.060635, , 
66.57, 0.060698, , 
66.60, 0.060676, , 
66.63, 0.060613, , 
66.66, 0.060600, , 
66.69, 0.060613, , 
66.72, 0.060628, , 
66.75, 0.060584, , 
66.78, 0.060600, , 
66.81, 0.060613, , 
66.84, 0.060670, , 
66.87, 0.060606, , 
66.90, 0.060635, , 
66.93, 0.060625, , 
66.96, 0.060609, , 
67.00, 0.060571, , 
67.02, 0.060593, , 
67.05, 0.060628, , 
67.08, 0.060406, , 
67.11, 0.060213, , 
67.14, 0.060210, , 
67.17, 0.060206, , 
67.19, 0.060175, 21, 0.586
67.20, 0.060149, , 
67.23, 0.060089, , 
67.26, 0.060143, , 
67.29, 0.060184, , 
67.32, 0.060080, , 
67.35, 0.060048, , 
67.38, 0.060149, , 
67.41, 0.060130, , 
67.44, 0.060042, , 
67.47, 0.060035, , 
67.50, 0.060111, , 
67.53, 0.060149, , 
67.56, 0.060080, , 
67.59, 0.060032, , 
67.62, 0.060162, , 
67.65, 0.060156, , 
67.68, 0.060099, , 
67.71, 0.060073, , 
67.74, 0.060127, , 
67.77, 0.060149, , 
67.80, 0.060134, , 
67.83, 0.060045, , 
67.86, 0.059988, , 
67.89, 0.059829, , 
67.92, 0.059683, , 
67.95, 0.059626, , 
67.98, 0.059696, , 
68.01, 0.059664, , 
68.04, 0.059591, , 
68.07, 0.059636, , 
68.10, 0.059975, , 
68.13, 0.060292, , 
68.16, 0.060578, , 
68.19, 0.060965, , 
68.22, 0.061171, , 
68.25, 0.061367, , 
68.28, 0.061390, , 
68.31, 0.061367, , 
68.34, 0.061539, , 
68.37, 0.061539, , 
68.40, 0.061478, , 
68.43, 0.061472, , 
68.46, 0.061526, , 
68.49, 0.061520, , 
68.52, 0.061434, , 
68.55, 0.061450, , 
68.58, 0.061523, , 
68.61, 0.061453, , 
68.64, 0.061114, , 
68.67, 0.060901, , 
68.70, 0.060429, , 
68.73, 0.060038, , 
68.76, 0.059632, , 
68.79, 0.059505, , 
68.82, 0.059515, , 
68.86, 0.059556, , 
68.88, 0.059572, , 
68.91, 0.059686, , 
68.94, 0.059953, , 
68.97, 0.059994, , 
69.00, 0.059975, , 
69.03, 0.060010, , 
69.07, 0.060092, , 
69.09, 0.060095, , 
69.12, 0.060013, , 
69.15, 0.060159, , 
69.18, 0.060159, , 
69.21, 0.060124, , 
69.24, 0.060184, , 
69.28, 0.060416, , 
69.30, 0.060482, , 
69.33, 0.060359, , 
69.36, 0.060203, , 
69.39, 0.060105, , 
69.42, 0.059912, , 
69.45, 0.059721, , 
69.49, 0.059534, , 
69.51, 0.059490, , 
69.54, 0.059347, , 
69.57, 0.059103, , 
69.60, 0.058903, , 
69.63, 0.058830, , 
69.66, 0.058757, , 
69.70, 0.058627, , 
69.72, 0.058589, , 
69.75, 0.058579, , 
69.78, 0.058551, , 
69.81, 0.058392, , 
69.84, 0.058199, , 
69.87, 0.058221, , 
69.90, 0.058211, , 
69.93, 0.058129, , 
69.96, 0.058119, , 
69.99, 0.058135, , 
70.02, 0.057999, , 
70.05, 0.057828, , 
70.08, 0.057739, , 
70.12, 0.057745, , 
70.14, 0.057675, , 
70.17, 0.057558, , 
70.20, 0.057564, , 
70.23, 0.057618, , 
70.26, 0.057526, , 
70.29, 0.057301, , 
70.32, 0.057295, , 
70.35, 0.057320, , 
70.38, 0.057231, , 
70.39, 0.057212, 22, 0.586
70.41, 0.057152, , 
70.44, 0.057108, , 
70.47, 0.057127, , 
70.50, 0.057130, , 
70.53, 0.057082, , 
70.56, 0.057117, , 
70.59, 0.057057, , 
70.62, 0.056971, , 
70.65, 0.056736, , 
70.68, 0.056660, , 
70.71, 0.056708, , 
70.74, 0.056654, , 
70.77, 0.056584, , 
70.80, 0.056600, , 
70.83, 0.056619, , 
70.86, 0.056451, , 
70.89, 0.056280, , 
70.92, 0.056270, , 
70.95, 0.056245, , 
70.98, 0.056143, , 
71.01, 0.056099, , 
71.04, 0.056156, , 
71.07, 0.056178, , 
71.10, 0.056058, , 
71.13, 0.056067, , 
71.16, 0.056143, , 
71.19, 0.056134, , 
71.22, 0.056048, , 
71.25, 0.056023, , 
71.28, 0.056121, , 
71.31, 0.056150, , 
71.34, 0.056096, , 
71.37, 0.056124, , 
71.40, 0.056112, , 
71.43, 0.056092, , 
71.46, 0.055950, , 
71.49, 0.055744, , 
71.52, 0.055696, , 
71.55, 0.055696, , 
71.58, 0.055591, , 
71.61, 0.055560, , 
71.64, 0.055541, , 
71.67, 0.055464, , 
71.70, 0.055366, , 
71.73, 0.055195, , 
71.76, 0.055179, , 
71.79, 0.055030, , 
71.82, 0.054824, , 
71.85, 0.054716, , 
71.88, 0.054710, , 
71.91, 0.054687, , 
71.94, 0.054592, , 
71.97, 0.054605, , 
72.00, 0.054564, , 
72.03, 0.054516, , 
72.06, 0.054373, , 
72.09, 0.054278, , 
72.12, 0.054265, , 
72.15, 0.054173, , 
72.18, 0.054113, , 
72.21, 0.054135, , 
72.24, 0.054183, , 
72.27, 0.054120, , 
72.30, 0.054094, , 
72.33, 0.054123, , 
72.36, 0.054126, , 
72.39, 0.053894, , 
72.42, 0.053675, , 
72.45, 0.053726, , 
72.48, 0.053806, , 
72.51, 0.053679, , 
72.54, 0.053596, , 
72.57, 0.053685, , 
72.60, 0.053685, , 
72.64, 0.053644, , 
72.66, 0.053714, , 
72.69, 0.053856, , 
72.72, 0.054053, , 
72.75, 0.054059, , 
72.78, 0.054148, , 
72.81, 0.054345, , 
72.84, 0.054529, , 
72.87, 0.054519, , 
72.90, 0.054541, , 
72.93, 0.054614, , 
72.96, 0.054668, , 
72.99, 0.054611, , 
73.02, 0.054484, , 
73.05, 0.054376, , 
73.08, 0.054278, , 
73.11, 0.054231, , 
73.14, 0.054186, , 
73.17, 0.054132, , 
73.20, 0.054047, , 
73.23, 0.053764, , 
73.26, 0.053542, , 
73.29, 0.053463, , 
73.32, 0.053349, , 
73.35, 0.053085, , 
73.38, 0.052895, , 
73.41, 0.052886, , 
73.44, 0.052797, , 
73.47, 0.052588, , 
73.50, 0.052578, , 
73.53, 0.052578, , 
73.56, 0.052438, , 
73.59, 0.052261, 23, 0.585
73.59, 0.052220, , 
73.62, 0.052181, , 
73.65, 0.052213, , 
73.69, 0.052210, , 
73.71, 0.052039, , 
73.74, 0.051890, , 
73.77, 0.051814, , 
73.80, 0.051693, , 
73.83, 0.051642, , 
73.86, 0.051623, , 
73.89, 0.051541, , 
73.92, 0.051436, , 
73.95, 0.051220, , 
73.98, 0.051214, , 
74.01, 0.051335, , 
74.04, 0.051258, , 
74.07, 0.051059, , 
74.11, 0.050941, , 
74.13, 0.050916, , 
74.16, 0.050900, , 
74.19, 0.051106, , 
74.22, 0.051465, , 
74.25, 0.051769, , 
74.28, 0.051934, , 
74.31, 0.052017, , 
74.34, 0.052083, , 
74.37, 0.052337, , 
74.40, 0.052388, , 
74.43, 0.052451, , 
74.46, 0.052581, , 
74.49, 0.052626, , 
74.52, 0.052638, , 
74.55, 0.052616, , 
74.58, 0.052641, , 
74.61, 0.052556, , 
74.64, 0.052359, , 
74.67, 0.052166, , 
74.70, 0.052042, , 
74.73, 0.051769, , 
74.76, 0.051417, , 
74.79, 0.051036, , 
74.82, 0.050684, , 
74.85, 0.050491, , 
74.88, 0.050142, , 
74.91, 0.049914, , 
74.94, 0.049917, , 
74.97, 0.049926, , 
75.00, 0.049717, , 
75.03, 0.049520, , 
75.06, 0.049473, , 
75.09, 0.049422, , 
75.12, 0.049232, , 
75.15, 0.049187, , 
75.18, 0.049197, , 
75.21, 0.049197, , 
75.24, 0.049143, , 
75.27, 0.049092, , 
75.30, 0.049136, , 
75.33, 0.049041, , 
75.36, 0.048810, , 
75.39, 0.048746, , 
75.42, 0.048768, , 
75.45, 0.048762, , 
75.48, 0.048673, , 
75.51, 0.048635, , 
75.54, 0.048724, , 
75.57, 0.048689, , 
75.60, 0.048543, , 
75.63, 0.048420, , 
75.66, 0.048410, , 
75.69, 0.048328, , 
75.72, 0.048166, , 
75.75, 0.048150, , 
75.78, 0.048242, , 
75.81, 0.048169, , 
75.84, 0.048058, , 
75.87, 0.048077, , 
75.90, 0.048156, , 
75.93, 0.048121, , 
75.96, 0.048064, , 
75.99, 0.048080, , 
76.02, 0.048026, , 
76.05, 0.047842, , 
76.08, 0.047665, , 
76.11, 0.047674, , 
76.14, 0.047782, , 
76.17, 0.047639, , 
76.20, 0.047506, , 
76.23, 0.047427, , 
76.26, 0.047376, , 
76.29, 0.047259, , 
76.32, 0.047129, , 
76.35, 0.047110, , 
76.38, 0.047157, , 
76.41, 0.047106, , 
76.44, 0.046907, , 
76.47, 0.046840, , 
76.50, 0.046764, , 
76.53, 0.046716, , 
76.57, 0.046618, , 
76.59, 0.046640, , 
76.62, 0.046672, , 
76.65, 0.046707, , 
76.68, 0.046589, , 
76.71, 0.046685, , 
76.74, 0.046697, , 
76.77, 0.046631, , 
76.78, 0.046618, 24, 0.585
76.80, 0.046612, , 
76.83, 0.046548, , 
76.86, 0.046456, , 
76.89, 0.046259, , 
76.92, 0.046196, , 
76.95, 0.046218, , 
76.98, 0.046221, , 
77.01, 0.046104, , 
77.04, 0.046060, , 
77.07, 0.046187, , 
77.10, 0.046168, , 
77.13, 0.046072, , 
77.16, 0.045977, , 
77.19, 0.045968, , 
77.22, 0.045831, , 
77.25, 0.045670, , 
77.28, 0.045603, , 
77.31, 0.045692, , 
77.34, 0.045666, , 
77.37, 0.045666, , 
77.40, 0.045647, , 
77.43, 0.045631, , 
77.46, 0.045644, , 
77.49, 0.045619, , 
77.52, 0.045631, , 
77.55, 0.045736, , 
77.58, 0.045647, , 
77.61, 0.045498, , 
77.64, 0.045441, , 
77.67, 0.045422, , 
77.70, 0.045333, , 
77.73, 0.045187, , 
77.76, 0.045152, , 
77.79, 0.045191, , 
77.82, 0.045184, , 
77.85, 0.045067, , 
77.88, 0.045102, , 
77.91, 0.045210, , 
77.94, 0.045137, , 
77.97, 0.044959, , 
78.01, 0.044924, , 
78.03, 0.044864, , 
78.06, 0.044769, , 
78.09, 0.044715, , 
78.12, 0.044696, , 
78.15, 0.044775, , 
78.18, 0.044743, , 
78.21, 0.044616, , 
78.24, 0.044674, , 
78.27, 0.044734, , 
78.30, 0.044610, , 
78.33, 0.044391, , 
78.36, 0.044340, , 
78.39, 0.044350, , 
78.42, 0.044328, , 
78.45, 0.044268, , 
78.48, 0.044252, , 
78.51, 0.044287, , 
78.54, 0.044223, , 
78.57, 0.044214, , 
78.60, 0.044248, , 
78.63, 0.044331, , 
78.66, 0.044245, , 
78.69, 0.044080, , 
78.72, 0.043985, , 
78.75, 0.043973, , 
78.78, 0.043827, , 
78.81, 0.043706, , 
78.84, 0.043716, , 
78.87, 0.043833, , 
78.90, 0.043766, , 
78.93, 0.043754, , 
78.96, 0.043719, , 
78.99, 0.043535, , 
79.02, 0.043379, , 
79.05, 0.043284, , 
79.08, 0.043278, , 
79.11, 0.043303, , 
79.14, 0.043287, , 
79.17, 0.043230, , 
79.20, 0.043268, , 
79.23, 0.043294, , 
79.26, 0.043214, , 
79.29, 0.043161, , 
79.32, 0.043256, , 
79.35, 0.043338, , 
79.38, 0.043091, , 
79.41, 0.042900, , 
79.44, 0.042900, , 
79.47, 0.042827, , 
79.50, 0.042675, , 
79.53, 0.042618, , 
79.56, 0.042691, , 
79.59, 0.042704, , 
79.62, 0.042599, , 
79.65, 0.042494, , 
79.68, 0.042428, , 
79.71, 0.042285, , 
79.74, 0.042107, , 
79.77, 0.042041, , 
79.80, 0.042174, , 
79.83, 0.042203, , 
79.86, 0.042123, , 
79.89, 0.042041, , 
79.92, 0.042085, , 
79.95, 0.042114, , 
79.98, 0.042101, 25, 0.585
79.98, 0.042111, , 
80.01, 0.042111, , 
80.04, 0.042184, , 
80.07, 0.042139, , 
80.10, 0.041977, , 
80.13, 0.041835, , 
80.16, 0.041759, , 
80.19, 0.041695, , 
80.22, 0.041590, , 
80.25, 0.041600, , 
80.28, 0.041600, , 
80.31, 0.041632, , 
80.34, 0.041530, , 
80.37, 0.041394, , 
80.40, 0.041305, , 
80.43, 0.041188, , 
80.46, 0.041140, , 
80.49, 0.041156, , 
80.52, 0.041191, , 
80.55, 0.041130, , 
80.58, 0.041092, , 
80.61, 0.041137, , 
80.64, 0.041124, , 
80.67, 0.041102, , 
80.70, 0.041023, , 
80.73, 0.041035, , 
80.76, 0.041172, , 
80.79, 0.041124, , 
80.82, 0.041070, , 
80.85, 0.041130, , 
80.88, 0.041134, , 
80.91, 0.041115, , 
80.94, 0.041051, , 
80.97, 0.041099, , 
81.00, 0.041153, , 
81.03, 0.041115, , 
81.06, 0.041096, , 
81.09, 0.041181, , 
81.12, 0.041229, , 
81.15, 0.041111, , 
81.18, 0.041102, , 
81.21, 0.041108, , 
81.24, 0.041111, , 
81.28, 0.041061, , 
81.30, 0.041032, , 
81.33, 0.041038, , 
81.36, 0.040959, , 
81.39, 0.040728, , 
81.42, 0.040547, , 
81.45, 0.040661, , 
81.49, 0.040693, , 
81.51, 0.040591, , 
81.54, 0.040509, , 
81.57, 0.040636, , 
81.60, 0.040613, , 
81.63, 0.040569, , 
81.66, 0.040483, , 
81.69, 0.040604, , 
81.72, 0.040598, , 
81.75, 0.040550, , 
81.78, 0.040537, , 
81.81, 0.040582, , 
81.84, 0.040439, , 
81.87, 0.040233, , 
81.90, 0.040134, , 
81.93, 0.040160, , 
81.96, 0.040157, , 
81.99, 0.040001, , 
82.02, 0.040055, , 
82.05, 0.040154, , 
82.08, 0.040081, , 
82.11, 0.040027, , 
82.14, 0.040062, , 
82.17, 0.040182, , 
82.20, 0.040239, , 
82.23, 0.040134, , 
82.26, 0.040138, , 
82.29, 0.040303, , 
82.32, 0.040236, , 
82.35, 0.040131, , 
82.38, 0.040144, , 
82.41, 0.040112, , 
82.44, 0.039985, , 
82.47, 0.039938, , 
82.50, 0.039931, , 
82.53, 0.039846, , 
82.56, 0.039817, , 
82.59, 0.039678, , 
82.62, 0.039608, , 
82.65, 0.039659, , 
82.68, 0.039738, , 
82.71, 0.039592, , 
82.74, 0.039671, , 
82.77, 0.039754, , 
82.80, 0.039668, , 
82.83, 0.039589, , 
82.86, 0.039640, , 
82.89, 0.039725, , 
82.92, 0.039678, , 
82.95, 0.039684, , 
82.98, 0.039671, , 
83.01, 0.039713, , 
83.04, 0.039668, , 
83.07, 0.039671, , 
83.10, 0.039671, , 
83.13, 0.039656, , 
83.16, 0.039411, , 
83.18, 0.039303, 26, 0.586
83.19, 0.039269, , 
83.22, 0.039230, , 
83.25, 0.039278, , 
83.28, 0.039154, , 
83.31, 0.039078, , 
83.34, 0.039167, , 
83.37, 0.039167, , 
83.40, 0.039081, , 
83.43, 0.039050, , 
83.46, 0.038955, , 
83.49, 0.038882, , 
83.52, 0.038707, , 
83.55, 0.038641, , 
83.58, 0.038596, , 
83.61, 0.038542, , 
83.64, 0.038469, , 
83.67, 0.038453, , 
83.70, 0.038590, , 
83.73, 0.038507, , 
83.76, 0.038463, , 
83.79, 0.038536, , 
83.82, 0.038536, , 
83.85, 0.038476, , 
83.88, 0.038485, , 
83.91, 0.038568, , 
83.94, 0.038564, , 
83.97, 0.038523, , 
84.00, 0.038482, , 
84.03, 0.038545, , 
84.07, 0.038707, , 
84.09, 0.038802, , 
84.12, 0.038818, , 
84.15, 0.038888, , 
84.18, 0.039047, , 
84.21, 0.038989, , 
84.24, 0.038964, , 
84.27, 0.039062, , 
84.30, 0.039034, , 
84.33, 0.039015, , 
84.36, 0.039031, , 
84.39, 0.039072, , 
84.42, 0.038980, , 
84.45, 0.038723, , 
84.48, 0.038596, , 
84.51, 0.038653, , 
84.54, 0.038663, , 
84.57, 0.038593, , 
84.60, 0.038561, , 
84.63, 0.038606, , 
84.66, 0.038660, , 
84.69, 0.038571, , 
84.72, 0.038533, , 
84.75, 0.038631, , 
84.78, 0.038615, , 
84.81, 0.038606, , 
84.84, 0.038590, , 
84.87, 0.038615, , 
84.90, 0.038590, , 
84.93, 0.038580, , 
84.96, 0.038545, , 
84.99, 0.038710, , 
85.02, 0.038704, , 
85.05, 0.038593, , 
85.08, 0.038606, , 
85.11, 0.038653, , 
85.14, 0.038561, , 
85.17, 0.038333, , 
85.20, 0.038158, , 
85.23, 0.038260, , 
85.26, 0.038165, , 
85.29, 0.037965, , 
85.32, 0.037987, , 
85.35, 0.038120, , 
85.38, 0.038181, , 
85.41, 0.038089, , 
85.44, 0.037997, , 
85.47, 0.038101, , 
85.50, 0.038082, , 
85.53, 0.037984, , 
85.56, 0.038076, , 
85.59, 0.038136, , 
85.62, 0.038111, , 
85.65, 0.037965, , 
85.68, 0.038070, , 
85.71, 0.038162, , 
85.74, 0.038085, , 
85.77, 0.037946, , 
85.80, 0.038016, , 
85.83, 0.038098, , 
85.86, 0.038016, , 
85.89, 0.037930, , 
85.92, 0.037803, , 
85.95, 0.037759, , 
85.98, 0.037645, , 
86.01, 0.037508, , 
86.04, 0.037584, , 
86.07, 0.037606, , 
86.10, 0.037495, , 
86.13, 0.037464, , 
86.16, 0.037530, , 
86.19, 0.037600, , 
86.22, 0.037543, , 
86.25, 0.037483, , 
86.28, 0.037530, , 
86.31, 0.037553, , 
86.34, 0.037537, , 
86.37, 0.037527, , 
86.40, 0.037629, , 
86.43, 0.037619, , 
86.46, 0.037499, , 
86.49, 0.037438, , 
86.52, 0.037540, , 
86.55, 0.037565, , 
86.58, 0.037413, , 
86.61, 0.037410, , 
86.64, 0.037524, , 
86.67, 0.037534, , 
86.71, 0.037448, , 
86.73, 0.037518, , 
86.76, 0.037635, , 
86.79, 0.037505, , 
86.82, 0.037388, , 
86.85, 0.037457, , 
86.88, 0.037521, , 
86.92, 0.037524, , 
86.94, 0.037480, , 
86.97, 0.037473, , 
87.00, 0.037562, , 
87.03, 0.037480, , 
87.06, 0.037375, , 
87.09, 0.037492, , 
87.12, 0.037534, , 
87.15, 0.037505, , 
87.18, 0.037381, , 
87.21, 0.037451, , 
87.24, 0.037530, , 
87.27, 0.037435, , 
87.30, 0.037353, , 
87.33, 0.037448, , 
87.36, 0.037622, , 
87.39, 0.037534, , 
87.42, 0.037397, , 
87.45, 0.037445, , 
87.48, 0.037486, , 
87.51, 0.037470, , 
87.54, 0.037442, , 
87.57, 0.037511, , 
87.60, 0.037518, , 
87.63, 0.037502, , 
87.66, 0.037442, , 
87.69, 0.037492, , 
87.72, 0.037546, , 
87.75, 0.037461, , 
87.78, 0.037419, , 
87.81, 0.037476, , 
87.84, 0.037537, , 
87.87, 0.037451, , 
87.90, 0.037499, , 
87.93, 0.037537, , 
87.96, 0.037521, , 
87.99, 0.037413, , 
88.02, 0.037403, , 
88.05, 0.037451, , 
88.08, 0.037483, , 
88.11, 0.037397, , 
88.14, 0.037391, , 
88.17, 0.037422, , 
88.21, 0.037480, , 
88.23, 0.037461, , 
88.26, 0.037448, , 
88.29, 0.037549, , 
88.32, 0.037559, , 
88.35, 0.037448, , 
88.38, 0.037521, , 
88.42, 0.037546, , 
88.44, 0.037514, , 
88.47, 0.037448, , 
88.50, 0.037429, , 
88.53, 0.037470, , 
88.56, 0.037505, , 
88.59, 0.037369, , 
88.63, 0.037448, , 
88.65, 0.037559, , 
88.68, 0.037524, , 
88.71, 0.037429, , 
88.74, 0.037476, , 
88.77, 0.037540, , 
88.80, 0.037442, , 
88.83, 0.037464, , 
88.86, 0.037578, , 
88.89, 0.037543, , 
88.92, 0.037534, , 
88.95, 0.037521, , 
88.98, 0.037514, , 
89.01, 0.037565, , 
89.04, 0.037448, , 
89.08, 0.037473, , 
89.10, 0.037581, , 
89.13, 0.037597, , 
89.16, 0.037486, , 
89.19, 0.037540, , 
89.22, 0.037625, , 
89.25, 0.037562, , 
89.29, 0.037540, , 
89.31, 0.037546, , 
89.34, 0.037499, , 
89.37, 0.037537, , 
89.40, 0.037495, , 
89.43, 0.037330, , 
89.46, 0.037305, , 
89.49, 0.037197, , 
89.52, 0.037134, , 
89.56, 0.037169, , 
89.58, 0.037159, , 
89.61, 0.037140, , 
89.64, 0.037137, , 
89.67, 0.037118, , 
89.70, 0.037124, , 
89.73, 0.037086, , 
89.76, 0.037010, , 
89.79, 0.037039, , 
89.82, 0.037204, , 
89.85, 0.037118, , 
89.88, 0.036991, , 
89.91, 0.037115, , 
89.94, 0.037131, , 
89.97, 0.037096, , 
90.00, 0.037042, , 
90.03, 0.037080, , 
90.06, 0.037137, , 
90.09, 0.037102, , 
90.12, 0.037004, , 
90.15, 0.036867, , 
90.18, 0.036798, , 
90.21, 0.036690, , 
90.24, 0.036595, , 
90.27, 0.036639, , 
90.30, 0.036595, , 
90.33, 0.036436, , 
90.36, 0.036446, , 
90.39, 0.036512, , 
90.42, 0.036544, , 
90.45, 0.036414, , 
90.48, 0.036480, , 
90.51, 0.036503, , 
90.54, 0.036465, , 
90.57, 0.036385, , 
90.60, 0.036414, , 
90.63, 0.036547, , 
90.66, 0.036499, , 
90.69, 0.036471, , 
90.72, 0.036541, , 
90.75, 0.036598, , 
90.78, 0.036538, , 
90.81, 0.036439, , 
90.84, 0.036442, , 
90.87, 0.036515, , 
90.90, 0.036512, , 
90.93, 0.036452, , 
90.96, 0.036376, , 
90.99, 0.036541, , 
91.02, 0.036417, , 
91.05, 0.036363, , 
91.08, 0.036477, , 
91.11, 0.036509, , 
91.14, 0.036430, , 
91.17, 0.036379, , 
91.20, 0.036446, , 
91.23, 0.036499, , 
91.26, 0.036423, , 
91.29, 0.036376, , 
91.32, 0.036439, , 
91.35, 0.036471, , 
91.38, 0.036468, , 
91.41, 0.036458, , 
91.44, 0.036430, , 
91.47, 0.036458, , 
91.50, 0.036388, , 
91.53, 0.036360, , 
91.56, 0.036398, , 
91.60, 0.036458, , 
91.62, 0.036433, , 
91.65, 0.036430, , 
91.68, 0.036522, , 
91.71, 0.036547, , 
91.74, 0.036468, , 
91.77, 0.036417, , 
91.80, 0.036468, , 
91.83, 0.036449, , 
91.86, 0.036341, , 
91.89, 0.036347, , 
91.92, 0.036455, , 
91.95, 0.036379, , 
91.98, 0.036328, , 
92.01, 0.036395, , 
92.04, 0.036452, , 
92.07, 0.036439, , 
92.10, 0.036376, , 
92.13, 0.036407, , 
92.16, 0.036449, , 
92.19, 0.036433, , 
92.22, 0.036360, , 
92.25, 0.036414, , 
92.28, 0.036465, , 
92.31, 0.036376, , 
92.34, 0.036335, , 
92.37, 0.036436, , 
92.40, 0.036477, , 
92.43, 0.036335, , 
92.46, 0.036287, , 
92.49, 0.036338, , 
92.52, 0.036433, , 
92.55, 0.036395, , 
92.58, 0.036350, , 
92.61, 0.036388, , 
92.64, 0.036433, , 
92.67, 0.036392, , 
92.70, 0.036354, , 
92.73, 0.036357, , 
92.76, 0.036430, , 
92.79, 0.036357, , 
92.82, 0.036306, , 
92.85, 0.036452, , 
92.88, 0.036484, , 
92.92, 0.036420, , 
92.94, 0.036404, , 
92.97, 0.036465, , 
93.00, 0.036487, , 
93.03, 0.036458, , 
93.06, 0.036392, , 
93.09, 0.036534, , 
93.12, 0.036468, , 
93.15, 0.036335, , 
93.18, 0.036354, , 
93.21, 0.036446, , 
93.24, 0.036404, , 
93.27, 0.036487, , 
93.30, 0.036525, , 
93.33, 0.036490, , 
93.36, 0.036461, , 
93.39, 0.036407, , 
93.43, 0.036411, , 
93.45, 0.036458, , 
93.48, 0.036395, , 
93.51, 0.036369, , 
93.54, 0.036506, , 
93.57, 0.036509, , 
93.60, 0.036414, , 
93.63, 0.036366, , 
93.66, 0.036471, , 
93.69, 0.036503, , 
93.72, 0.036449, , 
93.75, 0.036455, , 
93.78, 0.036522, , 
93.81, 0.036518, , 
93.84, 0.036404, , 
93.87, 0.036423, , 
93.90, 0.036522, , 
93.93, 0.036541, , 
93.96, 0.036426, , 
93.99, 0.036490, , 
94.02, 0.036496, , 
94.05, 0.036452, , 
94.08, 0.036423, , 
94.11, 0.036490, , 
94.14, 0.036607, , 
94.17, 0.036518, , 
94.20, 0.036369, , 
94.23, 0.036436, , 
94.26, 0.036528, , 
94.29, 0.036553, , 
94.32, 0.036414, , 
94.35, 0.036411, , 
94.38, 0.036458, , 
94.41, 0.036471, , 
94.44, 0.036484, , 
94.47, 0.036452, , 
94.50, 0.036576, , 
94.53, 0.036544, , 
94.56, 0.036452, , 
94.59, 0.036525, , 
94.62, 0.036607, , 
94.65, 0.036509, , 
94.68, 0.036423, , 
94.71, 0.036471, , 
94.74, 0.036576, , 
94.77, 0.036480, , 
94.80, 0.036477, , 
94.83, 0.036566, , 
94.86, 0.036614, , 
94.89, 0.036499, , 
94.92, 0.036487, , 
94.95, 0.036585, , 
94.98, 0.036610, , 
95.01, 0.036490, , 
95.04, 0.036531, , 
95.07, 0.036569, , 
95.10, 0.036553, , 
95.13, 0.036446, , 
95.16, 0.036461, , 
95.19, 0.036604, , 
95.22, 0.036595, , 
95.25, 0.036449, , 
95.28, 0.036461, , 
95.31, 0.036531, , 
95.34, 0.036515, , 
95.37, 0.036449, , 
95.40, 0.036490, , 
95.43, 0.036518, , 
95.46, 0.036522, , 
95.50, 0.036398, , 
95.52, 0.036449, , 
95.55, 0.036582, , 
95.58, 0.036544, , 
95.61, 0.036493, , 
95.64, 0.036487, , 
95.67, 0.036509, , 
95.70, 0.036461, , 
95.73, 0.036471, , 
95.76, 0.036455, , 
95.79, 0.036588, , 
95.82, 0.036515, , 
95.85, 0.036442, , 
95.88, 0.036538, , 
95.91, 0.036610, , 
95.94, 0.036484, , 
95.97, 0.036436, , 
96.00, 0.036576, , 
