Gradient Profiler Text Data File: 20240506_BY4742_30.csv
Date: 2024-05-06
Time: 16:21:06

User: jared
Experiment name: 
UV Unit: EM-1
Rotor Manufacturer: Beckman
Rotor Model: SW28.1
Speed: 28 rpm
Gradient: sucrose 10.0% to 50.0% w/v
Time: 4
w2t:  x 10^0
Sample Volume: 18 ml
Number of Tubes: 6
Volume per mm: 0.183 ml/mm

Absorbance Units Full Scale (AUFS): 2.00
Event Mark-triggered gradient; (with distance; auto start and stop)
Delay: No Delay
UV Wavelength: 254 nm
Samples / sec: 10 Hz
EM1 Speed: 0.30 mm/sec
Distance: 3.20 mm
Number: 30
Dead Volume: 0.000000 ml; Distance due to Dead Volume: 0.00 mm
Total Distance: 96.00 mm

Data Columns:
Distance(mm), Absorbance, Fraction Number, Fraction Volume(ml)
0.00, 0.102745, 0, 0.000
0.03, 0.102790, , 
0.06, 0.102787, , 
0.09, 0.102748, , 
0.12, 0.102777, , 
0.15, 0.102796, , 
0.18, 0.102780, , 
0.21, 0.102806, , 
0.24, 0.102875, , 
0.27, 0.103031, , 
0.30, 0.103129, , 
0.33, 0.103205, , 
0.36, 0.103259, , 
0.39, 0.103256, , 
0.42, 0.103240, , 
0.45, 0.103256, , 
0.48, 0.103278, , 
0.51, 0.103291, , 
0.54, 0.103424, , 
0.57, 0.103706, , 
0.60, 0.104179, , 
0.63, 0.106295, , 
0.66, 0.112004, , 
0.69, 0.125916, , 
0.72, 0.157502, , 
0.75, 0.197761, , 
0.78, 0.247474, , 
0.81, 0.303510, , 
0.84, 0.363304, , 
0.87, 0.435472, , 
0.90, 0.498479, , 
0.93, 0.572731, , 
0.96, 0.637067, , 
0.99, 0.691123, , 
1.02, 0.767370, , 
1.05, 0.833204, , 
1.08, 0.910209, , 
1.11, 0.976147, , 
1.14, 1.041641, , 
1.18, 1.115627, , 
1.20, 1.164224, , 
1.23, 1.221093, , 
1.26, 1.256787, , 
1.29, 1.281173, , 
1.32, 1.298806, , 
1.35, 1.307830, , 
1.38, 1.313933, , 
1.41, 1.318516, , 
1.44, 1.322294, , 
1.47, 1.326037, , 
1.50, 1.328673, , 
1.53, 1.331014, , 
1.56, 1.332593, , 
1.59, 1.333767, , 
1.62, 1.335400, , 
1.65, 1.336945, , 
1.68, 1.338902, , 
1.71, 1.340691, , 
1.74, 1.342540, , 
1.77, 1.344659, , 
1.80, 1.346090, , 
1.83, 1.348174, , 
1.86, 1.350020, , 
1.89, 1.351761, , 
1.92, 1.353585, , 
1.95, 1.354841, , 
1.98, 1.355958, , 
2.01, 1.356605, , 
2.04, 1.357195, , 
2.07, 1.357753, , 
2.10, 1.358143, , 
2.13, 1.358305, , 
2.16, 1.358362, , 
2.19, 1.358207, , 
2.22, 1.357810, , 
2.25, 1.357185, , 
2.28, 1.356383, , 
2.31, 1.355247, , 
2.34, 1.354137, , 
2.37, 1.352573, , 
2.40, 1.351041, , 
2.43, 1.349538, , 
2.46, 1.348085, , 
2.50, 1.346315, , 
2.52, 1.344980, , 
2.55, 1.342892, , 
2.58, 1.340958, , 
2.61, 1.338572, , 
2.64, 1.336289, , 
2.67, 1.333811, , 
2.70, 1.331128, , 
2.73, 1.328114, , 
2.76, 1.324717, , 
2.79, 1.320340, , 
2.82, 1.316293, , 
2.85, 1.311934, , 
2.88, 1.307373, , 
2.91, 1.301724, , 
2.94, 1.296465, , 
2.97, 1.290876, , 
3.00, 1.284006, , 
3.03, 1.277941, , 
3.06, 1.271625, , 
3.09, 1.263914, , 
3.12, 1.258059, , 
3.15, 1.249501, , 
3.18, 1.241841, , 
3.19, 1.240515, 1, 0.583
3.21, 1.233857, , 
3.24, 1.224167, , 
3.27, 1.215628, , 
3.30, 1.208685, , 
3.33, 1.196378, , 
3.36, 1.188619, , 
3.39, 1.177527, , 
3.42, 1.167668, , 
3.45, 1.157642, , 
3.48, 1.146436, , 
3.51, 1.135546, , 
3.54, 1.123188, , 
3.58, 1.112363, , 
3.60, 1.103148, , 
3.63, 1.090663, , 
3.66, 1.078547, , 
3.69, 1.064945, , 
3.72, 1.053139, , 
3.75, 1.041254, , 
3.78, 1.030108, , 
3.81, 1.014895, , 
3.84, 1.004615, , 
3.87, 0.990234, , 
3.90, 0.977841, , 
3.93, 0.964043, , 
3.96, 0.950854, , 
3.99, 0.938430, , 
4.02, 0.923836, , 
4.05, 0.913343, , 
4.08, 0.899402, , 
4.11, 0.886137, , 
4.14, 0.873706, , 
4.17, 0.859372, , 
4.20, 0.847332, , 
4.23, 0.834105, , 
4.26, 0.823520, , 
4.29, 0.811809, , 
4.32, 0.798385, , 
4.35, 0.787122, , 
4.38, 0.774843, , 
4.41, 0.763282, , 
4.44, 0.752510, , 
4.47, 0.741909, , 
4.50, 0.731435, , 
4.53, 0.719940, , 
4.56, 0.709127, , 
4.59, 0.699050, , 
4.62, 0.687380, , 
4.66, 0.677563, , 
4.68, 0.668650, , 
4.71, 0.658351, , 
4.74, 0.648908, , 
4.77, 0.639589, , 
4.80, 0.628950, , 
4.83, 0.619986, , 
4.86, 0.611762, , 
4.89, 0.600755, , 
4.92, 0.592057, , 
4.95, 0.582069, , 
4.98, 0.575037, , 
5.01, 0.567408, , 
5.04, 0.557395, , 
5.07, 0.549512, , 
5.10, 0.540507, , 
5.13, 0.533079, , 
5.16, 0.526373, , 
5.19, 0.518779, , 
5.22, 0.510831, , 
5.25, 0.504217, , 
5.28, 0.497784, , 
5.31, 0.491885, , 
5.34, 0.485128, , 
5.37, 0.478118, , 
5.40, 0.472330, , 
5.43, 0.465719, , 
5.46, 0.460543, , 
5.49, 0.455455, , 
5.52, 0.449076, , 
5.55, 0.443516, , 
5.58, 0.437156, , 
5.61, 0.432217, , 
5.64, 0.426530, , 
5.67, 0.420304, , 
5.70, 0.415895, , 
5.73, 0.409855, , 
5.76, 0.405116, , 
5.79, 0.399695, , 
5.82, 0.393777, , 
5.85, 0.388717, , 
5.88, 0.383671, , 
5.91, 0.378961, , 
5.94, 0.373508, , 
5.97, 0.367748, , 
6.00, 0.362939, , 
6.03, 0.357442, , 
6.06, 0.353227, , 
6.09, 0.349109, , 
6.12, 0.344133, , 
6.15, 0.339958, , 
6.18, 0.335226, , 
6.21, 0.331642, , 
6.24, 0.327566, , 
6.27, 0.323160, , 
6.30, 0.320105, , 
6.33, 0.315902, , 
6.36, 0.312601, , 
6.39, 0.309318, 2, 0.585
6.39, 0.308766, , 
6.42, 0.304718, , 
6.45, 0.301353, , 
6.48, 0.297420, , 
6.51, 0.294860, , 
6.54, 0.291088, , 
6.57, 0.287073, , 
6.60, 0.283571, , 
6.63, 0.279447, , 
6.66, 0.275936, , 
6.69, 0.272761, , 
6.72, 0.268983, , 
6.75, 0.265434, , 
6.78, 0.261393, , 
6.81, 0.258069, , 
6.84, 0.254954, , 
6.87, 0.250665, , 
6.90, 0.247357, , 
6.93, 0.244204, , 
6.96, 0.241096, , 
6.99, 0.238292, , 
7.02, 0.235186, , 
7.05, 0.231897, , 
7.08, 0.229128, , 
7.11, 0.226035, , 
7.14, 0.223723, , 
7.17, 0.221055, , 
7.20, 0.218632, , 
7.23, 0.216301, , 
7.26, 0.213665, , 
7.29, 0.211622, , 
7.32, 0.209202, , 
7.35, 0.206696, , 
7.38, 0.204682, , 
7.41, 0.202585, , 
7.44, 0.200638, , 
7.47, 0.198430, , 
7.50, 0.196143, , 
7.53, 0.194179, , 
7.56, 0.191835, , 
7.59, 0.190037, , 
7.62, 0.188261, , 
7.65, 0.185961, , 
7.68, 0.183956, , 
7.71, 0.181717, , 
7.74, 0.179953, , 
7.77, 0.177927, , 
7.80, 0.175690, , 
7.83, 0.174146, , 
7.86, 0.172043, , 
7.89, 0.170355, , 
7.92, 0.168379, , 
7.95, 0.166346, , 
7.98, 0.164611, , 
8.01, 0.162939, , 
8.04, 0.161394, , 
8.07, 0.160030, , 
8.10, 0.158200, , 
8.13, 0.156706, , 
8.16, 0.155066, , 
8.19, 0.153712, , 
8.22, 0.152481, , 
8.25, 0.151035, , 
8.28, 0.149823, , 
8.31, 0.148662, , 
8.34, 0.147222, , 
8.37, 0.146141, , 
8.40, 0.144923, , 
8.43, 0.143670, , 
8.46, 0.142610, , 
8.49, 0.141510, , 
8.53, 0.140266, , 
8.55, 0.139492, , 
8.58, 0.138087, , 
8.61, 0.136980, , 
8.64, 0.135876, , 
8.67, 0.134655, , 
8.70, 0.133665, , 
8.73, 0.132676, , 
8.76, 0.131553, , 
8.79, 0.130424, , 
8.82, 0.129380, , 
8.85, 0.128314, , 
8.88, 0.127328, , 
8.91, 0.126195, , 
8.94, 0.125272, , 
8.97, 0.124324, , 
9.00, 0.123426, , 
9.03, 0.122484, , 
9.06, 0.121558, , 
9.09, 0.120667, , 
9.12, 0.119880, , 
9.15, 0.119011, , 
9.18, 0.118402, , 
9.21, 0.117447, , 
9.24, 0.116645, , 
9.27, 0.116112, , 
9.30, 0.115265, , 
9.33, 0.114745, , 
9.36, 0.114164, , 
9.39, 0.113206, , 
9.42, 0.112537, , 
9.45, 0.111880, , 
9.48, 0.111249, , 
9.51, 0.110650, , 
9.54, 0.109908, , 
9.57, 0.109305, , 
9.59, 0.109032, 3, 0.586
9.60, 0.108766, , 
9.63, 0.108087, , 
9.66, 0.107487, , 
9.69, 0.106891, , 
9.72, 0.106253, , 
9.75, 0.105594, , 
9.78, 0.104867, , 
9.81, 0.104296, , 
9.84, 0.103681, , 
9.87, 0.102974, , 
9.90, 0.102469, , 
9.93, 0.101997, , 
9.96, 0.101524, , 
9.99, 0.101004, , 
10.02, 0.100433, , 
10.05, 0.099872, , 
10.08, 0.099272, , 
10.11, 0.098758, , 
10.14, 0.098260, , 
10.17, 0.097832, , 
10.20, 0.097366, , 
10.23, 0.096874, , 
10.26, 0.096459, , 
10.29, 0.096030, , 
10.32, 0.095586, , 
10.35, 0.095098, , 
10.38, 0.094600, , 
10.41, 0.094184, , 
10.44, 0.093766, , 
10.47, 0.093226, , 
10.50, 0.092773, , 
10.53, 0.092348, , 
10.56, 0.091977, , 
10.59, 0.091441, , 
10.62, 0.090943, , 
10.65, 0.090575, , 
10.68, 0.090140, , 
10.71, 0.089788, , 
10.74, 0.089442, , 
10.77, 0.089166, , 
10.80, 0.088779, , 
10.83, 0.088291, , 
10.86, 0.087977, , 
10.89, 0.087641, , 
10.92, 0.087323, , 
10.95, 0.087022, , 
10.98, 0.086718, , 
11.01, 0.086476, , 
11.04, 0.086270, , 
11.07, 0.085947, , 
11.10, 0.085722, , 
11.13, 0.085538, , 
11.16, 0.085271, , 
11.19, 0.085021, , 
11.22, 0.084814, , 
11.25, 0.084713, , 
11.28, 0.084570, , 
11.31, 0.084339, , 
11.34, 0.084155, , 
11.37, 0.083891, , 
11.40, 0.083580, , 
11.43, 0.083276, , 
11.46, 0.082994, , 
11.49, 0.082718, , 
11.52, 0.082337, , 
11.55, 0.082064, , 
11.58, 0.081741, , 
11.61, 0.081503, , 
11.64, 0.081186, , 
11.67, 0.080849, , 
11.70, 0.080520, , 
11.73, 0.080117, , 
11.76, 0.079784, , 
11.79, 0.079552, , 
11.82, 0.079400, , 
11.85, 0.079273, , 
11.88, 0.079016, , 
11.91, 0.078823, , 
11.94, 0.078731, , 
11.97, 0.078578, , 
12.00, 0.078391, , 
12.03, 0.078242, , 
12.06, 0.078191, , 
12.09, 0.078156, , 
12.12, 0.078093, , 
12.15, 0.078093, , 
12.18, 0.078058, , 
12.22, 0.077928, , 
12.24, 0.077811, , 
12.27, 0.077671, , 
12.30, 0.077592, , 
12.33, 0.077475, , 
12.36, 0.077300, , 
12.39, 0.077176, , 
12.43, 0.077049, , 
12.45, 0.076919, , 
12.48, 0.076723, , 
12.51, 0.076637, , 
12.54, 0.076609, , 
12.57, 0.076551, , 
12.60, 0.076390, , 
12.63, 0.076291, , 
12.66, 0.076199, , 
12.69, 0.076126, , 
12.72, 0.076031, , 
12.75, 0.076073, , 
12.78, 0.076092, , 
12.79, 0.076085, 4, 0.586
12.81, 0.076111, , 
12.84, 0.076222, , 
12.87, 0.076374, , 
12.90, 0.076469, , 
12.93, 0.076472, , 
12.96, 0.076501, , 
12.99, 0.076640, , 
13.02, 0.076808, , 
13.05, 0.076881, , 
13.08, 0.076967, , 
13.11, 0.077075, , 
13.14, 0.077211, , 
13.17, 0.077373, , 
13.20, 0.077436, , 
13.24, 0.077538, , 
13.26, 0.077655, , 
13.29, 0.077766, , 
13.32, 0.077896, , 
13.35, 0.077982, , 
13.38, 0.077988, , 
13.41, 0.077982, , 
13.44, 0.078023, , 
13.47, 0.078030, , 
13.50, 0.078064, , 
13.53, 0.078188, , 
13.56, 0.078337, , 
13.59, 0.078423, , 
13.62, 0.078470, , 
13.65, 0.078499, , 
13.68, 0.078483, , 
13.71, 0.078616, , 
13.74, 0.078750, , 
13.77, 0.078829, , 
13.80, 0.078930, , 
13.83, 0.078978, , 
13.86, 0.079007, , 
13.89, 0.079086, , 
13.92, 0.079200, , 
13.95, 0.079333, , 
13.98, 0.079419, , 
14.01, 0.079435, , 
14.04, 0.079489, , 
14.07, 0.079495, , 
14.10, 0.079473, , 
14.13, 0.079460, , 
14.16, 0.079495, , 
14.19, 0.079533, , 
14.22, 0.079501, , 
14.25, 0.079498, , 
14.28, 0.079470, , 
14.31, 0.079390, , 
14.35, 0.079222, , 
14.37, 0.079095, , 
14.40, 0.078997, , 
14.43, 0.078842, , 
14.46, 0.078562, , 
14.49, 0.078356, , 
14.52, 0.078169, , 
14.55, 0.077928, , 
14.58, 0.077690, , 
14.61, 0.077462, , 
14.64, 0.077249, , 
14.67, 0.077027, , 
14.70, 0.076821, , 
14.73, 0.076688, , 
14.76, 0.076507, , 
14.79, 0.076301, , 
14.82, 0.076073, , 
14.85, 0.075844, , 
14.88, 0.075676, , 
14.91, 0.075416, , 
14.94, 0.075165, , 
14.97, 0.074950, , 
15.00, 0.074769, , 
15.03, 0.074534, , 
15.06, 0.074268, , 
15.09, 0.074112, , 
15.12, 0.073868, , 
15.15, 0.073567, , 
15.18, 0.073370, , 
15.21, 0.073113, , 
15.24, 0.072888, , 
15.27, 0.072555, , 
15.30, 0.072200, , 
15.33, 0.071924, , 
15.36, 0.071638, , 
15.39, 0.071283, , 
15.42, 0.070982, , 
15.45, 0.070683, , 
15.48, 0.070449, , 
15.51, 0.070138, , 
15.54, 0.069824, , 
15.57, 0.069551, , 
15.60, 0.069237, , 
15.63, 0.068952, , 
15.66, 0.068749, , 
15.69, 0.068485, , 
15.72, 0.068263, , 
15.75, 0.068038, , 
15.78, 0.067787, , 
15.81, 0.067629, , 
15.84, 0.067340, , 
15.87, 0.067096, , 
15.90, 0.066893, , 
15.93, 0.066668, , 
15.96, 0.066468, , 
15.98, 0.066287, 5, 0.586
16.00, 0.066201, , 
16.02, 0.066027, , 
16.05, 0.065875, , 
16.08, 0.065738, , 
16.11, 0.065485, , 
16.14, 0.065294, , 
16.17, 0.065129, , 
16.20, 0.064933, , 
16.23, 0.064676, , 
16.26, 0.064441, , 
16.29, 0.064241, , 
16.32, 0.063994, , 
16.35, 0.063708, , 
16.38, 0.063518, , 
16.41, 0.063321, , 
16.44, 0.063198, , 
16.47, 0.062979, , 
16.50, 0.062855, , 
16.53, 0.062763, , 
16.56, 0.062589, , 
16.59, 0.062389, , 
16.62, 0.062325, , 
16.65, 0.062217, , 
16.68, 0.062138, , 
16.71, 0.061935, , 
16.74, 0.061789, , 
16.77, 0.061723, , 
16.80, 0.061608, , 
16.84, 0.061526, , 
16.86, 0.061447, , 
16.89, 0.061291, , 
16.92, 0.061218, , 
16.95, 0.061168, , 
16.98, 0.061149, , 
17.01, 0.061120, , 
17.04, 0.060930, , 
17.07, 0.060812, , 
17.10, 0.060730, , 
17.13, 0.060692, , 
17.16, 0.060628, , 
17.19, 0.060514, , 
17.22, 0.060394, , 
17.25, 0.060279, , 
17.28, 0.060200, , 
17.31, 0.060175, , 
17.34, 0.060172, , 
17.37, 0.060127, , 
17.40, 0.059896, , 
17.43, 0.059778, , 
17.46, 0.059756, , 
17.49, 0.059715, , 
17.52, 0.059670, , 
17.55, 0.059645, , 
17.58, 0.059550, , 
17.61, 0.059407, , 
17.64, 0.059283, , 
17.67, 0.059236, , 
17.70, 0.059204, , 
17.73, 0.059166, , 
17.76, 0.059150, , 
17.79, 0.059144, , 
17.82, 0.059046, , 
17.85, 0.058820, , 
17.88, 0.058751, , 
17.91, 0.058744, , 
17.94, 0.058693, , 
17.97, 0.058598, , 
18.00, 0.058506, , 
18.03, 0.058427, , 
18.06, 0.058313, , 
18.09, 0.058215, , 
18.12, 0.058129, , 
18.15, 0.058015, , 
18.18, 0.057894, , 
18.21, 0.057751, , 
18.24, 0.057663, , 
18.27, 0.057548, , 
18.30, 0.057399, , 
18.33, 0.057285, , 
18.36, 0.057193, , 
18.39, 0.057108, , 
18.42, 0.056946, , 
18.45, 0.056816, , 
18.48, 0.056759, , 
18.51, 0.056705, , 
18.54, 0.056673, , 
18.57, 0.056616, , 
18.60, 0.056502, , 
18.63, 0.056384, , 
18.66, 0.056261, , 
18.69, 0.056207, , 
18.72, 0.056184, , 
18.75, 0.056191, , 
18.78, 0.056073, , 
18.81, 0.055943, , 
18.84, 0.055851, , 
18.87, 0.055772, , 
18.90, 0.055658, , 
18.93, 0.055642, , 
18.96, 0.055636, , 
18.99, 0.055674, , 
19.02, 0.055591, , 
19.05, 0.055426, , 
19.08, 0.055312, , 
19.11, 0.055252, , 
19.14, 0.055144, , 
19.17, 0.055141, , 
19.20, 0.055188, 6, 0.588
19.20, 0.055198, , 
19.23, 0.055163, , 
19.26, 0.055128, , 
19.29, 0.055163, , 
19.32, 0.055182, , 
19.35, 0.055065, , 
19.38, 0.054973, , 
19.41, 0.054855, , 
19.44, 0.054776, , 
19.47, 0.054729, , 
19.50, 0.054694, , 
19.53, 0.054713, , 
19.56, 0.054719, , 
19.59, 0.054703, , 
19.62, 0.054700, , 
19.65, 0.054703, , 
19.68, 0.054751, , 
19.71, 0.054732, , 
19.74, 0.054700, , 
19.77, 0.054773, , 
19.80, 0.054954, , 
19.83, 0.055036, , 
19.86, 0.055084, , 
19.89, 0.055144, , 
19.92, 0.055182, , 
19.95, 0.055185, , 
19.98, 0.055208, , 
20.01, 0.055341, , 
20.04, 0.055553, , 
20.07, 0.055623, , 
20.10, 0.055610, , 
20.13, 0.055725, , 
20.16, 0.055921, , 
20.19, 0.056010, , 
20.22, 0.056121, , 
20.25, 0.056359, , 
20.28, 0.056578, , 
20.31, 0.056721, , 
20.34, 0.056936, , 
20.37, 0.057155, , 
20.40, 0.057463, , 
20.43, 0.057637, , 
20.46, 0.057913, , 
20.49, 0.058230, , 
20.52, 0.058516, , 
20.55, 0.058801, , 
20.58, 0.059255, , 
20.61, 0.059702, , 
20.64, 0.060042, , 
20.67, 0.060473, , 
20.70, 0.060933, , 
20.73, 0.061463, , 
20.76, 0.061884, , 
20.79, 0.062275, , 
20.82, 0.062817, , 
20.85, 0.063204, , 
20.88, 0.063683, , 
20.91, 0.064098, , 
20.94, 0.064568, , 
20.97, 0.065066, , 
21.00, 0.065469, , 
21.03, 0.065903, , 
21.06, 0.066430, , 
21.09, 0.066814, , 
21.12, 0.067251, , 
21.15, 0.067676, , 
21.18, 0.068165, , 
21.21, 0.068631, , 
21.24, 0.068923, , 
21.28, 0.069288, , 
21.30, 0.069564, , 
21.33, 0.069916, , 
21.36, 0.070214, , 
21.39, 0.070471, , 
21.42, 0.070899, , 
21.45, 0.071207, , 
21.49, 0.071441, , 
21.51, 0.071695, , 
21.54, 0.071920, , 
21.57, 0.072200, , 
21.60, 0.072393, , 
21.63, 0.072618, , 
21.66, 0.072818, , 
21.69, 0.072932, , 
21.72, 0.073126, , 
21.75, 0.073278, , 
21.78, 0.073367, , 
21.81, 0.073481, , 
21.84, 0.073627, , 
21.87, 0.073754, , 
21.90, 0.073950, , 
21.93, 0.073973, , 
21.96, 0.073922, , 
21.99, 0.073985, , 
22.02, 0.074055, , 
22.05, 0.073970, , 
22.08, 0.073950, , 
22.11, 0.073954, , 
22.14, 0.073846, , 
22.17, 0.073757, , 
22.20, 0.073624, , 
22.23, 0.073548, , 
22.26, 0.073567, , 
22.29, 0.073522, , 
22.32, 0.073525, , 
22.35, 0.073503, , 
22.38, 0.073456, , 
22.39, 0.073430, 7, 0.585
22.41, 0.073351, , 
22.44, 0.073199, , 
22.47, 0.073177, , 
22.50, 0.073100, , 
22.53, 0.073046, , 
22.56, 0.072847, , 
22.59, 0.072745, , 
22.62, 0.072679, , 
22.65, 0.072555, , 
22.68, 0.072488, , 
22.71, 0.072434, , 
22.74, 0.072336, , 
22.77, 0.072200, , 
22.80, 0.072079, , 
22.83, 0.071984, , 
22.86, 0.071886, , 
22.89, 0.071692, , 
22.92, 0.071546, , 
22.95, 0.071407, , 
22.98, 0.071232, , 
23.01, 0.071058, , 
23.04, 0.070804, , 
23.07, 0.070693, , 
23.10, 0.070582, , 
23.13, 0.070341, , 
23.16, 0.070163, , 
23.19, 0.069973, , 
23.22, 0.069757, , 
23.25, 0.069561, , 
23.28, 0.069285, , 
23.31, 0.069101, , 
23.34, 0.068888, , 
23.37, 0.068634, , 
23.40, 0.068393, , 
23.43, 0.068178, , 
23.46, 0.068013, , 
23.49, 0.067708, , 
23.52, 0.067492, , 
23.55, 0.067312, , 
23.58, 0.067067, , 
23.61, 0.066798, , 
23.64, 0.066576, , 
23.67, 0.066423, , 
23.70, 0.066198, , 
23.73, 0.065881, , 
23.76, 0.065697, , 
23.79, 0.065453, , 
23.82, 0.065196, , 
23.85, 0.064993, , 
23.88, 0.064815, , 
23.91, 0.064568, , 
23.94, 0.064194, , 
23.97, 0.063937, , 
24.00, 0.063670, , 
24.03, 0.063423, , 
24.06, 0.063144, , 
24.09, 0.062884, , 
24.12, 0.062735, , 
24.15, 0.062538, , 
24.18, 0.062249, , 
24.21, 0.061992, , 
24.24, 0.061853, , 
24.27, 0.061716, , 
24.30, 0.061558, , 
24.33, 0.061336, , 
24.36, 0.061241, , 
24.39, 0.061079, , 
24.42, 0.060914, , 
24.45, 0.060800, , 
24.49, 0.060746, , 
24.51, 0.060647, , 
24.54, 0.060448, , 
24.57, 0.060295, , 
24.60, 0.060264, , 
24.63, 0.060143, , 
24.66, 0.060010, , 
24.69, 0.059886, , 
24.72, 0.059778, , 
24.75, 0.059728, , 
24.78, 0.059664, , 
24.81, 0.059645, , 
24.84, 0.059588, , 
24.87, 0.059439, , 
24.90, 0.059299, , 
24.93, 0.059188, , 
24.96, 0.059131, , 
24.99, 0.059109, , 
25.02, 0.059099, , 
25.05, 0.059122, , 
25.08, 0.059144, , 
25.11, 0.059125, , 
25.14, 0.059109, , 
25.17, 0.059109, , 
25.20, 0.059141, , 
25.23, 0.059125, , 
25.26, 0.059106, , 
25.29, 0.059084, , 
25.32, 0.059125, , 
25.35, 0.059119, , 
25.38, 0.059080, , 
25.41, 0.059217, , 
25.44, 0.059414, , 
25.47, 0.059493, , 
25.50, 0.059515, , 
25.53, 0.059626, , 
25.56, 0.059791, , 
25.59, 0.059924, 8, 0.585
25.59, 0.059940, , 
25.62, 0.060042, , 
25.65, 0.060254, , 
25.68, 0.060467, , 
25.71, 0.060559, , 
25.74, 0.060724, , 
25.77, 0.060958, , 
25.80, 0.061206, , 
25.83, 0.061497, , 
25.86, 0.061796, , 
25.89, 0.062173, , 
25.92, 0.062630, , 
25.95, 0.062969, , 
25.98, 0.063496, , 
26.01, 0.064060, , 
26.04, 0.064682, , 
26.07, 0.065408, , 
26.10, 0.066144, , 
26.14, 0.067093, , 
26.16, 0.067873, , 
26.19, 0.068904, , 
26.22, 0.070281, , 
26.25, 0.071619, , 
26.28, 0.073224, , 
26.31, 0.074921, , 
26.34, 0.076647, , 
26.37, 0.078512, , 
26.40, 0.080602, , 
26.43, 0.083171, , 
26.46, 0.085861, , 
26.49, 0.088579, , 
26.52, 0.092021, , 
26.55, 0.094676, , 
26.58, 0.098688, , 
26.61, 0.102323, , 
26.64, 0.106168, , 
26.67, 0.110919, , 
26.70, 0.115255, , 
26.73, 0.120277, , 
26.76, 0.124530, , 
26.79, 0.129482, , 
26.82, 0.135445, , 
26.85, 0.140707, , 
26.88, 0.146642, , 
26.91, 0.152583, , 
26.94, 0.158346, , 
26.97, 0.164091, , 
27.00, 0.169838, , 
27.03, 0.176176, , 
27.06, 0.182374, , 
27.09, 0.188134, , 
27.12, 0.194725, , 
27.15, 0.200349, , 
27.18, 0.205960, , 
27.21, 0.211451, , 
27.24, 0.216783, , 
27.27, 0.222847, , 
27.30, 0.227837, , 
27.33, 0.233407, , 
27.36, 0.237914, , 
27.40, 0.242193, , 
27.42, 0.246307, , 
27.45, 0.250170, , 
27.48, 0.254396, , 
27.51, 0.257748, , 
27.54, 0.260996, , 
27.57, 0.264416, , 
27.61, 0.267036, , 
27.63, 0.269484, , 
27.66, 0.271724, , 
27.69, 0.273709, , 
27.72, 0.275689, , 
27.75, 0.277180, , 
27.78, 0.278699, , 
27.81, 0.279546, , 
27.84, 0.280358, , 
27.87, 0.281138, , 
27.90, 0.281668, , 
27.93, 0.281988, , 
27.96, 0.282115, , 
27.99, 0.282093, , 
28.02, 0.281896, , 
28.05, 0.281566, , 
28.08, 0.281014, , 
28.11, 0.280409, , 
28.14, 0.279676, , 
28.17, 0.278610, , 
28.20, 0.277614, , 
28.23, 0.276704, , 
28.26, 0.275314, , 
28.29, 0.273973, , 
28.32, 0.272285, , 
28.35, 0.270842, , 
28.38, 0.269285, , 
28.41, 0.267343, , 
28.44, 0.265887, , 
28.47, 0.263769, , 
28.50, 0.261919, , 
28.53, 0.259978, , 
28.56, 0.257561, , 
28.59, 0.255452, , 
28.62, 0.253000, , 
28.65, 0.251173, , 
28.68, 0.248978, , 
28.71, 0.246523, , 
28.74, 0.244344, , 
28.77, 0.241876, , 
28.79, 0.240617, 9, 0.585
28.80, 0.239405, , 
28.83, 0.237096, , 
28.86, 0.234720, , 
28.89, 0.232303, , 
28.92, 0.229489, , 
28.95, 0.227117, , 
28.98, 0.224719, , 
29.01, 0.221791, , 
29.05, 0.219276, , 
29.07, 0.216802, , 
29.10, 0.214334, , 
29.13, 0.211825, , 
29.16, 0.208872, , 
29.19, 0.206439, , 
29.22, 0.203559, , 
29.25, 0.201373, , 
29.28, 0.198849, , 
29.31, 0.195991, , 
29.34, 0.193520, , 
29.37, 0.190665, , 
29.40, 0.188518, , 
29.43, 0.186021, , 
29.46, 0.183646, , 
29.49, 0.181260, , 
29.52, 0.178589, , 
29.55, 0.176261, , 
29.58, 0.173917, , 
29.61, 0.171215, , 
29.64, 0.168998, , 
29.67, 0.166895, , 
29.70, 0.164446, , 
29.73, 0.162387, , 
29.76, 0.160671, , 
29.79, 0.158343, , 
29.82, 0.156348, , 
29.85, 0.154026, , 
29.88, 0.152126, , 
29.91, 0.150270, , 
29.94, 0.148006, , 
29.98, 0.146128, , 
30.00, 0.144355, , 
30.03, 0.142734, , 
30.06, 0.140812, , 
30.10, 0.138766, , 
30.12, 0.136996, , 
30.15, 0.135312, , 
30.18, 0.133402, , 
30.21, 0.132197, , 
30.24, 0.130164, , 
30.27, 0.128571, , 
30.30, 0.126954, , 
30.33, 0.125190, , 
30.36, 0.123766, , 
30.39, 0.122113, , 
30.42, 0.120936, , 
30.45, 0.119465, , 
30.48, 0.117844, , 
30.51, 0.116489, , 
30.54, 0.115075, , 
30.57, 0.113546, , 
30.60, 0.112277, , 
30.63, 0.110850, , 
30.66, 0.109844, , 
30.69, 0.108645, , 
30.72, 0.107307, , 
30.75, 0.106168, , 
30.78, 0.104832, , 
30.81, 0.103710, , 
30.84, 0.102723, , 
30.87, 0.101626, , 
30.90, 0.100576, , 
30.93, 0.099377, , 
30.96, 0.098381, , 
30.99, 0.097369, , 
31.02, 0.096297, , 
31.05, 0.095421, , 
31.08, 0.094549, , 
31.11, 0.093632, , 
31.14, 0.092732, , 
31.17, 0.091878, , 
31.20, 0.090908, , 
31.23, 0.090048, , 
31.26, 0.089166, , 
31.29, 0.088427, , 
31.32, 0.087679, , 
31.35, 0.086695, , 
31.38, 0.086067, , 
31.41, 0.085249, , 
31.44, 0.084459, , 
31.47, 0.083726, , 
31.50, 0.082892, , 
31.53, 0.082286, , 
31.57, 0.081474, , 
31.59, 0.080900, , 
31.62, 0.080256, , 
31.65, 0.079498, , 
31.68, 0.078861, , 
31.71, 0.078064, , 
31.74, 0.077452, , 
31.77, 0.076916, , 
31.80, 0.076291, , 
31.83, 0.075641, , 
31.86, 0.075080, , 
31.89, 0.074487, , 
31.92, 0.074001, , 
31.95, 0.073472, , 
31.98, 0.073031, , 
31.99, 0.072964, 10, 0.585
32.01, 0.072564, , 
32.04, 0.072035, , 
32.07, 0.071486, , 
32.10, 0.070864, , 
32.13, 0.070417, , 
32.16, 0.069928, , 
32.19, 0.069338, , 
32.22, 0.069053, , 
32.25, 0.068720, , 
32.28, 0.068387, , 
32.31, 0.068013, , 
32.34, 0.067575, , 
32.37, 0.067175, , 
32.40, 0.066661, , 
32.43, 0.066262, , 
32.46, 0.065780, , 
32.49, 0.065367, , 
32.52, 0.064901, , 
32.55, 0.064352, , 
32.58, 0.064013, , 
32.61, 0.063651, , 
32.64, 0.063302, , 
32.67, 0.062925, , 
32.70, 0.062532, , 
32.73, 0.062237, , 
32.76, 0.061831, , 
32.79, 0.061567, , 
32.82, 0.061285, , 
32.85, 0.060993, , 
32.88, 0.060676, , 
32.91, 0.060387, , 
32.94, 0.060187, , 
32.97, 0.059924, , 
33.00, 0.059559, , 
33.04, 0.059261, , 
33.06, 0.059065, , 
33.09, 0.058782, , 
33.12, 0.058557, , 
33.15, 0.058357, , 
33.18, 0.058123, , 
33.21, 0.057891, , 
33.24, 0.057650, , 
33.27, 0.057431, , 
33.31, 0.057219, , 
33.33, 0.057025, , 
33.36, 0.056828, , 
33.39, 0.056648, , 
33.42, 0.056479, , 
33.45, 0.056305, , 
33.48, 0.056016, , 
33.51, 0.055864, , 
33.54, 0.055690, , 
33.57, 0.055449, , 
33.60, 0.055192, , 
33.63, 0.055014, , 
33.66, 0.054824, , 
33.69, 0.054633, , 
33.72, 0.054437, , 
33.75, 0.054253, , 
33.78, 0.054066, , 
33.81, 0.053913, , 
33.84, 0.053777, , 
33.87, 0.053691, , 
33.90, 0.053568, , 
33.93, 0.053400, , 
33.96, 0.053238, , 
33.99, 0.053101, , 
34.02, 0.052952, , 
34.05, 0.052791, , 
34.08, 0.052692, , 
34.11, 0.052702, , 
34.14, 0.052676, , 
34.17, 0.052537, , 
34.20, 0.052372, , 
34.23, 0.052286, , 
34.26, 0.052248, , 
34.29, 0.052061, , 
34.32, 0.051906, , 
34.35, 0.051810, , 
34.38, 0.051712, , 
34.41, 0.051585, , 
34.44, 0.051423, , 
34.47, 0.051344, , 
34.50, 0.051214, , 
34.53, 0.051011, , 
34.56, 0.050859, , 
34.59, 0.050760, , 
34.62, 0.050668, , 
34.65, 0.050542, , 
34.68, 0.050437, , 
34.71, 0.050348, , 
34.74, 0.050266, , 
34.77, 0.050177, , 
34.80, 0.050079, , 
34.83, 0.049967, , 
34.86, 0.049853, , 
34.89, 0.049755, , 
34.92, 0.049714, , 
34.95, 0.049714, , 
34.98, 0.049647, , 
35.01, 0.049492, , 
35.04, 0.049374, , 
35.07, 0.049311, , 
35.10, 0.049241, , 
35.13, 0.049152, , 
35.16, 0.049152, , 
35.19, 0.049165, 11, 0.586
35.19, 0.049143, , 
35.22, 0.048981, , 
35.25, 0.048832, , 
35.28, 0.048762, , 
35.31, 0.048724, , 
35.34, 0.048664, , 
35.37, 0.048638, , 
35.40, 0.048683, , 
35.43, 0.048724, , 
35.46, 0.048667, , 
35.49, 0.048638, , 
35.52, 0.048588, , 
35.55, 0.048474, , 
35.58, 0.048321, , 
35.61, 0.048223, , 
35.64, 0.048185, , 
35.67, 0.048185, , 
35.70, 0.048179, , 
35.73, 0.048166, , 
35.76, 0.048125, , 
35.79, 0.048236, , 
35.82, 0.048347, , 
35.85, 0.048416, , 
35.88, 0.048565, , 
35.91, 0.048585, , 
35.94, 0.048600, , 
35.97, 0.048626, , 
36.00, 0.048632, , 
36.03, 0.048651, , 
36.06, 0.048711, , 
36.09, 0.048867, , 
36.12, 0.049013, , 
36.15, 0.049057, , 
36.18, 0.049124, , 
36.21, 0.049257, , 
36.24, 0.049457, , 
36.27, 0.049520, , 
36.30, 0.049565, , 
36.33, 0.049755, , 
36.36, 0.049914, , 
36.39, 0.050053, , 
36.42, 0.050155, , 
36.45, 0.050332, , 
36.48, 0.050497, , 
36.51, 0.050637, , 
36.54, 0.050773, , 
36.57, 0.050925, , 
36.60, 0.051100, , 
36.63, 0.051255, , 
36.66, 0.051439, , 
36.69, 0.051725, , 
36.72, 0.051950, , 
36.75, 0.052124, , 
36.78, 0.052334, , 
36.81, 0.052591, , 
36.84, 0.052848, , 
36.87, 0.053013, , 
36.90, 0.053244, , 
36.93, 0.053545, , 
36.96, 0.053748, , 
36.99, 0.054101, , 
37.02, 0.054380, , 
37.05, 0.054614, , 
37.08, 0.054884, , 
37.11, 0.055103, , 
37.14, 0.055344, , 
37.17, 0.055544, , 
37.20, 0.055759, , 
37.23, 0.056010, , 
37.26, 0.056251, , 
37.29, 0.056495, , 
37.32, 0.056705, , 
37.35, 0.056901, , 
37.38, 0.057161, , 
37.41, 0.057441, , 
37.44, 0.057612, , 
37.47, 0.057812, , 
37.50, 0.058046, , 
37.53, 0.058294, , 
37.56, 0.058459, , 
37.59, 0.058592, , 
37.62, 0.058814, , 
37.65, 0.058979, , 
37.68, 0.059163, , 
37.71, 0.059401, , 
37.74, 0.059550, , 
37.78, 0.059753, , 
37.80, 0.059867, , 
37.83, 0.059921, , 
37.86, 0.060124, , 
37.89, 0.060295, , 
37.92, 0.060406, , 
37.95, 0.060508, , 
37.98, 0.060613, , 
38.01, 0.060676, , 
38.04, 0.060758, , 
38.07, 0.060898, , 
38.10, 0.061006, , 
38.13, 0.061041, , 
38.16, 0.061019, , 
38.19, 0.061038, , 
38.22, 0.061091, , 
38.25, 0.061091, , 
38.28, 0.060996, , 
38.31, 0.060844, , 
38.34, 0.060755, , 
38.37, 0.060692, , 
38.39, 0.060625, 12, 0.586
38.40, 0.060584, , 
38.43, 0.060536, , 
38.46, 0.060473, , 
38.49, 0.060349, , 
38.52, 0.060187, , 
38.55, 0.060042, , 
38.58, 0.059883, , 
38.61, 0.059715, , 
38.64, 0.059553, , 
38.68, 0.059385, , 
38.70, 0.059271, , 
38.74, 0.059122, , 
38.76, 0.058954, , 
38.79, 0.058766, , 
38.82, 0.058582, , 
38.85, 0.058326, , 
38.88, 0.058126, , 
38.91, 0.057926, , 
38.94, 0.057710, , 
38.97, 0.057422, , 
39.00, 0.057127, , 
39.03, 0.056930, , 
39.06, 0.056695, , 
39.09, 0.056489, , 
39.12, 0.056210, , 
39.15, 0.056042, , 
39.18, 0.055886, , 
39.21, 0.055594, , 
39.24, 0.055376, , 
39.27, 0.055160, , 
39.30, 0.054919, , 
39.33, 0.054659, , 
39.36, 0.054434, , 
39.39, 0.054265, , 
39.42, 0.054047, , 
39.45, 0.053755, , 
39.48, 0.053561, , 
39.51, 0.053323, , 
39.54, 0.053108, , 
39.57, 0.052924, , 
39.60, 0.052629, , 
39.63, 0.052432, , 
39.66, 0.052305, , 
39.69, 0.052067, , 
39.72, 0.051909, , 
39.75, 0.051722, , 
39.78, 0.051544, , 
39.81, 0.051309, , 
39.84, 0.051097, , 
39.87, 0.050922, , 
39.90, 0.050722, , 
39.93, 0.050535, , 
39.97, 0.050393, , 
39.99, 0.050282, , 
40.02, 0.050104, , 
40.05, 0.049869, , 
40.08, 0.049669, , 
40.11, 0.049504, , 
40.14, 0.049346, , 
40.17, 0.049175, , 
40.20, 0.049000, , 
40.23, 0.048854, , 
40.26, 0.048740, , 
40.29, 0.048619, , 
40.32, 0.048515, , 
40.35, 0.048397, , 
40.38, 0.048290, , 
40.41, 0.048210, , 
40.44, 0.048118, , 
40.47, 0.047956, , 
40.50, 0.047804, , 
40.53, 0.047712, , 
40.56, 0.047620, , 
40.59, 0.047471, , 
40.62, 0.047347, , 
40.65, 0.047243, , 
40.68, 0.047183, , 
40.71, 0.047075, , 
40.74, 0.046913, , 
40.77, 0.046780, , 
40.80, 0.046777, , 
40.83, 0.046726, , 
40.86, 0.046558, , 
40.89, 0.046377, , 
40.92, 0.046298, , 
40.95, 0.046234, , 
40.98, 0.046174, , 
41.01, 0.046142, , 
41.04, 0.046145, , 
41.07, 0.046110, , 
41.10, 0.045990, , 
41.13, 0.045863, , 
41.16, 0.045765, , 
41.19, 0.045644, , 
41.22, 0.045558, , 
41.25, 0.045581, , 
41.28, 0.045622, , 
41.31, 0.045562, , 
41.34, 0.045543, , 
41.37, 0.045463, , 
41.40, 0.045314, , 
41.43, 0.045222, , 
41.46, 0.045156, , 
41.49, 0.045137, , 
41.52, 0.045108, , 
41.55, 0.045064, , 
41.58, 0.045057, , 
41.59, 0.045070, 13, 0.586
41.61, 0.045102, , 
41.64, 0.045067, , 
41.67, 0.044918, , 
41.70, 0.044807, , 
41.73, 0.044718, , 
41.76, 0.044664, , 
41.79, 0.044607, , 
41.82, 0.044575, , 
41.85, 0.044604, , 
41.88, 0.044610, , 
41.91, 0.044547, , 
41.94, 0.044550, , 
41.97, 0.044613, , 
42.00, 0.044588, , 
42.03, 0.044582, , 
42.06, 0.044582, , 
42.09, 0.044553, , 
42.12, 0.044559, , 
42.15, 0.044566, , 
42.18, 0.044591, , 
42.21, 0.044575, , 
42.24, 0.044550, , 
42.27, 0.044553, , 
42.30, 0.044601, , 
42.33, 0.044642, , 
42.36, 0.044566, , 
42.39, 0.044553, , 
42.42, 0.044575, , 
42.45, 0.044632, , 
42.48, 0.044594, , 
42.51, 0.044591, , 
42.54, 0.044626, , 
42.57, 0.044613, , 
42.60, 0.044578, , 
42.63, 0.044585, , 
42.66, 0.044610, , 
42.69, 0.044639, , 
42.72, 0.044566, , 
42.75, 0.044572, , 
42.78, 0.044629, , 
42.81, 0.044648, , 
42.84, 0.044620, , 
42.87, 0.044642, , 
42.90, 0.044648, , 
42.93, 0.044639, , 
42.96, 0.044683, , 
42.99, 0.044800, , 
43.02, 0.044918, , 
43.05, 0.044997, , 
43.08, 0.045080, , 
43.11, 0.045140, , 
43.14, 0.045152, , 
43.17, 0.045162, , 
43.20, 0.045279, , 
43.23, 0.045428, , 
43.26, 0.045530, , 
43.29, 0.045593, , 
43.32, 0.045606, , 
43.35, 0.045720, , 
43.38, 0.045860, , 
43.41, 0.045974, , 
43.44, 0.046025, , 
43.47, 0.046139, , 
43.50, 0.046298, , 
43.53, 0.046409, , 
43.56, 0.046561, , 
43.60, 0.046757, , 
43.62, 0.046922, , 
43.65, 0.047033, , 
43.68, 0.047167, , 
43.71, 0.047411, , 
43.74, 0.047512, , 
43.77, 0.047674, , 
43.80, 0.047811, , 
43.83, 0.047991, , 
43.86, 0.048245, , 
43.89, 0.048439, , 
43.92, 0.048683, , 
43.95, 0.048921, , 
43.98, 0.049149, , 
44.01, 0.049378, , 
44.04, 0.049581, , 
44.07, 0.049844, , 
44.10, 0.050072, , 
44.13, 0.050224, , 
44.16, 0.050450, , 
44.19, 0.050786, , 
44.22, 0.051081, , 
44.25, 0.051354, , 
44.28, 0.051607, , 
44.31, 0.051994, , 
44.34, 0.052239, , 
44.37, 0.052565, , 
44.40, 0.052882, , 
44.43, 0.053130, , 
44.46, 0.053409, , 
44.49, 0.053679, , 
44.52, 0.054145, , 
44.55, 0.054497, , 
44.58, 0.054763, , 
44.61, 0.055093, , 
44.64, 0.055395, , 
44.67, 0.055861, , 
44.70, 0.056204, , 
44.73, 0.056565, , 
44.76, 0.056965, , 
44.79, 0.057263, 14, 0.585
44.79, 0.057320, , 
44.83, 0.057717, , 
44.85, 0.057967, , 
44.88, 0.058284, , 
44.91, 0.058674, , 
44.94, 0.058963, , 
44.97, 0.059293, , 
45.00, 0.059531, , 
45.03, 0.059842, , 
45.06, 0.060003, , 
45.09, 0.060295, , 
45.12, 0.060651, , 
45.15, 0.060917, , 
45.18, 0.061041, , 
45.21, 0.061206, , 
45.24, 0.061472, , 
45.27, 0.061653, , 
45.30, 0.061818, , 
45.33, 0.061954, , 
45.36, 0.062091, , 
45.39, 0.062179, , 
45.42, 0.062354, , 
45.45, 0.062525, , 
45.48, 0.062582, , 
45.51, 0.062608, , 
45.54, 0.062617, , 
45.57, 0.062636, , 
45.60, 0.062652, , 
45.63, 0.062624, , 
45.66, 0.062627, , 
45.69, 0.062658, , 
45.72, 0.062655, , 
45.75, 0.062677, , 
45.78, 0.062608, , 
45.81, 0.062462, , 
45.84, 0.062382, , 
45.87, 0.062275, , 
45.90, 0.062106, , 
45.93, 0.061986, , 
45.96, 0.061862, , 
45.99, 0.061659, , 
46.02, 0.061444, , 
46.05, 0.061202, , 
46.08, 0.061025, , 
46.11, 0.060784, , 
46.14, 0.060546, , 
46.17, 0.060340, , 
46.20, 0.060143, , 
46.23, 0.059858, , 
46.26, 0.059604, , 
46.29, 0.059417, , 
46.32, 0.059166, , 
46.35, 0.058855, , 
46.38, 0.058551, , 
46.41, 0.058341, , 
46.44, 0.058053, , 
46.47, 0.057780, , 
46.50, 0.057574, , 
46.53, 0.057301, , 
46.56, 0.057038, , 
46.60, 0.056711, , 
46.62, 0.056479, , 
46.65, 0.056226, , 
46.68, 0.055966, , 
46.71, 0.055702, , 
46.74, 0.055471, , 
46.77, 0.055284, , 
46.80, 0.055131, , 
46.83, 0.054792, , 
46.86, 0.054573, , 
46.89, 0.054402, , 
46.92, 0.054094, , 
46.95, 0.053894, , 
46.98, 0.053641, , 
47.01, 0.053434, , 
47.04, 0.053187, , 
47.07, 0.052955, , 
47.10, 0.052794, , 
47.13, 0.052603, , 
47.16, 0.052407, , 
47.19, 0.052204, , 
47.22, 0.052013, , 
47.25, 0.051852, , 
47.28, 0.051576, , 
47.31, 0.051436, , 
47.34, 0.051341, , 
47.37, 0.051122, , 
47.40, 0.050932, , 
47.43, 0.050808, , 
47.46, 0.050630, , 
47.50, 0.050491, , 
47.52, 0.050354, , 
47.55, 0.050177, , 
47.58, 0.050040, , 
47.61, 0.049920, , 
47.64, 0.049825, , 
47.67, 0.049669, , 
47.71, 0.049539, , 
47.73, 0.049419, , 
47.76, 0.049349, , 
47.79, 0.049289, , 
47.82, 0.049111, , 
47.85, 0.048975, , 
47.88, 0.048829, , 
47.91, 0.048762, , 
47.94, 0.048721, , 
47.97, 0.048626, , 
47.98, 0.048588, 15, 0.585
48.00, 0.048521, , 
48.03, 0.048420, , 
48.06, 0.048353, , 
48.09, 0.048277, , 
48.12, 0.048242, , 
48.15, 0.048264, , 
48.18, 0.048258, , 
48.21, 0.048144, , 
48.24, 0.047972, , 
48.27, 0.047915, , 
48.30, 0.047788, , 
48.33, 0.047715, , 
48.36, 0.047687, , 
48.39, 0.047715, , 
48.42, 0.047684, , 
48.45, 0.047639, , 
48.48, 0.047671, , 
48.51, 0.047684, , 
48.54, 0.047684, , 
48.57, 0.047665, , 
48.60, 0.047681, , 
48.63, 0.047731, , 
48.67, 0.047731, , 
48.69, 0.047687, , 
48.72, 0.047687, , 
48.75, 0.047681, , 
48.78, 0.047658, , 
48.81, 0.047633, , 
48.84, 0.047671, , 
48.87, 0.047709, , 
48.90, 0.047703, , 
48.93, 0.047620, , 
48.96, 0.047655, , 
48.99, 0.047766, , 
49.02, 0.047903, , 
49.05, 0.047972, , 
49.08, 0.048067, , 
49.11, 0.048121, , 
49.14, 0.048153, , 
49.17, 0.048188, , 
49.20, 0.048302, , 
49.23, 0.048432, , 
49.26, 0.048527, , 
49.29, 0.048623, , 
49.32, 0.048734, , 
49.35, 0.048899, , 
49.38, 0.049013, , 
49.41, 0.049127, , 
49.44, 0.049333, , 
49.47, 0.049406, , 
49.50, 0.049561, , 
49.53, 0.049739, , 
49.56, 0.049980, , 
49.59, 0.050196, , 
49.62, 0.050348, , 
49.65, 0.050494, , 
49.68, 0.050627, , 
49.71, 0.050811, , 
49.74, 0.051033, , 
49.77, 0.051284, , 
49.80, 0.051592, , 
49.83, 0.051861, , 
49.87, 0.052153, , 
49.89, 0.052476, , 
49.92, 0.052825, , 
49.95, 0.053070, , 
49.98, 0.053393, , 
50.01, 0.053707, , 
50.04, 0.054059, , 
50.07, 0.054275, , 
50.10, 0.054589, , 
50.13, 0.055046, , 
50.16, 0.055347, , 
50.19, 0.055683, , 
50.22, 0.056026, , 
50.25, 0.056429, , 
50.28, 0.056857, , 
50.31, 0.057276, , 
50.34, 0.057710, , 
50.37, 0.058075, , 
50.40, 0.058456, , 
50.43, 0.058779, , 
50.46, 0.059144, , 
50.49, 0.059582, , 
50.52, 0.059984, , 
50.55, 0.060289, , 
50.58, 0.060600, , 
50.61, 0.060939, , 
50.64, 0.061250, , 
50.67, 0.061520, , 
50.70, 0.061758, , 
50.73, 0.062126, , 
50.76, 0.062433, , 
50.79, 0.062690, , 
50.82, 0.062842, , 
50.85, 0.063001, , 
50.88, 0.063207, , 
50.91, 0.063337, , 
50.94, 0.063597, , 
50.97, 0.063788, , 
51.00, 0.063899, , 
51.03, 0.064000, , 
51.06, 0.064060, , 
51.09, 0.064111, , 
51.12, 0.064108, , 
51.15, 0.064051, , 
51.18, 0.064092, , 
51.19, 0.064111, 16, 0.587
51.21, 0.064108, , 
51.24, 0.064117, , 
51.27, 0.064102, , 
51.30, 0.064140, , 
51.33, 0.064117, , 
51.36, 0.064029, , 
51.39, 0.063810, , 
51.42, 0.063715, , 
51.45, 0.063610, , 
51.48, 0.063416, , 
51.51, 0.063261, , 
51.54, 0.063052, , 
51.57, 0.062773, , 
51.60, 0.062560, , 
51.63, 0.062284, , 
51.66, 0.062084, , 
51.69, 0.061834, , 
51.72, 0.061637, , 
51.75, 0.061409, , 
51.78, 0.061164, , 
51.81, 0.060879, , 
51.84, 0.060517, , 
51.87, 0.060260, , 
51.90, 0.060054, , 
51.93, 0.059823, , 
51.96, 0.059556, , 
51.99, 0.059217, , 
52.02, 0.058995, , 
52.05, 0.058722, , 
52.08, 0.058389, , 
52.12, 0.058161, , 
52.14, 0.057894, , 
52.17, 0.057552, , 
52.20, 0.057298, , 
52.23, 0.057050, , 
52.26, 0.056816, , 
52.29, 0.056489, , 
52.32, 0.056178, , 
52.35, 0.055991, , 
52.38, 0.055702, , 
52.41, 0.055449, , 
52.44, 0.055150, , 
52.47, 0.054976, , 
52.50, 0.054763, , 
52.53, 0.054481, , 
52.56, 0.054323, , 
52.59, 0.054193, , 
52.62, 0.054069, , 
52.65, 0.053840, , 
52.68, 0.053628, , 
52.71, 0.053434, , 
52.74, 0.053260, , 
52.77, 0.053057, , 
52.80, 0.052892, , 
52.83, 0.052670, , 
52.86, 0.052483, , 
52.89, 0.052286, , 
52.92, 0.052229, , 
52.95, 0.052156, , 
52.98, 0.052045, , 
53.01, 0.051864, , 
53.04, 0.051756, , 
53.07, 0.051690, , 
53.10, 0.051655, , 
53.13, 0.051493, , 
53.16, 0.051382, , 
53.19, 0.051277, , 
53.22, 0.051214, , 
53.25, 0.051157, , 
53.28, 0.051176, , 
53.31, 0.051195, , 
53.34, 0.051182, , 
53.37, 0.051147, , 
53.40, 0.051141, , 
53.43, 0.051186, , 
53.46, 0.051157, , 
53.49, 0.051081, , 
53.52, 0.051157, , 
53.55, 0.051170, , 
53.58, 0.051116, , 
53.61, 0.051166, , 
53.64, 0.051350, , 
53.67, 0.051442, , 
53.70, 0.051512, , 
53.73, 0.051607, , 
53.76, 0.051614, , 
53.79, 0.051664, , 
53.82, 0.051728, , 
53.85, 0.051826, , 
53.88, 0.051998, , 
53.91, 0.052147, , 
53.94, 0.052315, , 
53.97, 0.052429, , 
54.00, 0.052559, , 
54.03, 0.052756, , 
54.06, 0.052841, , 
54.09, 0.052997, , 
54.12, 0.053238, , 
54.15, 0.053409, , 
54.18, 0.053634, , 
54.21, 0.053799, , 
54.24, 0.054031, , 
54.27, 0.054278, , 
54.30, 0.054440, , 
54.33, 0.054710, , 
54.36, 0.054982, , 
54.39, 0.055112, 17, 0.584
54.39, 0.055147, , 
54.42, 0.055363, , 
54.45, 0.055617, , 
54.48, 0.055985, , 
54.51, 0.056248, , 
54.54, 0.056473, , 
54.57, 0.056790, , 
54.60, 0.057054, , 
54.63, 0.057323, , 
54.66, 0.057596, , 
54.69, 0.057831, , 
54.72, 0.058183, , 
54.75, 0.058376, , 
54.78, 0.058713, , 
54.81, 0.059014, , 
54.84, 0.059245, , 
54.87, 0.059537, , 
54.90, 0.059772, , 
54.93, 0.060064, , 
54.96, 0.060302, , 
54.99, 0.060495, , 
55.02, 0.060666, , 
55.05, 0.060917, , 
55.08, 0.061180, , 
55.11, 0.061307, , 
55.14, 0.061472, , 
55.17, 0.061697, , 
55.20, 0.061856, , 
55.23, 0.061919, , 
55.26, 0.061983, , 
55.29, 0.062103, , 
55.32, 0.062256, , 
55.35, 0.062370, , 
55.38, 0.062478, , 
55.41, 0.062516, , 
55.44, 0.062516, , 
55.47, 0.062563, , 
55.50, 0.062570, , 
55.53, 0.062604, , 
55.56, 0.062608, , 
55.59, 0.062582, , 
55.62, 0.062604, , 
55.65, 0.062598, , 
55.68, 0.062541, , 
55.71, 0.062544, , 
55.74, 0.062509, , 
55.77, 0.062395, , 
55.80, 0.062233, , 
55.83, 0.062167, , 
55.86, 0.062119, , 
55.89, 0.061986, , 
55.92, 0.061799, , 
55.95, 0.061691, , 
55.98, 0.061567, , 
56.01, 0.061399, , 
56.04, 0.061234, , 
56.07, 0.061107, , 
56.10, 0.061003, , 
56.13, 0.060781, , 
56.16, 0.060514, , 
56.19, 0.060352, , 
56.22, 0.060257, , 
56.25, 0.060048, , 
56.28, 0.059848, , 
56.31, 0.059674, , 
56.34, 0.059448, , 
56.37, 0.059271, , 
56.40, 0.058998, , 
56.43, 0.058757, , 
56.46, 0.058541, , 
56.49, 0.058294, , 
56.52, 0.058065, , 
56.55, 0.057869, , 
56.58, 0.057770, , 
56.61, 0.057596, , 
56.64, 0.057339, , 
56.67, 0.057171, , 
56.70, 0.056984, , 
56.73, 0.056784, , 
56.76, 0.056616, , 
56.79, 0.056492, , 
56.82, 0.056359, , 
56.85, 0.056159, , 
56.88, 0.055969, , 
56.91, 0.055874, , 
56.94, 0.055731, , 
56.97, 0.055560, , 
57.00, 0.055391, , 
57.03, 0.055274, , 
57.06, 0.055227, , 
57.09, 0.055135, , 
57.12, 0.055046, , 
57.15, 0.054928, , 
57.18, 0.054779, , 
57.21, 0.054710, , 
57.24, 0.054624, , 
57.27, 0.054627, , 
57.30, 0.054649, , 
57.33, 0.054643, , 
57.36, 0.054599, , 
57.39, 0.054624, , 
57.42, 0.054608, , 
57.45, 0.054589, , 
57.48, 0.054637, , 
57.51, 0.054643, , 
57.54, 0.054589, , 
57.57, 0.054599, , 
57.59, 0.054605, 18, 0.586
57.60, 0.054668, , 
57.63, 0.054814, , 
57.66, 0.054919, , 
57.70, 0.055020, , 
57.72, 0.055084, , 
57.75, 0.055122, , 
57.78, 0.055119, , 
57.81, 0.055214, , 
57.84, 0.055360, , 
57.87, 0.055455, , 
57.90, 0.055553, , 
57.93, 0.055699, , 
57.96, 0.055896, , 
57.99, 0.056096, , 
58.02, 0.056184, , 
58.05, 0.056359, , 
58.08, 0.056619, , 
58.11, 0.056778, , 
58.14, 0.056876, , 
58.17, 0.057098, , 
58.20, 0.057285, , 
58.23, 0.057494, , 
58.26, 0.057688, , 
58.29, 0.057847, , 
58.32, 0.058018, , 
58.35, 0.058145, , 
58.38, 0.058376, , 
58.41, 0.058614, , 
58.44, 0.058833, , 
58.47, 0.059030, , 
58.50, 0.059245, , 
58.53, 0.059467, , 
58.56, 0.059683, , 
58.59, 0.059845, , 
58.62, 0.060023, , 
58.65, 0.060206, , 
58.68, 0.060384, , 
58.71, 0.060568, , 
58.74, 0.060720, , 
58.77, 0.060930, , 
58.80, 0.061149, , 
58.83, 0.061269, , 
58.86, 0.061402, , 
58.89, 0.061558, , 
58.92, 0.061792, , 
58.95, 0.061856, , 
58.98, 0.061903, , 
59.01, 0.062027, , 
59.04, 0.062116, , 
59.07, 0.062214, , 
59.10, 0.062313, , 
59.13, 0.062471, , 
59.16, 0.062538, , 
59.19, 0.062519, , 
59.22, 0.062522, , 
59.25, 0.062557, , 
59.28, 0.062595, , 
59.31, 0.062557, , 
59.34, 0.062573, , 
59.38, 0.062601, , 
59.40, 0.062585, , 
59.43, 0.062471, , 
59.46, 0.062281, , 
59.49, 0.062211, , 
59.52, 0.062141, , 
59.55, 0.062097, , 
59.58, 0.062075, , 
59.61, 0.062094, , 
59.64, 0.062072, , 
59.67, 0.062062, , 
59.70, 0.062072, , 
59.73, 0.062078, , 
59.76, 0.061999, , 
59.80, 0.061891, , 
59.82, 0.061770, , 
59.85, 0.061720, , 
59.88, 0.061624, , 
59.91, 0.061456, , 
59.94, 0.061339, , 
59.97, 0.061241, , 
60.00, 0.061114, , 
60.03, 0.060923, , 
60.06, 0.060758, , 
60.09, 0.060651, , 
60.12, 0.060470, , 
60.15, 0.060292, , 
60.18, 0.060175, , 
60.21, 0.060010, , 
60.24, 0.059864, , 
60.27, 0.059693, , 
60.30, 0.059582, , 
60.33, 0.059436, , 
60.36, 0.059280, , 
60.39, 0.059153, , 
60.42, 0.059160, , 
60.45, 0.059103, , 
60.48, 0.058931, , 
60.52, 0.058801, , 
60.54, 0.058735, , 
60.57, 0.058659, , 
60.60, 0.058627, , 
60.63, 0.058633, , 
60.66, 0.058643, , 
60.69, 0.058586, , 
60.72, 0.058570, , 
60.75, 0.058567, , 
60.78, 0.058611, 19, 0.585
60.79, 0.058614, , 
60.81, 0.058601, , 
60.84, 0.058582, , 
60.87, 0.058655, , 
60.90, 0.058662, , 
60.93, 0.058649, , 
60.96, 0.058601, , 
60.99, 0.058614, , 
61.02, 0.058624, , 
61.05, 0.058573, , 
61.08, 0.058541, , 
61.11, 0.058608, , 
61.14, 0.058754, , 
61.17, 0.058849, , 
61.20, 0.058966, , 
61.23, 0.059080, , 
61.26, 0.059204, , 
61.29, 0.059328, , 
61.32, 0.059452, , 
61.36, 0.059547, , 
61.38, 0.059629, , 
61.41, 0.059766, , 
61.44, 0.059912, , 
61.47, 0.060023, , 
61.50, 0.060165, , 
61.53, 0.060327, , 
61.56, 0.060495, , 
61.59, 0.060689, , 
61.62, 0.060822, , 
61.65, 0.060939, , 
61.68, 0.061053, , 
61.71, 0.061244, , 
61.74, 0.061374, , 
61.77, 0.061548, , 
61.80, 0.061739, , 
61.83, 0.061869, , 
61.86, 0.061961, , 
61.89, 0.062018, , 
61.92, 0.062224, , 
61.95, 0.062341, , 
61.98, 0.062417, , 
62.01, 0.062500, , 
62.04, 0.062522, , 
62.07, 0.062608, , 
62.10, 0.062608, , 
62.13, 0.062735, , 
62.16, 0.062915, , 
62.19, 0.062976, , 
62.22, 0.062976, , 
62.25, 0.063004, , 
62.28, 0.063052, , 
62.31, 0.063030, , 
62.34, 0.062988, , 
62.37, 0.062995, , 
62.40, 0.063064, , 
62.43, 0.063049, , 
62.46, 0.062995, , 
62.49, 0.063014, , 
62.52, 0.063080, , 
62.55, 0.063017, , 
62.58, 0.062804, , 
62.61, 0.062703, , 
62.64, 0.062620, , 
62.67, 0.062566, , 
62.70, 0.062538, , 
62.73, 0.062560, , 
62.76, 0.062566, , 
62.79, 0.062493, , 
62.82, 0.062306, , 
62.85, 0.062230, , 
62.88, 0.062176, , 
62.91, 0.062106, , 
62.94, 0.062065, , 
62.97, 0.062110, , 
63.00, 0.062091, , 
63.03, 0.061954, , 
63.06, 0.061815, , 
63.09, 0.061716, , 
63.12, 0.061647, , 
63.15, 0.061586, , 
63.18, 0.061567, , 
63.21, 0.061567, , 
63.24, 0.061523, , 
63.27, 0.061317, , 
63.30, 0.061168, , 
63.33, 0.061139, , 
63.36, 0.061110, , 
63.39, 0.061072, , 
63.42, 0.061085, , 
63.45, 0.061117, , 
63.48, 0.061117, , 
63.51, 0.061053, , 
63.54, 0.061076, , 
63.57, 0.061098, , 
63.60, 0.061107, , 
63.64, 0.061072, , 
63.66, 0.061047, , 
63.69, 0.061072, , 
63.72, 0.061050, , 
63.75, 0.061019, , 
63.78, 0.061057, , 
63.81, 0.061063, , 
63.84, 0.061060, , 
63.87, 0.061069, , 
63.90, 0.061120, , 
63.93, 0.061247, , 
63.96, 0.061367, , 
63.98, 0.061469, 20, 0.585
63.99, 0.061478, , 
64.02, 0.061551, , 
64.05, 0.061583, , 
64.08, 0.061593, , 
64.11, 0.061583, , 
64.14, 0.061666, , 
64.17, 0.061834, , 
64.20, 0.061910, , 
64.23, 0.061970, , 
64.26, 0.062043, , 
64.29, 0.062030, , 
64.32, 0.062087, , 
64.35, 0.062211, , 
64.38, 0.062363, , 
64.41, 0.062440, , 
64.44, 0.062465, , 
64.47, 0.062566, , 
64.50, 0.062636, , 
64.53, 0.062788, , 
64.56, 0.062912, , 
64.59, 0.062972, , 
64.62, 0.063033, , 
64.65, 0.063087, , 
64.68, 0.063061, , 
64.71, 0.063115, , 
64.74, 0.063179, , 
64.77, 0.063356, , 
64.80, 0.063432, , 
64.83, 0.063512, , 
64.87, 0.063528, , 
64.89, 0.063493, , 
64.92, 0.063515, , 
64.95, 0.063537, , 
64.98, 0.063524, , 
65.01, 0.063378, , 
65.04, 0.063217, , 
65.07, 0.063137, , 
65.10, 0.063118, , 
65.13, 0.063102, , 
65.16, 0.063049, , 
65.19, 0.063077, , 
65.22, 0.063074, , 
65.25, 0.062934, , 
65.28, 0.062811, , 
65.31, 0.062747, , 
65.34, 0.062665, , 
65.37, 0.062592, , 
65.40, 0.062547, , 
65.43, 0.062592, , 
65.46, 0.062614, , 
65.49, 0.062551, , 
65.52, 0.062579, , 
65.55, 0.062566, , 
65.58, 0.062604, , 
65.61, 0.062541, , 
65.64, 0.062462, , 
65.67, 0.062370, , 
65.70, 0.062252, , 
65.73, 0.062119, , 
65.76, 0.062094, , 
65.79, 0.062084, , 
65.82, 0.062037, , 
65.85, 0.062037, , 
65.88, 0.062087, , 
65.91, 0.062072, , 
65.94, 0.062034, , 
65.98, 0.062059, , 
66.00, 0.062119, , 
66.03, 0.062129, , 
66.06, 0.062081, , 
66.10, 0.062030, , 
66.12, 0.062034, , 
66.15, 0.062078, , 
66.18, 0.062081, , 
66.21, 0.062084, , 
66.24, 0.062097, , 
66.27, 0.062129, , 
66.30, 0.062110, , 
66.33, 0.062141, , 
66.36, 0.062322, , 
66.39, 0.062468, , 
66.42, 0.062490, , 
66.45, 0.062528, , 
66.48, 0.062585, , 
66.51, 0.062576, , 
66.54, 0.062557, , 
66.57, 0.062585, , 
66.60, 0.062598, , 
66.63, 0.062614, , 
66.66, 0.062598, , 
66.69, 0.062627, , 
66.72, 0.062620, , 
66.75, 0.062601, , 
66.78, 0.062547, , 
66.81, 0.062563, , 
66.84, 0.062589, , 
66.87, 0.062566, , 
66.90, 0.062566, , 
66.93, 0.062544, , 
66.96, 0.062538, , 
66.99, 0.062547, , 
67.02, 0.062573, , 
67.05, 0.062611, , 
67.08, 0.062551, , 
67.11, 0.062547, , 
67.14, 0.062589, , 
67.17, 0.062595, , 
67.19, 0.062589, 21, 0.588
67.20, 0.062592, , 
67.23, 0.062487, , 
67.26, 0.062398, , 
67.29, 0.062354, , 
67.32, 0.062290, , 
67.35, 0.062138, , 
67.38, 0.062113, , 
67.41, 0.062167, , 
67.44, 0.062132, , 
67.47, 0.062116, , 
67.50, 0.062072, , 
67.53, 0.062053, , 
67.56, 0.061900, , 
67.59, 0.061767, , 
67.62, 0.061688, , 
67.65, 0.061675, , 
67.68, 0.061647, , 
67.71, 0.061605, , 
67.74, 0.061615, , 
67.77, 0.061624, , 
67.81, 0.061548, , 
67.83, 0.061374, , 
67.86, 0.061298, , 
67.89, 0.061244, , 
67.92, 0.061171, , 
67.95, 0.061104, , 
67.98, 0.061133, , 
68.01, 0.061155, , 
68.05, 0.061136, , 
68.07, 0.061117, , 
68.10, 0.061133, , 
68.13, 0.061149, , 
68.16, 0.061155, , 
68.19, 0.061095, , 
68.22, 0.061114, , 
68.25, 0.061130, , 
68.28, 0.061098, , 
68.31, 0.061091, , 
68.34, 0.061130, , 
68.37, 0.061130, , 
68.40, 0.061098, , 
68.43, 0.061117, , 
68.46, 0.061107, , 
68.49, 0.061079, , 
68.52, 0.061098, , 
68.55, 0.061101, , 
68.58, 0.061145, , 
68.61, 0.061123, , 
68.64, 0.061066, , 
68.67, 0.061076, , 
68.70, 0.061101, , 
68.73, 0.061104, , 
68.76, 0.061060, , 
68.79, 0.061050, , 
68.82, 0.060984, , 
68.85, 0.060863, , 
68.88, 0.060733, , 
68.91, 0.060657, , 
68.94, 0.060673, , 
68.98, 0.060619, , 
69.00, 0.060616, , 
69.03, 0.060597, , 
69.06, 0.060600, , 
69.09, 0.060590, , 
69.12, 0.060568, , 
69.15, 0.060632, , 
69.18, 0.060632, , 
69.21, 0.060593, , 
69.24, 0.060565, , 
69.27, 0.060546, , 
69.30, 0.060448, , 
69.33, 0.060245, , 
69.36, 0.060137, , 
69.39, 0.060162, , 
69.42, 0.060134, , 
69.45, 0.060111, , 
69.48, 0.060029, , 
69.51, 0.059905, , 
69.54, 0.059743, , 
69.57, 0.059661, , 
69.60, 0.059636, , 
69.63, 0.059632, , 
69.66, 0.059578, , 
69.69, 0.059436, , 
69.72, 0.059271, , 
69.75, 0.059198, , 
69.78, 0.059160, , 
69.81, 0.059144, , 
69.84, 0.059128, , 
69.87, 0.059134, , 
69.90, 0.059125, , 
69.93, 0.059077, , 
69.96, 0.059093, , 
69.99, 0.059112, , 
70.02, 0.059128, , 
70.05, 0.059077, , 
70.08, 0.058979, , 
70.11, 0.058833, , 
70.14, 0.058703, , 
70.17, 0.058608, , 
70.20, 0.058589, , 
70.23, 0.058617, , 
70.26, 0.058611, , 
70.29, 0.058598, , 
70.32, 0.058614, , 
70.35, 0.058617, , 
70.38, 0.058567, , 
70.39, 0.058560, 22, 0.585
70.41, 0.058563, , 
70.44, 0.058624, , 
70.47, 0.058640, , 
70.50, 0.058605, , 
70.53, 0.058630, , 
70.56, 0.058592, , 
70.59, 0.058601, , 
70.62, 0.058601, , 
70.65, 0.058525, , 
70.68, 0.058370, , 
70.71, 0.058297, , 
70.74, 0.058189, , 
70.77, 0.058132, , 
70.80, 0.058161, , 
70.83, 0.058135, , 
70.86, 0.058116, , 
70.89, 0.058078, , 
70.92, 0.058116, , 
70.95, 0.058012, , 
70.98, 0.057888, , 
71.01, 0.057764, , 
71.04, 0.057688, , 
71.07, 0.057659, , 
71.10, 0.057609, , 
71.13, 0.057606, , 
71.16, 0.057625, , 
71.19, 0.057621, , 
71.22, 0.057583, , 
71.25, 0.057520, , 
71.28, 0.057409, , 
71.31, 0.057266, , 
71.34, 0.057146, , 
71.37, 0.057101, , 
71.40, 0.057180, , 
71.43, 0.057146, , 
71.46, 0.057082, , 
71.49, 0.056996, , 
71.52, 0.056828, , 
71.55, 0.056727, , 
71.58, 0.056635, , 
71.61, 0.056635, , 
71.64, 0.056613, , 
71.67, 0.056562, , 
71.70, 0.056511, , 
71.73, 0.056387, , 
71.76, 0.056292, , 
71.79, 0.056242, , 
71.82, 0.056197, , 
71.85, 0.056127, , 
71.88, 0.056121, , 
71.91, 0.056108, , 
71.94, 0.056086, , 
71.97, 0.056137, , 
72.00, 0.056143, , 
72.03, 0.056089, , 
72.06, 0.056115, , 
72.09, 0.056143, , 
72.12, 0.056140, , 
72.15, 0.056089, , 
72.18, 0.056073, , 
72.21, 0.056137, , 
72.24, 0.056131, , 
72.27, 0.055966, , 
72.30, 0.055829, , 
72.33, 0.055763, , 
72.36, 0.055667, , 
72.39, 0.055614, , 
72.42, 0.055617, , 
72.45, 0.055629, , 
72.48, 0.055626, , 
72.52, 0.055515, , 
72.54, 0.055464, , 
72.57, 0.055376, , 
72.60, 0.055236, , 
72.63, 0.055122, , 
72.66, 0.055109, , 
72.69, 0.055125, , 
72.72, 0.055122, , 
72.75, 0.055065, , 
72.78, 0.055027, , 
72.81, 0.054938, , 
72.84, 0.054817, , 
72.87, 0.054665, , 
72.90, 0.054649, , 
72.93, 0.054595, , 
72.96, 0.054595, , 
72.99, 0.054579, , 
73.02, 0.054602, , 
73.05, 0.054627, , 
73.08, 0.054538, , 
73.11, 0.054522, , 
73.14, 0.054564, , 
73.17, 0.054611, , 
73.20, 0.054570, , 
73.23, 0.054586, , 
73.26, 0.054573, , 
73.29, 0.054567, , 
73.32, 0.054487, , 
73.35, 0.054338, , 
73.38, 0.054246, , 
73.41, 0.054161, , 
73.44, 0.054072, , 
73.47, 0.054116, , 
73.50, 0.054135, , 
73.53, 0.054129, , 
73.56, 0.054066, , 
73.59, 0.053967, 23, 0.585
73.59, 0.053939, , 
73.62, 0.053853, , 
73.65, 0.053723, , 
73.68, 0.053663, , 
73.71, 0.053672, , 
73.74, 0.053653, , 
73.77, 0.053618, , 
73.80, 0.053571, , 
73.83, 0.053596, , 
73.86, 0.053625, , 
73.89, 0.053606, , 
73.92, 0.053609, , 
73.95, 0.053612, , 
73.98, 0.053631, , 
74.01, 0.053615, , 
74.04, 0.053603, , 
74.07, 0.053603, , 
74.10, 0.053603, , 
74.13, 0.053590, , 
74.16, 0.053571, , 
74.19, 0.053606, , 
74.22, 0.053599, , 
74.25, 0.053453, , 
74.28, 0.053298, , 
74.31, 0.053216, , 
74.34, 0.053143, , 
74.37, 0.053111, , 
74.40, 0.053092, , 
74.43, 0.053124, , 
74.46, 0.053124, , 
74.49, 0.053013, , 
74.52, 0.052863, , 
74.55, 0.052762, , 
74.58, 0.052667, , 
74.61, 0.052619, , 
74.64, 0.052594, , 
74.67, 0.052607, , 
74.70, 0.052660, , 
74.73, 0.052626, , 
74.76, 0.052657, , 
74.79, 0.052641, , 
74.82, 0.052641, , 
74.85, 0.052588, , 
74.88, 0.052549, , 
74.91, 0.052413, , 
74.94, 0.052280, , 
74.97, 0.052213, , 
75.00, 0.052153, , 
75.03, 0.052181, , 
75.06, 0.052172, , 
75.09, 0.052090, , 
75.12, 0.052067, , 
75.15, 0.052001, , 
75.18, 0.051902, , 
75.21, 0.051728, , 
75.24, 0.051677, , 
75.27, 0.051674, , 
75.30, 0.051639, , 
75.33, 0.051601, , 
75.36, 0.051595, , 
75.39, 0.051626, , 
75.42, 0.051484, , 
75.45, 0.051347, , 
75.48, 0.051271, , 
75.51, 0.051182, , 
75.54, 0.051106, , 
75.57, 0.051071, , 
75.60, 0.051106, , 
75.63, 0.051128, , 
75.66, 0.051094, , 
75.69, 0.051106, , 
75.72, 0.051103, , 
75.75, 0.051046, , 
75.78, 0.050951, , 
75.81, 0.050818, , 
75.84, 0.050760, , 
75.87, 0.050707, , 
75.90, 0.050643, , 
75.93, 0.050627, , 
75.96, 0.050630, , 
75.99, 0.050637, , 
76.02, 0.050627, , 
76.05, 0.050656, , 
76.08, 0.050640, , 
76.11, 0.050643, , 
76.14, 0.050605, , 
76.17, 0.050516, , 
76.20, 0.050415, , 
76.23, 0.050247, , 
76.26, 0.050190, , 
76.29, 0.050161, , 
76.32, 0.050145, , 
76.35, 0.050161, , 
76.38, 0.050145, , 
76.41, 0.050155, , 
76.44, 0.050209, , 
76.47, 0.050215, , 
76.50, 0.050174, , 
76.53, 0.050180, , 
76.56, 0.050164, , 
76.59, 0.050009, , 
76.62, 0.049895, , 
76.65, 0.049793, , 
76.68, 0.049717, , 
76.71, 0.049682, , 
76.74, 0.049676, , 
76.77, 0.049669, , 
76.79, 0.049669, 24, 0.585
76.80, 0.049676, , 
76.83, 0.049641, , 
76.86, 0.049593, , 
76.89, 0.049641, , 
76.92, 0.049679, , 
76.95, 0.049644, , 
76.98, 0.049619, , 
77.01, 0.049612, , 
77.05, 0.049615, , 
77.07, 0.049454, , 
77.10, 0.049305, , 
77.13, 0.049254, , 
77.16, 0.049178, , 
77.19, 0.049092, , 
77.22, 0.049108, , 
77.25, 0.049165, , 
77.28, 0.049149, , 
77.31, 0.049133, , 
77.34, 0.049117, , 
77.37, 0.049083, , 
77.40, 0.049051, , 
77.43, 0.049063, , 
77.46, 0.049063, , 
77.49, 0.049108, , 
77.52, 0.049121, , 
77.55, 0.049098, , 
77.58, 0.049079, , 
77.61, 0.049117, , 
77.64, 0.049124, , 
77.67, 0.049114, , 
77.70, 0.049117, , 
77.73, 0.049155, , 
77.76, 0.049146, , 
77.79, 0.049044, , 
77.82, 0.048892, , 
77.85, 0.048788, , 
77.88, 0.048699, , 
77.91, 0.048613, , 
77.94, 0.048657, , 
77.97, 0.048629, , 
78.00, 0.048619, , 
78.03, 0.048585, , 
78.06, 0.048521, , 
78.09, 0.048378, , 
78.12, 0.048239, , 
78.15, 0.048175, , 
78.18, 0.048147, , 
78.21, 0.048144, , 
78.24, 0.048115, , 
78.27, 0.048061, , 
78.30, 0.048087, , 
78.33, 0.048093, , 
78.36, 0.047969, , 
78.39, 0.047807, , 
78.42, 0.047731, , 
78.45, 0.047668, , 
78.48, 0.047627, , 
78.51, 0.047538, , 
78.54, 0.047614, , 
78.57, 0.047655, , 
78.60, 0.047604, , 
78.63, 0.047468, , 
78.66, 0.047363, , 
78.69, 0.047252, , 
78.72, 0.047148, , 
78.75, 0.047084, , 
78.78, 0.047094, , 
78.81, 0.047100, , 
78.84, 0.047084, , 
78.87, 0.047072, , 
78.90, 0.047122, , 
78.93, 0.047135, , 
78.96, 0.047068, , 
78.99, 0.046951, , 
79.02, 0.046859, , 
79.05, 0.046745, , 
79.08, 0.046640, , 
79.11, 0.046602, , 
79.14, 0.046631, , 
79.17, 0.046627, , 
79.20, 0.046577, , 
79.23, 0.046577, , 
79.26, 0.046583, , 
79.29, 0.046589, , 
79.32, 0.046602, , 
79.35, 0.046574, , 
79.38, 0.046583, , 
79.41, 0.046539, , 
79.44, 0.046409, , 
79.47, 0.046348, , 
79.50, 0.046294, , 
79.53, 0.046193, , 
79.56, 0.046120, , 
79.59, 0.046136, , 
79.62, 0.046161, , 
79.65, 0.046107, , 
79.68, 0.046031, , 
79.71, 0.046095, , 
79.74, 0.046145, , 
79.77, 0.046098, , 
79.80, 0.046056, , 
79.83, 0.046120, , 
79.86, 0.046148, , 
79.89, 0.046063, , 
79.92, 0.045892, , 
79.95, 0.045812, , 
79.98, 0.045685, 25, 0.585
79.99, 0.045666, , 
80.01, 0.045606, , 
80.04, 0.045603, , 
80.07, 0.045622, , 
80.10, 0.045644, , 
80.13, 0.045609, , 
80.16, 0.045593, , 
80.19, 0.045609, , 
80.22, 0.045520, , 
80.25, 0.045409, , 
80.28, 0.045308, , 
80.31, 0.045216, , 
80.34, 0.045175, , 
80.37, 0.045102, , 
80.40, 0.045111, , 
80.43, 0.045140, , 
80.46, 0.045140, , 
80.49, 0.045114, , 
80.52, 0.045133, , 
80.55, 0.045168, , 
80.58, 0.045041, , 
80.61, 0.044880, , 
80.64, 0.044791, , 
80.67, 0.044712, , 
80.70, 0.044664, , 
80.73, 0.044594, , 
80.76, 0.044613, , 
80.79, 0.044677, , 
80.82, 0.044667, , 
80.85, 0.044616, , 
80.88, 0.044534, , 
80.91, 0.044385, , 
80.94, 0.044290, , 
80.97, 0.044233, , 
81.00, 0.044191, , 
81.03, 0.044176, , 
81.06, 0.044115, , 
81.09, 0.044093, , 
81.12, 0.044118, , 
81.15, 0.044150, , 
81.18, 0.044045, , 
81.21, 0.043839, , 
81.24, 0.043750, , 
81.27, 0.043712, , 
81.30, 0.043624, , 
81.33, 0.043579, , 
81.36, 0.043665, , 
81.39, 0.043665, , 
81.42, 0.043598, , 
81.45, 0.043617, , 
81.48, 0.043633, , 
81.51, 0.043620, , 
81.54, 0.043646, , 
81.57, 0.043582, , 
81.60, 0.043620, , 
81.63, 0.043541, , 
81.66, 0.043364, , 
81.69, 0.043253, , 
81.72, 0.043192, , 
81.75, 0.043180, , 
81.78, 0.043107, , 
81.81, 0.043091, , 
81.84, 0.043126, , 
81.87, 0.043119, , 
81.90, 0.043097, , 
81.93, 0.043094, , 
81.96, 0.043094, , 
81.99, 0.043040, , 
82.02, 0.042872, , 
82.05, 0.042739, , 
82.08, 0.042704, , 
82.11, 0.042628, , 
82.14, 0.042599, , 
82.17, 0.042640, , 
82.20, 0.042624, , 
82.23, 0.042602, , 
82.26, 0.042542, , 
82.29, 0.042501, , 
82.32, 0.042412, , 
82.36, 0.042288, , 
82.38, 0.042212, , 
82.41, 0.042187, , 
82.44, 0.042174, , 
82.47, 0.042158, , 
82.50, 0.042152, , 
82.53, 0.042209, , 
82.56, 0.042212, , 
82.59, 0.042180, , 
82.62, 0.042133, , 
82.65, 0.042180, , 
82.68, 0.042187, , 
82.71, 0.042193, , 
82.74, 0.042158, , 
82.77, 0.042152, , 
82.80, 0.042218, , 
82.83, 0.042196, , 
82.86, 0.042231, , 
82.89, 0.042206, , 
82.92, 0.042079, , 
82.95, 0.041901, , 
82.98, 0.041816, , 
83.01, 0.041784, , 
83.04, 0.041762, , 
83.07, 0.041720, , 
83.10, 0.041705, , 
83.13, 0.041736, , 
83.16, 0.041724, , 
83.18, 0.041673, 26, 0.586
83.19, 0.041663, , 
83.22, 0.041660, , 
83.25, 0.041682, , 
83.29, 0.041575, , 
83.31, 0.041429, , 
83.34, 0.041333, , 
83.37, 0.041295, , 
83.40, 0.041251, , 
83.43, 0.041210, , 
83.46, 0.041203, , 
83.49, 0.041191, , 
83.52, 0.041194, , 
83.55, 0.041172, , 
83.58, 0.041162, , 
83.61, 0.041238, , 
83.64, 0.041216, , 
83.67, 0.041175, , 
83.70, 0.041203, , 
83.73, 0.041251, , 
83.76, 0.041213, , 
83.79, 0.041216, , 
83.82, 0.041210, , 
83.85, 0.041229, , 
83.88, 0.041181, , 
83.91, 0.041137, , 
83.94, 0.041165, , 
83.97, 0.041210, , 
84.00, 0.041197, , 
84.03, 0.041184, , 
84.06, 0.041169, , 
84.09, 0.041216, , 
84.12, 0.041213, , 
84.15, 0.041153, , 
84.18, 0.041172, , 
84.21, 0.041188, , 
84.24, 0.041134, , 
84.27, 0.040972, , 
84.30, 0.040864, , 
84.33, 0.040750, , 
84.36, 0.040702, , 
84.39, 0.040626, , 
84.42, 0.040629, , 
84.45, 0.040686, , 
84.48, 0.040652, , 
84.51, 0.040594, , 
84.54, 0.040667, , 
84.57, 0.040626, , 
84.60, 0.040572, , 
84.64, 0.040648, , 
84.66, 0.040680, , 
84.69, 0.040632, , 
84.72, 0.040610, , 
84.75, 0.040607, , 
84.78, 0.040642, , 
84.81, 0.040620, , 
84.84, 0.040575, , 
84.87, 0.040591, , 
84.90, 0.040664, , 
84.93, 0.040652, , 
84.96, 0.040566, , 
84.99, 0.040547, , 
85.02, 0.040620, , 
85.05, 0.040620, , 
85.08, 0.040525, , 
85.11, 0.040544, , 
85.14, 0.040569, , 
85.17, 0.040604, , 
85.20, 0.040553, , 
85.23, 0.040556, , 
85.26, 0.040582, , 
85.29, 0.040572, , 
85.32, 0.040525, , 
85.35, 0.040502, , 
85.38, 0.040531, , 
85.41, 0.040531, , 
85.44, 0.040449, , 
85.47, 0.040468, , 
85.50, 0.040572, , 
85.53, 0.040531, , 
85.56, 0.040493, , 
85.59, 0.040487, , 
85.62, 0.040502, , 
85.65, 0.040493, , 
85.68, 0.040461, , 
85.71, 0.040439, , 
85.74, 0.040353, , 
85.77, 0.040195, , 
85.80, 0.040065, , 
85.83, 0.040055, , 
85.86, 0.040039, , 
85.89, 0.039976, , 
85.92, 0.039957, , 
85.95, 0.039947, , 
85.98, 0.039973, , 
86.01, 0.039944, , 
86.04, 0.039951, , 
86.07, 0.039998, , 
86.10, 0.039998, , 
86.13, 0.039995, , 
86.16, 0.039947, , 
86.19, 0.039966, , 
86.22, 0.039995, , 
86.25, 0.039935, , 
86.29, 0.039935, , 
86.31, 0.039938, , 
86.34, 0.039966, , 
86.37, 0.039900, , 
86.39, 0.039912, 27, 0.586
86.40, 0.039935, , 
86.43, 0.039966, , 
86.46, 0.040014, , 
86.49, 0.040001, , 
86.52, 0.039982, , 
86.55, 0.040011, , 
86.58, 0.039944, , 
86.61, 0.039944, , 
86.64, 0.039966, , 
86.67, 0.039947, , 
86.70, 0.039884, , 
86.73, 0.039748, , 
86.76, 0.039617, , 
86.79, 0.039564, , 
86.82, 0.039494, , 
86.85, 0.039418, , 
86.88, 0.039418, , 
86.91, 0.039453, , 
86.94, 0.039459, , 
86.97, 0.039392, , 
87.00, 0.039361, , 
87.03, 0.039430, , 
87.06, 0.039430, , 
87.09, 0.039405, , 
87.12, 0.039383, , 
87.15, 0.039392, , 
87.18, 0.039418, , 
87.21, 0.039392, , 
87.24, 0.039405, , 
87.27, 0.039427, , 
87.30, 0.039421, , 
87.33, 0.039491, , 
87.36, 0.039611, , 
87.39, 0.039767, , 
87.42, 0.039865, , 
87.45, 0.039865, , 
87.48, 0.039903, , 
87.51, 0.039919, , 
87.54, 0.039887, , 
87.57, 0.039887, , 
87.60, 0.039922, , 
87.63, 0.039966, , 
87.66, 0.039951, , 
87.69, 0.039890, , 
87.72, 0.039909, , 
87.75, 0.039970, , 
87.78, 0.039931, , 
87.81, 0.039887, , 
87.84, 0.039909, , 
87.87, 0.039957, , 
87.90, 0.039947, , 
87.93, 0.039925, , 
87.96, 0.039954, , 
87.99, 0.039982, , 
88.02, 0.039919, , 
88.05, 0.039903, , 
88.09, 0.039957, , 
88.11, 0.039982, , 
88.14, 0.039935, , 
88.17, 0.039944, , 
88.20, 0.039966, , 
88.23, 0.039960, , 
88.26, 0.039970, , 
88.29, 0.039976, , 
88.32, 0.039963, , 
88.35, 0.040004, , 
88.38, 0.040008, , 
88.41, 0.039947, , 
88.44, 0.039931, , 
88.47, 0.040001, , 
88.50, 0.039960, , 
88.53, 0.039941, , 
88.56, 0.039954, , 
88.59, 0.039925, , 
88.62, 0.039912, , 
88.65, 0.039966, , 
88.68, 0.039970, , 
88.71, 0.039985, , 
88.74, 0.039973, , 
88.77, 0.039966, , 
88.80, 0.039992, , 
88.83, 0.039979, , 
88.86, 0.039970, , 
88.89, 0.039976, , 
88.92, 0.039970, , 
88.95, 0.040017, , 
88.98, 0.039954, , 
89.01, 0.039957, , 
89.04, 0.039979, , 
89.07, 0.039985, , 
89.11, 0.039970, , 
89.13, 0.039976, , 
89.16, 0.040001, , 
89.19, 0.040008, , 
89.22, 0.039951, , 
89.25, 0.039973, , 
89.28, 0.039998, , 
89.32, 0.039960, , 
89.34, 0.039941, , 
89.37, 0.039944, , 
89.40, 0.040033, , 
89.43, 0.040014, , 
89.46, 0.039935, , 
89.49, 0.039982, , 
89.52, 0.040039, , 
89.55, 0.040008, , 
89.58, 0.039982, , 
89.61, 0.040008, , 
89.64, 0.039989, , 
89.67, 0.039963, , 
89.70, 0.039919, , 
89.73, 0.039951, , 
89.76, 0.039982, , 
89.79, 0.039935, , 
89.82, 0.039925, , 
89.85, 0.039938, , 
89.88, 0.039998, , 
89.91, 0.039979, , 
89.94, 0.039935, , 
89.97, 0.039947, , 
90.00, 0.039989, , 
90.03, 0.039963, , 
90.06, 0.039951, , 
90.09, 0.039966, , 
90.12, 0.039998, , 
90.15, 0.039966, , 
90.18, 0.039979, , 
90.21, 0.039970, , 
90.24, 0.039944, , 
90.27, 0.039944, , 
90.30, 0.039966, , 
90.33, 0.039998, , 
90.36, 0.039979, , 
90.39, 0.039960, , 
90.42, 0.040001, , 
90.45, 0.040001, , 
90.48, 0.039979, , 
90.51, 0.039938, , 
90.54, 0.039951, , 
90.57, 0.039989, , 
90.60, 0.040020, , 
90.63, 0.039976, , 
90.66, 0.039922, , 
90.69, 0.039995, , 
90.72, 0.039979, , 
90.75, 0.039985, , 
90.78, 0.040008, , 
90.81, 0.039957, , 
90.84, 0.039973, , 
90.87, 0.039944, , 
90.90, 0.039982, , 
90.93, 0.040039, , 
90.96, 0.040039, , 
90.99, 0.039995, , 
91.02, 0.039963, , 
91.05, 0.039982, , 
91.08, 0.039951, , 
91.11, 0.039954, , 
91.14, 0.039985, , 
91.17, 0.040001, , 
91.20, 0.039989, , 
91.23, 0.039957, , 
91.26, 0.039973, , 
91.29, 0.040008, , 
91.32, 0.040027, , 
91.35, 0.039982, , 
91.38, 0.040017, , 
91.41, 0.039998, , 
91.44, 0.040004, , 
91.47, 0.039989, , 
91.50, 0.039982, , 
91.53, 0.040004, , 
91.56, 0.040017, , 
91.59, 0.039976, , 
91.62, 0.040004, , 
91.65, 0.039998, , 
91.68, 0.039954, , 
91.71, 0.039941, , 
91.74, 0.039995, , 
91.77, 0.040008, , 
91.80, 0.039989, , 
91.83, 0.040004, , 
91.86, 0.039998, , 
91.89, 0.040001, , 
91.92, 0.039992, , 
91.95, 0.039985, , 
91.98, 0.040011, , 
92.01, 0.039995, , 
92.04, 0.040011, , 
92.07, 0.039976, , 
92.10, 0.040023, , 
92.13, 0.040014, , 
92.16, 0.039985, , 
92.19, 0.040033, , 
92.22, 0.039985, , 
92.25, 0.039995, , 
92.28, 0.039951, , 
92.31, 0.039963, , 
92.34, 0.040014, , 
92.37, 0.039970, , 
92.40, 0.039979, , 
92.43, 0.040001, , 
92.46, 0.040014, , 
92.49, 0.040001, , 
92.52, 0.039941, , 
92.55, 0.039941, , 
92.58, 0.039970, , 
92.61, 0.039951, , 
92.64, 0.039916, , 
92.67, 0.039970, , 
92.70, 0.040004, , 
92.73, 0.039947, , 
92.76, 0.039960, , 
92.79, 0.040017, , 
92.83, 0.040065, , 
92.85, 0.040068, , 
92.88, 0.039982, , 
92.91, 0.039982, , 
92.94, 0.040039, , 
92.97, 0.040039, , 
93.00, 0.039976, , 
93.03, 0.040039, , 
93.06, 0.040081, , 
93.09, 0.040027, , 
93.12, 0.040033, , 
93.15, 0.040023, , 
93.18, 0.040011, , 
93.21, 0.039976, , 
93.24, 0.039931, , 
93.27, 0.039931, , 
93.30, 0.040001, , 
93.33, 0.039979, , 
93.36, 0.039966, , 
93.39, 0.040039, , 
93.42, 0.040043, , 
93.45, 0.039995, , 
93.48, 0.039947, , 
93.51, 0.039989, , 
93.54, 0.040017, , 
93.57, 0.039998, , 
93.60, 0.039973, , 
93.63, 0.039970, , 
93.66, 0.039970, , 
93.69, 0.039970, , 
93.72, 0.039979, , 
93.75, 0.039989, , 
93.78, 0.040008, , 
93.81, 0.039957, , 
93.84, 0.039970, , 
93.87, 0.039979, , 
93.90, 0.039998, , 
93.93, 0.039995, , 
93.96, 0.039951, , 
93.99, 0.039989, , 
94.02, 0.039998, , 
94.05, 0.039973, , 
94.08, 0.039982, , 
94.11, 0.040011, , 
94.14, 0.040004, , 
94.17, 0.039960, , 
94.20, 0.039951, , 
94.23, 0.039985, , 
94.26, 0.040001, , 
94.29, 0.040043, , 
94.32, 0.040020, , 
94.35, 0.039963, , 
94.38, 0.039963, , 
94.41, 0.039970, , 
94.44, 0.040017, , 
94.47, 0.040039, , 
94.50, 0.040027, , 
94.53, 0.040004, , 
94.56, 0.040027, , 
94.59, 0.040030, , 
94.62, 0.040011, , 
94.65, 0.040014, , 
94.68, 0.040020, , 
94.71, 0.040030, , 
94.74, 0.040071, , 
94.77, 0.040020, , 
94.80, 0.040023, , 
94.83, 0.040033, , 
94.86, 0.040011, , 
94.89, 0.040017, , 
94.92, 0.040014, , 
94.95, 0.040058, , 
94.98, 0.040046, , 
95.01, 0.040052, , 
95.04, 0.040074, , 
95.07, 0.040112, , 
95.10, 0.040030, , 
95.13, 0.040001, , 
95.16, 0.040027, , 
95.19, 0.040046, , 
95.22, 0.040049, , 
95.25, 0.040008, , 
95.28, 0.040017, , 
95.31, 0.040068, , 
95.34, 0.040039, , 
95.37, 0.039966, , 
95.40, 0.040017, , 
95.43, 0.040027, , 
95.46, 0.039998, , 
95.49, 0.039979, , 
95.53, 0.040043, , 
95.55, 0.040046, , 
95.58, 0.040011, , 
95.61, 0.039954, , 
95.64, 0.040049, , 
95.67, 0.040027, , 
95.70, 0.039985, , 
95.73, 0.039970, , 
95.76, 0.040004, , 
95.79, 0.040030, , 
95.82, 0.039963, , 
95.85, 0.039979, , 
95.88, 0.040004, , 
95.91, 0.040030, , 
95.94, 0.040001, , 
95.97, 0.040039, , 
96.00, 0.040049, , 
