Gradient Profiler Text Data File: 20240506_MV_I_30.csv
Date: 2024-05-06
Time: 16:34:49

User: jared
Experiment name: 
UV Unit: EM-1
Rotor Manufacturer: Beckman
Rotor Model: SW28.1
Speed: 28 rpm
Gradient: sucrose 10.0% to 50.0% w/v
Time: 4
w2t:  x 10^0
Sample Volume: 18 ml
Number of Tubes: 6
Volume per mm: 0.183 ml/mm

Absorbance Units Full Scale (AUFS): 2.00
Event Mark-triggered gradient; (with distance; auto start and stop)
Delay: No Delay
UV Wavelength: 254 nm
Samples / sec: 10 Hz
EM1 Speed: 0.30 mm/sec
Distance: 3.20 mm
Number: 30
Dead Volume: 0.000000 ml; Distance due to Dead Volume: 0.00 mm
Total Distance: 96.00 mm

Data Columns:
Distance(mm), Absorbance, Fraction Number, Fraction Volume(ml)
0.00, 0.097788, 0, 0.000
0.03, 0.097775, , 
0.06, 0.097781, , 
0.09, 0.097775, , 
0.12, 0.097765, , 
0.15, 0.097746, , 
0.18, 0.097800, , 
0.21, 0.097772, , 
0.24, 0.097759, , 
0.27, 0.097791, , 
0.30, 0.097800, , 
0.33, 0.097721, , 
0.36, 0.097566, , 
0.39, 0.097451, , 
0.42, 0.097359, , 
0.45, 0.097296, , 
0.48, 0.097271, , 
0.51, 0.097274, , 
0.54, 0.097217, , 
0.57, 0.097220, , 
0.60, 0.097334, , 
0.63, 0.098057, , 
0.66, 0.101280, , 
0.69, 0.113574, , 
0.72, 0.138039, , 
0.75, 0.178685, , 
0.78, 0.242789, , 
0.81, 0.306951, , 
0.84, 0.376096, , 
0.87, 0.447795, , 
0.90, 0.533516, , 
0.93, 0.607901, , 
0.96, 0.682883, , 
0.99, 0.770996, , 
1.02, 0.846662, , 
1.05, 0.922548, , 
1.08, 0.998823, , 
1.11, 1.075505, , 
1.14, 1.164991, , 
1.17, 1.240636, , 
1.20, 1.312642, , 
1.23, 1.385447, , 
1.26, 1.425582, , 
1.29, 1.464184, , 
1.32, 1.484703, , 
1.35, 1.497838, , 
1.38, 1.507801, , 
1.41, 1.513949, , 
1.44, 1.519959, , 
1.47, 1.523880, , 
1.50, 1.528356, , 
1.53, 1.533408, , 
1.56, 1.537681, , 
1.59, 1.542474, , 
1.62, 1.546451, , 
1.65, 1.550299, , 
1.68, 1.554127, , 
1.71, 1.557988, , 
1.74, 1.562302, , 
1.77, 1.565867, , 
1.80, 1.569397, , 
1.83, 1.573162, , 
1.86, 1.576128, , 
1.89, 1.578932, , 
1.92, 1.581485, , 
1.95, 1.583696, , 
1.98, 1.585821, , 
2.01, 1.587258, , 
2.04, 1.588533, , 
2.07, 1.589307, , 
2.10, 1.589771, , 
2.13, 1.590300, , 
2.16, 1.590725, , 
2.19, 1.591084, , 
2.22, 1.591287, , 
2.25, 1.591344, , 
2.28, 1.591369, , 
2.31, 1.591214, , 
2.34, 1.590900, , 
2.37, 1.590551, , 
2.40, 1.590192, , 
2.43, 1.589672, , 
2.46, 1.589142, , 
2.49, 1.588540, , 
2.52, 1.587902, , 
2.55, 1.587036, , 
2.58, 1.585815, , 
2.61, 1.584632, , 
2.64, 1.582919, , 
2.67, 1.581045, , 
2.70, 1.579224, , 
2.73, 1.576283, , 
2.76, 1.573410, , 
2.79, 1.569578, , 
2.82, 1.565952, , 
2.85, 1.562000, , 
2.88, 1.557039, , 
2.91, 1.553138, , 
2.94, 1.547159, , 
2.97, 1.541659, , 
3.00, 1.535660, , 
3.03, 1.528143, , 
3.06, 1.521320, , 
3.10, 1.512962, , 
3.12, 1.506640, , 
3.15, 1.498593, , 
3.18, 1.488570, , 
3.19, 1.487089, 1, 0.583
3.21, 1.479543, , 
3.24, 1.468495, , 
3.27, 1.458567, , 
3.30, 1.448280, , 
3.33, 1.437689, , 
3.36, 1.426736, , 
3.39, 1.413363, , 
3.42, 1.401668, , 
3.45, 1.389698, , 
3.48, 1.375395, , 
3.52, 1.362936, , 
3.54, 1.350264, , 
3.57, 1.337288, , 
3.60, 1.324086, , 
3.63, 1.308515, , 
3.66, 1.295066, , 
3.69, 1.279406, , 
3.72, 1.268051, , 
3.75, 1.254345, , 
3.78, 1.238282, , 
3.81, 1.224430, , 
3.84, 1.210553, , 
3.87, 1.194297, , 
3.90, 1.180369, , 
3.93, 1.166419, , 
3.96, 1.149991, , 
3.99, 1.135914, , 
4.02, 1.121907, , 
4.05, 1.107912, , 
4.08, 1.093931, , 
4.11, 1.077598, , 
4.14, 1.063711, , 
4.17, 1.047474, , 
4.20, 1.033537, , 
4.23, 1.022070, , 
4.26, 1.006220, , 
4.29, 0.992768, , 
4.32, 0.977213, , 
4.35, 0.964033, , 
4.38, 0.951009, , 
4.41, 0.936032, , 
4.44, 0.925510, , 
4.47, 0.911084, , 
4.50, 0.898891, , 
4.53, 0.886857, , 
4.56, 0.872945, , 
4.59, 0.861234, , 
4.62, 0.847937, , 
4.65, 0.838482, , 
4.68, 0.827307, , 
4.71, 0.814550, , 
4.74, 0.803819, , 
4.77, 0.791572, , 
4.80, 0.781206, , 
4.83, 0.771034, , 
4.86, 0.761014, , 
4.89, 0.751092, , 
4.92, 0.739676, , 
4.95, 0.730122, , 
4.98, 0.720664, , 
5.01, 0.709800, , 
5.04, 0.700630, , 
5.07, 0.691574, , 
5.10, 0.682696, , 
5.13, 0.673903, , 
5.16, 0.663750, , 
5.19, 0.655214, , 
5.22, 0.645327, , 
5.26, 0.636934, , 
5.28, 0.630070, , 
5.31, 0.620541, , 
5.34, 0.612494, , 
5.37, 0.603128, , 
5.40, 0.595182, , 
5.43, 0.587439, , 
5.46, 0.579846, , 
5.49, 0.572338, , 
5.52, 0.563757, , 
5.55, 0.556453, , 
5.58, 0.549224, , 
5.61, 0.541050, , 
5.64, 0.534081, , 
5.67, 0.527280, , 
5.70, 0.520559, , 
5.73, 0.513964, , 
5.76, 0.506393, , 
5.79, 0.500059, , 
5.82, 0.492751, , 
5.85, 0.486502, , 
5.88, 0.481477, , 
5.91, 0.474477, , 
5.94, 0.468454, , 
5.97, 0.462484, , 
6.00, 0.455560, , 
6.03, 0.449736, , 
6.06, 0.442935, , 
6.09, 0.438117, , 
6.12, 0.432420, , 
6.15, 0.425801, , 
6.18, 0.420075, , 
6.21, 0.413509, , 
6.24, 0.407943, , 
6.27, 0.402458, , 
6.30, 0.397060, , 
6.33, 0.391743, , 
6.36, 0.385764, , 
6.39, 0.381606, 2, 0.586
6.39, 0.380778, , 
6.42, 0.375843, , 
6.45, 0.370146, , 
6.48, 0.365359, , 
6.51, 0.360630, , 
6.54, 0.355910, , 
6.57, 0.351263, , 
6.60, 0.346096, , 
6.63, 0.341757, , 
6.66, 0.336790, , 
6.69, 0.332638, , 
6.72, 0.329269, , 
6.75, 0.324556, , 
6.78, 0.320572, , 
6.81, 0.316597, , 
6.84, 0.312023, , 
6.87, 0.308147, , 
6.90, 0.304331, , 
6.93, 0.299856, , 
6.96, 0.296097, , 
6.99, 0.292332, , 
7.02, 0.288548, , 
7.05, 0.284878, , 
7.08, 0.280685, , 
7.11, 0.277122, , 
7.14, 0.273570, , 
7.17, 0.270112, , 
7.20, 0.266179, , 
7.23, 0.262858, , 
7.26, 0.259655, , 
7.29, 0.256568, , 
7.32, 0.253066, , 
7.35, 0.250262, , 
7.38, 0.247157, , 
7.41, 0.244642, , 
7.44, 0.242206, , 
7.47, 0.239722, , 
7.50, 0.237292, , 
7.53, 0.234618, , 
7.56, 0.232360, , 
7.59, 0.230111, , 
7.62, 0.227545, , 
7.65, 0.225728, , 
7.68, 0.223200, , 
7.71, 0.221046, , 
7.74, 0.218943, , 
7.77, 0.216542, , 
7.80, 0.214455, , 
7.83, 0.211993, , 
7.86, 0.210277, , 
7.89, 0.208263, , 
7.92, 0.205805, , 
7.95, 0.203749, , 
7.98, 0.201364, , 
8.01, 0.199401, , 
8.04, 0.197428, , 
8.07, 0.195423, , 
8.10, 0.193501, , 
8.13, 0.191360, , 
8.16, 0.189568, , 
8.19, 0.187769, , 
8.22, 0.185990, , 
8.25, 0.184004, , 
8.28, 0.182351, , 
8.31, 0.180458, , 
8.34, 0.179186, , 
8.37, 0.177720, , 
8.40, 0.175969, , 
8.43, 0.174453, , 
8.46, 0.172807, , 
8.49, 0.171408, , 
8.52, 0.170032, , 
8.55, 0.168693, , 
8.58, 0.167399, , 
8.61, 0.166111, , 
8.64, 0.164661, , 
8.67, 0.163485, , 
8.70, 0.162121, , 
8.73, 0.160922, , 
8.76, 0.159726, , 
8.79, 0.158517, , 
8.82, 0.157325, , 
8.85, 0.155907, , 
8.88, 0.154622, , 
8.91, 0.153430, , 
8.94, 0.152107, , 
8.97, 0.150879, , 
9.00, 0.149620, , 
9.03, 0.148437, , 
9.06, 0.147282, , 
9.09, 0.145874, , 
9.12, 0.144656, , 
9.15, 0.143273, , 
9.18, 0.142119, , 
9.21, 0.141180, , 
9.24, 0.139838, , 
9.27, 0.138740, , 
9.30, 0.137507, , 
9.33, 0.136479, , 
9.36, 0.135521, , 
9.39, 0.134487, , 
9.42, 0.133770, , 
9.45, 0.132650, , 
9.48, 0.131591, , 
9.51, 0.130623, , 
9.54, 0.129564, , 
9.57, 0.128695, , 
9.59, 0.128283, 3, 0.585
9.61, 0.127769, , 
9.63, 0.127169, , 
9.66, 0.126424, , 
9.69, 0.125409, , 
9.72, 0.124571, , 
9.75, 0.123613, , 
9.78, 0.122798, , 
9.81, 0.122053, , 
9.84, 0.121273, , 
9.87, 0.120549, , 
9.90, 0.119690, , 
9.93, 0.118992, , 
9.96, 0.118332, , 
9.99, 0.117555, , 
10.02, 0.117000, , 
10.05, 0.116239, , 
10.08, 0.115611, , 
10.11, 0.115056, , 
10.14, 0.114447, , 
10.17, 0.113961, , 
10.20, 0.113425, , 
10.23, 0.113000, , 
10.26, 0.112439, , 
10.29, 0.111750, , 
10.32, 0.111233, , 
10.35, 0.110685, , 
10.38, 0.110206, , 
10.41, 0.109765, , 
10.44, 0.109295, , 
10.47, 0.108724, , 
10.50, 0.108236, , 
10.53, 0.107817, , 
10.56, 0.107433, , 
10.59, 0.106993, , 
10.62, 0.106491, , 
10.65, 0.106035, , 
10.68, 0.105527, , 
10.71, 0.104934, , 
10.74, 0.104452, , 
10.77, 0.103859, , 
10.80, 0.103405, , 
10.83, 0.102894, , 
10.86, 0.102387, , 
10.89, 0.101921, , 
10.93, 0.101435, , 
10.95, 0.101067, , 
10.98, 0.100471, , 
11.01, 0.099894, , 
11.04, 0.099386, , 
11.07, 0.098793, , 
11.10, 0.098295, , 
11.13, 0.097724, , 
11.16, 0.097420, , 
11.19, 0.097071, , 
11.22, 0.096652, , 
11.25, 0.096303, , 
11.28, 0.095894, , 
11.31, 0.095536, , 
11.34, 0.095212, , 
11.37, 0.094907, , 
11.40, 0.094603, , 
11.43, 0.094346, , 
11.46, 0.094118, , 
11.49, 0.093937, , 
11.52, 0.093743, , 
11.55, 0.093585, , 
11.58, 0.093417, , 
11.61, 0.093239, , 
11.64, 0.093074, , 
11.67, 0.092868, , 
11.70, 0.092601, , 
11.73, 0.092370, , 
11.76, 0.092002, , 
11.79, 0.091726, , 
11.82, 0.091428, , 
11.85, 0.091161, , 
11.88, 0.090898, , 
11.91, 0.090559, , 
11.94, 0.090286, , 
11.97, 0.090061, , 
12.00, 0.089772, , 
12.03, 0.089461, , 
12.06, 0.089169, , 
12.09, 0.088951, , 
12.12, 0.088770, , 
12.15, 0.088478, , 
12.18, 0.088224, , 
12.21, 0.087977, , 
12.24, 0.087786, , 
12.27, 0.087650, , 
12.30, 0.087511, , 
12.33, 0.087415, , 
12.36, 0.087276, , 
12.39, 0.087108, , 
12.42, 0.087032, , 
12.45, 0.087006, , 
12.48, 0.086997, , 
12.51, 0.086974, , 
12.54, 0.086971, , 
12.57, 0.087003, , 
12.60, 0.087000, , 
12.63, 0.086940, , 
12.66, 0.086860, , 
12.69, 0.086686, , 
12.72, 0.086597, , 
12.75, 0.086556, , 
12.78, 0.086515, , 
12.80, 0.086492, 4, 0.588
12.81, 0.086464, , 
12.84, 0.086321, , 
12.87, 0.086134, , 
12.90, 0.086036, , 
12.93, 0.085994, , 
12.96, 0.085972, , 
12.99, 0.085934, , 
13.02, 0.085947, , 
13.05, 0.085988, , 
13.08, 0.085966, , 
13.11, 0.086004, , 
13.14, 0.086169, , 
13.17, 0.086359, , 
13.20, 0.086518, , 
13.23, 0.086683, , 
13.26, 0.086921, , 
13.29, 0.087225, , 
13.32, 0.087419, , 
13.35, 0.087571, , 
13.38, 0.087812, , 
13.41, 0.088088, , 
13.44, 0.088281, , 
13.47, 0.088573, , 
13.50, 0.088897, , 
13.53, 0.089141, , 
13.56, 0.089325, , 
13.59, 0.089449, , 
13.62, 0.089671, , 
13.65, 0.089886, , 
13.68, 0.090118, , 
13.71, 0.090280, , 
13.74, 0.090387, , 
13.77, 0.090527, , 
13.81, 0.090606, , 
13.83, 0.090670, , 
13.86, 0.090806, , 
13.89, 0.090930, , 
13.92, 0.091022, , 
13.95, 0.091142, , 
13.98, 0.091304, , 
14.01, 0.091374, , 
14.04, 0.091456, , 
14.07, 0.091656, , 
14.10, 0.091742, , 
14.13, 0.091799, , 
14.16, 0.091888, , 
14.19, 0.092043, , 
14.22, 0.092199, , 
14.25, 0.092265, , 
14.28, 0.092272, , 
14.31, 0.092335, , 
14.34, 0.092506, , 
14.37, 0.092630, , 
14.40, 0.092706, , 
14.43, 0.092817, , 
14.46, 0.092849, , 
14.49, 0.092760, , 
14.52, 0.092589, , 
14.55, 0.092503, , 
14.58, 0.092437, , 
14.61, 0.092364, , 
14.64, 0.092180, , 
14.67, 0.092034, , 
14.70, 0.091815, , 
14.74, 0.091491, , 
14.76, 0.091180, , 
14.79, 0.090822, , 
14.82, 0.090568, , 
14.85, 0.090197, , 
14.88, 0.089877, , 
14.91, 0.089591, , 
14.94, 0.089350, , 
14.97, 0.088979, , 
15.00, 0.088516, , 
15.03, 0.088253, , 
15.06, 0.087951, , 
15.09, 0.087571, , 
15.12, 0.087279, , 
15.15, 0.087044, , 
15.18, 0.086787, , 
15.21, 0.086540, , 
15.24, 0.086305, , 
15.27, 0.086089, , 
15.30, 0.085829, , 
15.33, 0.085601, , 
15.36, 0.085430, , 
15.39, 0.085179, , 
15.42, 0.084932, , 
15.45, 0.084637, , 
15.48, 0.084424, , 
15.51, 0.084145, , 
15.54, 0.083742, , 
15.57, 0.083397, , 
15.60, 0.083095, , 
15.63, 0.082819, , 
15.67, 0.082426, , 
15.69, 0.082074, , 
15.72, 0.081589, , 
15.75, 0.081300, , 
15.78, 0.080935, , 
15.81, 0.080599, , 
15.84, 0.080247, , 
15.87, 0.079923, , 
15.90, 0.079622, , 
15.93, 0.079248, , 
15.96, 0.078946, , 
15.99, 0.078721, , 
16.00, 0.078680, 5, 0.585
16.02, 0.078436, , 
16.05, 0.078201, , 
16.08, 0.077928, , 
16.11, 0.077674, , 
16.14, 0.077360, , 
16.17, 0.077030, , 
16.20, 0.076824, , 
16.23, 0.076612, , 
16.26, 0.076342, , 
16.29, 0.076133, , 
16.32, 0.075866, , 
16.35, 0.075663, , 
16.38, 0.075340, , 
16.41, 0.075172, , 
16.44, 0.075042, , 
16.47, 0.074905, , 
16.50, 0.074690, , 
16.53, 0.074455, , 
16.56, 0.074293, , 
16.59, 0.074166, , 
16.62, 0.074011, , 
16.65, 0.073795, , 
16.68, 0.073690, , 
16.71, 0.073484, , 
16.74, 0.073291, , 
16.77, 0.073192, , 
16.80, 0.073097, , 
16.83, 0.072935, , 
16.86, 0.072707, , 
16.89, 0.072625, , 
16.92, 0.072580, , 
16.96, 0.072491, , 
16.98, 0.072406, , 
17.01, 0.072241, , 
17.04, 0.072155, , 
17.07, 0.072070, , 
17.10, 0.071997, , 
17.13, 0.071974, , 
17.17, 0.071997, , 
17.19, 0.071959, , 
17.22, 0.071838, , 
17.25, 0.071743, , 
17.28, 0.071660, , 
17.31, 0.071565, , 
17.34, 0.071470, , 
17.37, 0.071461, , 
17.40, 0.071499, , 
17.43, 0.071426, , 
17.46, 0.071264, , 
17.49, 0.071169, , 
17.52, 0.071099, , 
17.55, 0.071001, , 
17.59, 0.070991, , 
17.61, 0.070896, , 
17.64, 0.070753, , 
17.67, 0.070623, , 
17.70, 0.070541, , 
17.73, 0.070499, , 
17.76, 0.070404, , 
17.79, 0.070284, , 
17.82, 0.070173, , 
17.85, 0.070103, , 
17.88, 0.070039, , 
17.91, 0.070001, , 
17.94, 0.069948, , 
17.97, 0.069875, , 
18.00, 0.069757, , 
18.03, 0.069618, , 
18.06, 0.069535, , 
18.09, 0.069510, , 
18.12, 0.069437, , 
18.15, 0.069291, , 
18.18, 0.069208, , 
18.21, 0.069113, , 
18.24, 0.069082, , 
18.27, 0.068971, , 
18.30, 0.068834, , 
18.33, 0.068755, , 
18.36, 0.068660, , 
18.39, 0.068495, , 
18.42, 0.068292, , 
18.45, 0.068190, , 
18.48, 0.068105, , 
18.51, 0.068013, , 
18.55, 0.067886, , 
18.57, 0.067756, , 
18.60, 0.067626, , 
18.63, 0.067442, , 
18.66, 0.067270, , 
18.69, 0.067182, , 
18.72, 0.067013, , 
18.75, 0.066877, , 
18.78, 0.066722, , 
18.81, 0.066658, , 
18.84, 0.066598, , 
18.87, 0.066519, , 
18.90, 0.066468, , 
18.93, 0.066360, , 
18.96, 0.066240, , 
18.99, 0.066135, , 
19.02, 0.066097, , 
19.05, 0.066065, , 
19.08, 0.065954, , 
19.11, 0.065799, , 
19.14, 0.065707, , 
19.17, 0.065681, , 
19.20, 0.065618, 6, 0.586
19.20, 0.065608, , 
19.23, 0.065551, , 
19.26, 0.065535, , 
19.29, 0.065551, , 
19.32, 0.065500, , 
19.35, 0.065399, , 
19.38, 0.065304, , 
19.41, 0.065180, , 
19.44, 0.065098, , 
19.47, 0.065088, , 
19.50, 0.065101, , 
19.53, 0.065098, , 
19.56, 0.065053, , 
19.59, 0.064996, , 
19.62, 0.064888, , 
19.65, 0.064771, , 
19.68, 0.064625, , 
19.71, 0.064574, , 
19.74, 0.064606, , 
19.77, 0.064682, , 
19.80, 0.064755, , 
19.83, 0.064850, , 
19.86, 0.064964, , 
19.89, 0.065041, , 
19.92, 0.065018, , 
19.95, 0.065066, , 
19.99, 0.065205, , 
20.01, 0.065301, , 
20.04, 0.065389, , 
20.07, 0.065577, , 
20.10, 0.065767, , 
20.13, 0.065941, , 
20.16, 0.066135, , 
20.19, 0.066309, , 
20.22, 0.066626, , 
20.25, 0.066845, , 
20.28, 0.067083, , 
20.31, 0.067454, , 
20.34, 0.067737, , 
20.37, 0.067981, , 
20.40, 0.068381, , 
20.43, 0.068758, , 
20.46, 0.069189, , 
20.49, 0.069557, , 
20.52, 0.069982, , 
20.55, 0.070512, , 
20.58, 0.070975, , 
20.61, 0.071457, , 
20.65, 0.071860, , 
20.67, 0.072266, , 
20.70, 0.072948, , 
20.73, 0.073494, , 
20.76, 0.074093, , 
20.79, 0.074617, , 
20.82, 0.075156, , 
20.85, 0.075714, , 
20.88, 0.076272, , 
20.91, 0.076862, , 
20.94, 0.077424, , 
20.97, 0.078001, , 
21.00, 0.078635, , 
21.03, 0.079156, , 
21.06, 0.079619, , 
21.09, 0.080101, , 
21.12, 0.080545, , 
21.15, 0.081091, , 
21.18, 0.081550, , 
21.21, 0.082045, , 
21.24, 0.082454, , 
21.27, 0.082851, , 
21.30, 0.083362, , 
21.33, 0.083783, , 
21.36, 0.084253, , 
21.39, 0.084561, , 
21.42, 0.084852, , 
21.45, 0.085230, , 
21.48, 0.085468, , 
21.51, 0.085820, , 
21.54, 0.086010, , 
21.57, 0.086242, , 
21.60, 0.086467, , 
21.63, 0.086676, , 
21.66, 0.086765, , 
21.69, 0.086851, , 
21.72, 0.087047, , 
21.75, 0.087165, , 
21.78, 0.087247, , 
21.81, 0.087247, , 
21.84, 0.087285, , 
21.87, 0.087355, , 
21.90, 0.087342, , 
21.93, 0.087330, , 
21.96, 0.087336, , 
21.99, 0.087403, , 
22.02, 0.087403, , 
22.05, 0.087403, , 
22.08, 0.087419, , 
22.11, 0.087396, , 
22.14, 0.087222, , 
22.17, 0.087070, , 
22.20, 0.087032, , 
22.23, 0.086940, , 
22.26, 0.086889, , 
22.29, 0.086803, , 
22.32, 0.086778, , 
22.35, 0.086711, , 
22.38, 0.086562, , 
22.39, 0.086524, 7, 0.584
22.41, 0.086454, , 
22.44, 0.086340, , 
22.47, 0.086181, , 
22.50, 0.086020, , 
22.53, 0.085810, , 
22.56, 0.085649, , 
22.59, 0.085522, , 
22.63, 0.085306, , 
22.65, 0.085182, , 
22.68, 0.085097, , 
22.71, 0.084992, , 
22.74, 0.084776, , 
22.77, 0.084561, , 
22.80, 0.084386, , 
22.83, 0.084189, , 
22.86, 0.083910, , 
22.89, 0.083739, , 
22.92, 0.083565, , 
22.95, 0.083403, , 
22.98, 0.083149, , 
23.01, 0.082876, , 
23.05, 0.082645, , 
23.07, 0.082378, , 
23.10, 0.082102, , 
23.13, 0.081861, , 
23.16, 0.081487, , 
23.19, 0.081217, , 
23.22, 0.080913, , 
23.25, 0.080681, , 
23.28, 0.080431, , 
23.31, 0.080075, , 
23.34, 0.079739, , 
23.37, 0.079321, , 
23.40, 0.078943, , 
23.43, 0.078585, , 
23.46, 0.078245, , 
23.49, 0.077941, , 
23.52, 0.077573, , 
23.55, 0.077192, , 
23.58, 0.076856, , 
23.61, 0.076526, , 
23.64, 0.076222, , 
23.67, 0.075901, , 
23.70, 0.075594, , 
23.73, 0.075321, , 
23.76, 0.074934, , 
23.79, 0.074598, , 
23.82, 0.074249, , 
23.85, 0.073973, , 
23.88, 0.073830, , 
23.91, 0.073503, , 
23.94, 0.073183, , 
23.97, 0.072885, , 
24.00, 0.072644, , 
24.03, 0.072361, , 
24.06, 0.072035, , 
24.09, 0.071809, , 
24.12, 0.071508, , 
24.15, 0.071242, , 
24.18, 0.070997, , 
24.21, 0.070763, , 
24.24, 0.070531, , 
24.27, 0.070293, , 
24.30, 0.070078, , 
24.33, 0.069843, , 
24.36, 0.069599, , 
24.39, 0.069348, , 
24.42, 0.069174, , 
24.45, 0.069082, , 
24.48, 0.068923, , 
24.51, 0.068695, , 
24.54, 0.068596, , 
24.57, 0.068476, , 
24.60, 0.068311, , 
24.63, 0.068140, , 
24.66, 0.067975, , 
24.69, 0.067860, , 
24.72, 0.067689, , 
24.75, 0.067588, , 
24.78, 0.067559, , 
24.81, 0.067553, , 
24.84, 0.067400, , 
24.87, 0.067223, , 
24.90, 0.067188, , 
24.93, 0.067169, , 
24.96, 0.067131, , 
24.99, 0.067036, , 
25.02, 0.067067, , 
25.05, 0.067102, , 
25.08, 0.067080, , 
25.11, 0.067039, , 
25.14, 0.067077, , 
25.17, 0.067099, , 
25.20, 0.067071, , 
25.23, 0.067096, , 
25.26, 0.067239, , 
25.29, 0.067369, , 
25.32, 0.067439, , 
25.35, 0.067464, , 
25.38, 0.067518, , 
25.41, 0.067721, , 
25.44, 0.067845, , 
25.47, 0.068013, , 
25.50, 0.068235, , 
25.53, 0.068403, , 
25.56, 0.068631, , 
25.59, 0.068821, 8, 0.586
25.60, 0.068860, , 
25.62, 0.069155, , 
25.65, 0.069526, , 
25.68, 0.069906, , 
25.71, 0.070363, , 
25.74, 0.070715, , 
25.77, 0.071124, , 
25.80, 0.071721, , 
25.83, 0.072352, , 
25.86, 0.073173, , 
25.89, 0.073928, , 
25.92, 0.074759, , 
25.95, 0.075835, , 
25.98, 0.076697, , 
26.01, 0.078084, , 
26.04, 0.079371, , 
26.07, 0.080729, , 
26.10, 0.082556, , 
26.13, 0.084243, , 
26.16, 0.086362, , 
26.19, 0.088091, , 
26.22, 0.090305, , 
26.25, 0.093134, , 
26.28, 0.095805, , 
26.31, 0.099142, , 
26.34, 0.102244, , 
26.37, 0.105572, , 
26.40, 0.109080, , 
26.43, 0.113505, , 
26.46, 0.117577, , 
26.49, 0.121863, , 
26.52, 0.126417, , 
26.55, 0.131255, , 
26.58, 0.137208, , 
26.61, 0.142490, , 
26.64, 0.147891, , 
26.67, 0.154403, , 
26.70, 0.160240, , 
26.73, 0.166254, , 
26.76, 0.172372, , 
26.79, 0.178602, , 
26.82, 0.186031, , 
26.85, 0.192460, , 
26.88, 0.200063, , 
26.91, 0.206712, , 
26.94, 0.212240, , 
26.97, 0.219898, , 
27.00, 0.226232, , 
27.03, 0.232516, , 
27.06, 0.239779, , 
27.09, 0.245850, , 
27.12, 0.252667, , 
27.16, 0.258379, , 
27.18, 0.262972, , 
27.21, 0.269113, , 
27.24, 0.274217, , 
27.27, 0.279860, , 
27.30, 0.284412, , 
27.33, 0.288684, , 
27.36, 0.292608, , 
27.39, 0.296268, , 
27.42, 0.300182, , 
27.45, 0.303262, , 
27.48, 0.306139, , 
27.51, 0.309197, , 
27.54, 0.311598, , 
27.57, 0.313596, , 
27.60, 0.315332, , 
27.63, 0.316876, , 
27.66, 0.318358, , 
27.69, 0.319363, , 
27.72, 0.320245, , 
27.75, 0.320781, , 
27.78, 0.321022, , 
27.81, 0.321165, , 
27.84, 0.321114, , 
27.87, 0.320946, , 
27.90, 0.320622, , 
27.93, 0.320115, , 
27.96, 0.319398, , 
27.99, 0.318745, , 
28.02, 0.317663, , 
28.05, 0.316521, , 
28.08, 0.315259, , 
28.11, 0.313800, , 
28.14, 0.312426, , 
28.17, 0.310612, , 
28.20, 0.309226, , 
28.23, 0.307551, , 
28.26, 0.305552, , 
28.29, 0.303716, , 
28.32, 0.301416, , 
28.35, 0.299396, , 
28.38, 0.297271, , 
28.41, 0.294949, , 
28.44, 0.292582, , 
28.47, 0.289836, , 
28.50, 0.287358, , 
28.53, 0.284887, , 
28.56, 0.282036, , 
28.59, 0.279565, , 
28.62, 0.277005, , 
28.65, 0.274341, , 
28.68, 0.271610, , 
28.71, 0.268476, , 
28.74, 0.265754, , 
28.77, 0.262452, , 
28.79, 0.261041, 9, 0.585
28.80, 0.259651, , 
28.83, 0.257311, , 
28.86, 0.254043, , 
28.89, 0.251195, , 
28.92, 0.247906, , 
28.95, 0.245092, , 
28.98, 0.242260, , 
29.01, 0.239462, , 
29.04, 0.236652, , 
29.07, 0.233426, , 
29.10, 0.230704, , 
29.13, 0.227973, , 
29.16, 0.224846, , 
29.19, 0.222213, , 
29.22, 0.219603, , 
29.25, 0.216948, , 
29.28, 0.214318, , 
29.31, 0.211302, , 
29.34, 0.208900, , 
29.37, 0.205992, , 
29.40, 0.203020, , 
29.43, 0.200964, , 
29.46, 0.198075, , 
29.49, 0.195661, , 
29.52, 0.192844, , 
29.55, 0.190541, , 
29.58, 0.188197, , 
29.61, 0.185390, , 
29.64, 0.183471, , 
29.67, 0.181203, , 
29.70, 0.178580, , 
29.73, 0.176315, , 
29.76, 0.173765, , 
29.79, 0.171668, , 
29.82, 0.169584, , 
29.85, 0.167497, , 
29.88, 0.165448, , 
29.91, 0.163085, , 
29.94, 0.161077, , 
29.97, 0.159060, , 
30.00, 0.156760, , 
30.03, 0.154863, , 
30.06, 0.152951, , 
30.09, 0.151082, , 
30.12, 0.149290, , 
30.15, 0.147206, , 
30.18, 0.145487, , 
30.21, 0.143578, , 
30.25, 0.142014, , 
30.27, 0.140742, , 
30.30, 0.138915, , 
30.33, 0.137380, , 
30.36, 0.135727, , 
30.39, 0.134369, , 
30.42, 0.132933, , 
30.45, 0.131182, , 
30.48, 0.129770, , 
30.51, 0.128644, , 
30.54, 0.127030, , 
30.57, 0.125729, , 
30.60, 0.124425, , 
30.63, 0.123125, , 
30.66, 0.121875, , 
30.70, 0.120426, , 
30.72, 0.119461, , 
30.75, 0.118139, , 
30.78, 0.116921, , 
30.81, 0.115731, , 
30.84, 0.114443, , 
30.87, 0.113333, , 
30.91, 0.112007, , 
30.93, 0.111072, , 
30.96, 0.109968, , 
30.99, 0.108709, , 
31.02, 0.107598, , 
31.05, 0.106441, , 
31.08, 0.105413, , 
31.11, 0.104553, , 
31.14, 0.103380, , 
31.17, 0.102431, , 
31.20, 0.101451, , 
31.23, 0.100477, , 
31.26, 0.099570, , 
31.29, 0.098574, , 
31.33, 0.097861, , 
31.35, 0.097160, , 
31.38, 0.096354, , 
31.41, 0.095596, , 
31.44, 0.094793, , 
31.47, 0.094029, , 
31.50, 0.093144, , 
31.53, 0.092567, , 
31.56, 0.091897, , 
31.59, 0.091206, , 
31.62, 0.090606, , 
31.65, 0.089886, , 
31.68, 0.089280, , 
31.71, 0.088627, , 
31.74, 0.087970, , 
31.77, 0.087301, , 
31.80, 0.086594, , 
31.83, 0.086017, , 
31.86, 0.085385, , 
31.89, 0.084697, , 
31.92, 0.084145, , 
31.95, 0.083590, , 
31.98, 0.082978, , 
31.99, 0.082759, 10, 0.586
32.01, 0.082375, , 
32.04, 0.081757, , 
32.07, 0.081297, , 
32.10, 0.080745, , 
32.13, 0.080294, , 
32.16, 0.079949, , 
32.19, 0.079409, , 
32.22, 0.078953, , 
32.25, 0.078458, , 
32.28, 0.078049, , 
32.31, 0.077592, , 
32.34, 0.077024, , 
32.37, 0.076640, , 
32.40, 0.076212, , 
32.43, 0.075743, , 
32.46, 0.075267, , 
32.49, 0.074778, , 
32.52, 0.074353, , 
32.55, 0.073906, , 
32.58, 0.073383, , 
32.61, 0.073002, , 
32.64, 0.072564, , 
32.67, 0.072073, , 
32.70, 0.071613, , 
32.73, 0.071134, , 
32.76, 0.070779, , 
32.80, 0.070373, , 
32.82, 0.070090, , 
32.85, 0.069741, , 
32.88, 0.069338, , 
32.91, 0.068932, , 
32.94, 0.068387, , 
32.97, 0.068067, , 
33.00, 0.067781, , 
33.03, 0.067439, , 
33.06, 0.067105, , 
33.09, 0.066826, , 
33.12, 0.066525, , 
33.15, 0.066208, , 
33.18, 0.065729, , 
33.21, 0.065466, , 
33.24, 0.065190, , 
33.27, 0.064863, , 
33.30, 0.064543, , 
33.33, 0.064222, , 
33.36, 0.063921, , 
33.39, 0.063566, , 
33.42, 0.063340, , 
33.45, 0.063090, , 
33.48, 0.062823, , 
33.51, 0.062601, , 
33.54, 0.062341, , 
33.57, 0.062154, , 
33.60, 0.061923, , 
33.63, 0.061691, , 
33.66, 0.061456, , 
33.69, 0.061193, , 
33.72, 0.061012, , 
33.75, 0.060819, , 
33.78, 0.060638, , 
33.81, 0.060492, , 
33.84, 0.060333, , 
33.87, 0.060073, , 
33.90, 0.059781, , 
33.93, 0.059591, , 
33.96, 0.059414, , 
33.99, 0.059255, , 
34.02, 0.059090, , 
34.05, 0.058919, , 
34.08, 0.058735, , 
34.11, 0.058525, , 
34.14, 0.058329, , 
34.17, 0.058192, , 
34.20, 0.058034, , 
34.23, 0.057818, , 
34.26, 0.057606, , 
34.29, 0.057393, , 
34.32, 0.057253, , 
34.35, 0.057060, , 
34.38, 0.056914, , 
34.41, 0.056806, , 
34.44, 0.056644, , 
34.47, 0.056460, , 
34.50, 0.056283, , 
34.53, 0.056150, , 
34.56, 0.056032, , 
34.59, 0.055813, , 
34.62, 0.055607, , 
34.65, 0.055407, , 
34.68, 0.055249, , 
34.71, 0.055093, , 
34.74, 0.054897, , 
34.77, 0.054824, , 
34.80, 0.054713, , 
34.83, 0.054618, , 
34.86, 0.054475, , 
34.89, 0.054351, , 
34.92, 0.054202, , 
34.95, 0.053990, , 
34.98, 0.053802, , 
35.01, 0.053745, , 
35.04, 0.053717, , 
35.07, 0.053644, , 
35.10, 0.053593, , 
35.13, 0.053552, , 
35.16, 0.053412, , 
35.19, 0.053276, 11, 0.585
35.19, 0.053266, , 
35.22, 0.053174, , 
35.25, 0.053158, , 
35.28, 0.053124, , 
35.31, 0.053108, , 
35.34, 0.053082, , 
35.37, 0.053095, , 
35.40, 0.053114, , 
35.43, 0.053076, , 
35.46, 0.053054, , 
35.49, 0.053066, , 
35.52, 0.053101, , 
35.55, 0.053079, , 
35.58, 0.053085, , 
35.61, 0.053070, , 
35.64, 0.053117, , 
35.67, 0.053082, , 
35.70, 0.053073, , 
35.73, 0.053108, , 
35.76, 0.053225, , 
35.79, 0.053346, , 
35.82, 0.053428, , 
35.85, 0.053511, , 
35.88, 0.053568, , 
35.91, 0.053622, , 
35.94, 0.053755, , 
35.97, 0.053920, , 
36.00, 0.054050, , 
36.03, 0.054139, , 
36.06, 0.054307, , 
36.09, 0.054462, , 
36.12, 0.054567, , 
36.15, 0.054776, , 
36.18, 0.054982, , 
36.21, 0.055198, , 
36.24, 0.055398, , 
36.27, 0.055601, , 
36.30, 0.055886, , 
36.33, 0.056112, , 
36.36, 0.056441, , 
36.39, 0.056702, , 
36.42, 0.056984, , 
36.45, 0.057244, , 
36.48, 0.057475, , 
36.51, 0.057628, , 
36.54, 0.057932, , 
36.57, 0.058240, , 
36.60, 0.058563, , 
36.63, 0.058811, , 
36.66, 0.059027, , 
36.69, 0.059337, , 
36.72, 0.059588, , 
36.75, 0.059854, , 
36.78, 0.060162, , 
36.81, 0.060438, , 
36.84, 0.060666, , 
36.87, 0.060860, , 
36.90, 0.061231, , 
36.93, 0.061526, , 
36.96, 0.061754, , 
36.99, 0.062049, , 
37.02, 0.062306, , 
37.05, 0.062554, , 
37.08, 0.062741, , 
37.11, 0.062918, , 
37.14, 0.063169, , 
37.17, 0.063436, , 
37.20, 0.063721, , 
37.23, 0.064019, , 
37.26, 0.064257, , 
37.29, 0.064463, , 
37.32, 0.064628, , 
37.35, 0.064771, , 
37.38, 0.065050, , 
37.41, 0.065221, , 
37.44, 0.065339, , 
37.47, 0.065488, , 
37.50, 0.065713, , 
37.53, 0.065849, , 
37.56, 0.065913, , 
37.59, 0.066021, , 
37.62, 0.066198, , 
37.65, 0.066331, , 
37.68, 0.066417, , 
37.71, 0.066458, , 
37.74, 0.066522, , 
37.77, 0.066512, , 
37.80, 0.066503, , 
37.83, 0.066509, , 
37.86, 0.066554, , 
37.89, 0.066550, , 
37.92, 0.066509, , 
37.95, 0.066443, , 
37.98, 0.066322, , 
38.01, 0.066220, , 
38.04, 0.066094, , 
38.07, 0.066103, , 
38.10, 0.066078, , 
38.13, 0.065964, , 
38.16, 0.065729, , 
38.19, 0.065561, , 
38.22, 0.065380, , 
38.25, 0.065237, , 
38.28, 0.065066, , 
38.31, 0.064885, , 
38.34, 0.064723, , 
38.37, 0.064460, , 
38.39, 0.064333, 12, 0.585
38.40, 0.064232, , 
38.43, 0.064016, , 
38.46, 0.063737, , 
38.49, 0.063502, , 
38.52, 0.063118, , 
38.55, 0.062880, , 
38.58, 0.062658, , 
38.61, 0.062348, , 
38.64, 0.062075, , 
38.67, 0.061751, , 
38.70, 0.061466, , 
38.73, 0.061133, , 
38.76, 0.060812, , 
38.79, 0.060562, , 
38.82, 0.060349, , 
38.85, 0.060105, , 
38.88, 0.059756, , 
38.91, 0.059458, , 
38.94, 0.059233, , 
38.97, 0.059008, , 
39.00, 0.058668, , 
39.03, 0.058408, , 
39.06, 0.058126, , 
39.09, 0.057818, , 
39.12, 0.057586, , 
39.15, 0.057320, , 
39.18, 0.057095, , 
39.21, 0.056809, , 
39.24, 0.056457, , 
39.27, 0.056194, , 
39.30, 0.055969, , 
39.33, 0.055756, , 
39.36, 0.055461, , 
39.39, 0.055252, , 
39.42, 0.055052, , 
39.45, 0.054792, , 
39.48, 0.054535, , 
39.51, 0.054357, , 
39.54, 0.054129, , 
39.57, 0.053917, , 
39.60, 0.053637, , 
39.63, 0.053453, , 
39.66, 0.053327, , 
39.69, 0.053101, , 
39.73, 0.052921, , 
39.75, 0.052727, , 
39.78, 0.052518, , 
39.81, 0.052337, , 
39.84, 0.052207, , 
39.87, 0.052055, , 
39.90, 0.051912, , 
39.93, 0.051766, , 
39.96, 0.051541, , 
39.99, 0.051395, , 
40.02, 0.051258, , 
40.05, 0.051144, , 
40.08, 0.050954, , 
40.11, 0.050843, , 
40.14, 0.050738, , 
40.17, 0.050526, , 
40.20, 0.050332, , 
40.23, 0.050247, , 
40.26, 0.050183, , 
40.29, 0.049987, , 
40.32, 0.049863, , 
40.35, 0.049742, , 
40.38, 0.049581, , 
40.41, 0.049441, , 
40.44, 0.049298, , 
40.47, 0.049200, , 
40.50, 0.049121, , 
40.53, 0.048965, , 
40.56, 0.048784, , 
40.59, 0.048699, , 
40.62, 0.048686, , 
40.65, 0.048635, , 
40.68, 0.048502, , 
40.71, 0.048410, , 
40.75, 0.048280, , 
40.77, 0.048169, , 
40.80, 0.048121, , 
40.83, 0.048090, , 
40.87, 0.047937, , 
40.89, 0.047798, , 
40.92, 0.047706, , 
40.95, 0.047700, , 
40.98, 0.047684, , 
41.01, 0.047646, , 
41.04, 0.047516, , 
41.07, 0.047367, , 
41.10, 0.047271, , 
41.13, 0.047176, , 
41.16, 0.047135, , 
41.19, 0.047129, , 
41.22, 0.047125, , 
41.25, 0.046989, , 
41.28, 0.046888, , 
41.31, 0.046843, , 
41.34, 0.046707, , 
41.38, 0.046599, , 
41.40, 0.046583, , 
41.43, 0.046567, , 
41.46, 0.046605, , 
41.49, 0.046583, , 
41.52, 0.046539, , 
41.55, 0.046561, , 
41.58, 0.046488, , 
41.59, 0.046491, 13, 0.587
41.61, 0.046453, , 
41.64, 0.046348, , 
41.67, 0.046272, , 
41.70, 0.046206, , 
41.73, 0.046088, , 
41.76, 0.046072, , 
41.79, 0.046082, , 
41.82, 0.046056, , 
41.85, 0.046056, , 
41.88, 0.046215, , 
41.91, 0.046313, , 
41.94, 0.046434, , 
41.97, 0.046431, , 
42.00, 0.046501, , 
42.03, 0.046567, , 
42.06, 0.046593, , 
42.09, 0.046510, , 
42.12, 0.046491, , 
42.15, 0.046564, , 
42.18, 0.046570, , 
42.21, 0.046504, , 
42.24, 0.046532, , 
42.27, 0.046593, , 
42.30, 0.046624, , 
42.33, 0.046713, , 
42.36, 0.046840, , 
42.39, 0.046954, , 
42.42, 0.047008, , 
42.45, 0.047018, , 
42.48, 0.047040, , 
42.51, 0.047173, , 
42.54, 0.047294, , 
42.57, 0.047417, , 
42.60, 0.047512, , 
42.63, 0.047633, , 
42.67, 0.047744, , 
42.69, 0.047839, , 
42.72, 0.048010, , 
42.75, 0.048163, , 
42.78, 0.048318, , 
42.81, 0.048464, , 
42.84, 0.048670, , 
42.87, 0.048835, , 
42.90, 0.049019, , 
42.93, 0.049175, , 
42.96, 0.049374, , 
42.99, 0.049523, , 
43.02, 0.049704, , 
43.05, 0.049898, , 
43.08, 0.050120, , 
43.12, 0.050402, , 
43.14, 0.050586, , 
43.17, 0.050881, , 
43.20, 0.051182, , 
43.23, 0.051500, , 
43.26, 0.051760, , 
43.29, 0.051940, , 
43.32, 0.052194, , 
43.35, 0.052407, , 
43.38, 0.052714, , 
43.41, 0.052974, , 
43.44, 0.053298, , 
43.47, 0.053590, , 
43.50, 0.053869, , 
43.53, 0.054193, , 
43.56, 0.054487, , 
43.59, 0.054802, , 
43.62, 0.055106, , 
43.65, 0.055382, , 
43.68, 0.055718, , 
43.71, 0.056121, , 
43.74, 0.056432, , 
43.77, 0.056733, , 
43.80, 0.057063, , 
43.83, 0.057469, , 
43.86, 0.057742, , 
43.89, 0.058224, , 
43.92, 0.058592, , 
43.95, 0.058874, , 
43.98, 0.059198, , 
44.01, 0.059582, , 
44.04, 0.059978, , 
44.07, 0.060289, , 
44.10, 0.060593, , 
44.13, 0.060920, , 
44.16, 0.061294, , 
44.19, 0.061631, , 
44.22, 0.061948, , 
44.25, 0.062278, , 
44.28, 0.062611, , 
44.31, 0.062922, , 
44.34, 0.063156, , 
44.37, 0.063502, , 
44.40, 0.063772, , 
44.43, 0.064019, , 
44.46, 0.064273, , 
44.49, 0.064508, , 
44.52, 0.064796, , 
44.55, 0.065018, , 
44.58, 0.065218, , 
44.61, 0.065421, , 
44.64, 0.065627, , 
44.67, 0.065830, , 
44.70, 0.065976, , 
44.73, 0.066163, , 
44.76, 0.066278, , 
44.79, 0.066331, 14, 0.584
44.79, 0.066341, , 
44.82, 0.066423, , 
44.85, 0.066449, , 
44.88, 0.066515, , 
44.91, 0.066519, , 
44.94, 0.066500, , 
44.97, 0.066525, , 
45.00, 0.066509, , 
45.03, 0.066477, , 
45.06, 0.066427, , 
45.09, 0.066427, , 
45.12, 0.066427, , 
45.15, 0.066278, , 
45.18, 0.066157, , 
45.21, 0.066071, , 
45.24, 0.065929, , 
45.27, 0.065716, , 
45.30, 0.065481, , 
45.33, 0.065278, , 
45.36, 0.065110, , 
45.39, 0.064869, , 
45.42, 0.064615, , 
45.45, 0.064432, , 
45.48, 0.064206, , 
45.51, 0.063975, , 
45.54, 0.063711, , 
45.57, 0.063480, , 
45.60, 0.063131, , 
45.63, 0.062846, , 
45.66, 0.062643, , 
45.69, 0.062262, , 
45.72, 0.061999, , 
45.75, 0.061688, , 
45.78, 0.061444, , 
45.81, 0.061247, , 
45.84, 0.060965, , 
45.87, 0.060689, , 
45.90, 0.060318, , 
45.93, 0.060042, , 
45.96, 0.059769, , 
45.99, 0.059433, , 
46.02, 0.059125, , 
46.05, 0.058808, , 
46.08, 0.058500, , 
46.12, 0.058230, , 
46.14, 0.057958, , 
46.17, 0.057691, , 
46.20, 0.057418, , 
46.23, 0.057082, , 
46.26, 0.056879, , 
46.29, 0.056578, , 
46.32, 0.056365, , 
46.35, 0.056077, , 
46.38, 0.055731, , 
46.41, 0.055560, , 
46.44, 0.055315, , 
46.47, 0.055046, , 
46.50, 0.054786, , 
46.53, 0.054592, , 
46.56, 0.054459, , 
46.59, 0.054275, , 
46.62, 0.054097, , 
46.65, 0.053913, , 
46.68, 0.053723, , 
46.71, 0.053472, , 
46.74, 0.053231, , 
46.77, 0.053035, , 
46.81, 0.052895, , 
46.83, 0.052749, , 
46.86, 0.052549, , 
46.89, 0.052457, , 
46.92, 0.052302, , 
46.95, 0.052070, , 
46.98, 0.051906, , 
47.01, 0.051725, , 
47.04, 0.051601, , 
47.07, 0.051471, , 
47.10, 0.051277, , 
47.13, 0.051135, , 
47.16, 0.051005, , 
47.19, 0.050852, , 
47.22, 0.050745, , 
47.25, 0.050615, , 
47.28, 0.050491, , 
47.31, 0.050402, , 
47.34, 0.050278, , 
47.37, 0.050155, , 
47.40, 0.049999, , 
47.43, 0.049869, , 
47.46, 0.049818, , 
47.49, 0.049774, , 
47.52, 0.049761, , 
47.55, 0.049726, , 
47.58, 0.049606, , 
47.61, 0.049546, , 
47.64, 0.049406, , 
47.67, 0.049295, , 
47.70, 0.049228, , 
47.73, 0.049282, , 
47.76, 0.049238, , 
47.79, 0.049162, , 
47.82, 0.049149, , 
47.85, 0.049171, , 
47.88, 0.049168, , 
47.91, 0.049124, , 
47.94, 0.049121, , 
47.97, 0.049184, , 
48.00, 0.049187, 15, 0.587
48.00, 0.049194, , 
48.03, 0.049105, , 
48.06, 0.049121, , 
48.09, 0.049152, , 
48.12, 0.049133, , 
48.15, 0.049146, , 
48.18, 0.049127, , 
48.21, 0.049130, , 
48.24, 0.049105, , 
48.27, 0.049086, , 
48.30, 0.049136, , 
48.33, 0.049200, , 
48.36, 0.049292, , 
48.39, 0.049403, , 
48.42, 0.049527, , 
48.45, 0.049577, , 
48.48, 0.049619, , 
48.51, 0.049615, , 
48.54, 0.049704, , 
48.57, 0.049860, , 
48.60, 0.049971, , 
48.63, 0.050021, , 
48.66, 0.050123, , 
48.69, 0.050354, , 
48.72, 0.050475, , 
48.75, 0.050583, , 
48.78, 0.050764, , 
48.81, 0.050932, , 
48.84, 0.051036, , 
48.87, 0.051182, , 
48.90, 0.051392, , 
48.93, 0.051652, , 
48.96, 0.051852, , 
48.99, 0.052039, , 
49.02, 0.052270, , 
49.05, 0.052473, , 
49.08, 0.052689, , 
49.11, 0.052898, , 
49.14, 0.053105, , 
49.17, 0.053419, , 
49.20, 0.053622, , 
49.23, 0.053831, , 
49.26, 0.054161, , 
49.29, 0.054484, , 
49.32, 0.054817, , 
49.35, 0.055147, , 
49.38, 0.055547, , 
49.41, 0.055867, , 
49.44, 0.056083, , 
49.47, 0.056438, , 
49.50, 0.056832, , 
49.53, 0.057317, , 
49.56, 0.057659, , 
49.59, 0.057939, , 
49.62, 0.058357, , 
49.65, 0.058567, , 
49.68, 0.059080, , 
49.71, 0.059486, , 
49.74, 0.059921, , 
49.77, 0.060470, , 
49.80, 0.060892, , 
49.83, 0.061377, , 
49.86, 0.061742, , 
49.89, 0.062214, , 
49.92, 0.062687, , 
49.95, 0.062969, , 
49.98, 0.063366, , 
50.01, 0.063711, , 
50.04, 0.064086, , 
50.07, 0.064492, , 
50.10, 0.064888, , 
50.13, 0.065326, , 
50.16, 0.065624, , 
50.19, 0.065938, , 
50.22, 0.066351, , 
50.25, 0.066652, , 
50.28, 0.066855, , 
50.31, 0.067134, , 
50.34, 0.067388, , 
50.37, 0.067629, , 
50.40, 0.067753, , 
50.43, 0.067892, , 
50.46, 0.068133, , 
50.49, 0.068244, , 
50.52, 0.068308, , 
50.55, 0.068346, , 
50.58, 0.068425, , 
50.61, 0.068438, , 
50.64, 0.068406, , 
50.68, 0.068450, , 
50.71, 0.068447, , 
50.73, 0.068434, , 
50.76, 0.068428, , 
50.79, 0.068438, , 
50.82, 0.068422, , 
50.85, 0.068323, , 
50.88, 0.068190, , 
50.91, 0.068067, , 
50.94, 0.067924, , 
50.97, 0.067699, , 
51.00, 0.067470, , 
51.03, 0.067270, , 
51.06, 0.067140, , 
51.09, 0.066988, , 
51.12, 0.066785, , 
51.15, 0.066623, , 
51.18, 0.066404, , 
51.19, 0.066265, 16, 0.585
51.21, 0.066075, , 
51.24, 0.065773, , 
51.27, 0.065459, , 
51.30, 0.065174, , 
51.33, 0.064933, , 
51.36, 0.064574, , 
51.39, 0.064311, , 
51.42, 0.064003, , 
51.45, 0.063670, , 
51.48, 0.063337, , 
51.51, 0.063033, , 
51.54, 0.062827, , 
51.57, 0.062481, , 
51.60, 0.062154, , 
51.63, 0.061916, , 
51.66, 0.061612, , 
51.69, 0.061256, , 
51.72, 0.060866, , 
51.75, 0.060635, , 
51.78, 0.060352, , 
51.81, 0.059946, , 
51.84, 0.059620, , 
51.87, 0.059347, , 
51.90, 0.059071, , 
51.93, 0.058751, , 
51.96, 0.058490, , 
51.99, 0.058221, , 
52.02, 0.057932, , 
52.05, 0.057701, , 
52.08, 0.057479, , 
52.11, 0.057222, , 
52.15, 0.057006, , 
52.17, 0.056730, , 
52.20, 0.056527, , 
52.23, 0.056362, , 
52.26, 0.056124, , 
52.29, 0.055915, , 
52.32, 0.055693, , 
52.35, 0.055579, , 
52.38, 0.055493, , 
52.41, 0.055293, , 
52.44, 0.055154, , 
52.47, 0.054979, , 
52.50, 0.054817, , 
52.53, 0.054649, , 
52.56, 0.054487, , 
52.59, 0.054411, , 
52.62, 0.054357, , 
52.65, 0.054202, , 
52.68, 0.054145, , 
52.71, 0.054062, , 
52.74, 0.053939, , 
52.77, 0.053821, , 
52.80, 0.053714, , 
52.83, 0.053710, , 
52.86, 0.053723, , 
52.89, 0.053701, , 
52.92, 0.053698, , 
52.95, 0.053698, , 
52.98, 0.053691, , 
53.01, 0.053723, , 
53.04, 0.053672, , 
53.07, 0.053723, , 
53.10, 0.053755, , 
53.13, 0.053812, , 
53.16, 0.053923, , 
53.19, 0.054066, , 
53.22, 0.054123, , 
53.25, 0.054135, , 
53.28, 0.054227, , 
53.31, 0.054345, , 
53.34, 0.054503, , 
53.37, 0.054595, , 
53.40, 0.054827, , 
53.43, 0.054995, , 
53.46, 0.055122, , 
53.49, 0.055230, , 
53.52, 0.055372, , 
53.55, 0.055614, , 
53.58, 0.055823, , 
53.61, 0.055997, , 
53.64, 0.056305, , 
53.67, 0.056492, , 
53.70, 0.056695, , 
53.73, 0.056895, , 
53.76, 0.057149, , 
53.79, 0.057422, , 
53.82, 0.057631, , 
53.85, 0.057939, , 
53.88, 0.058205, , 
53.91, 0.058503, , 
53.94, 0.058766, , 
53.97, 0.059074, , 
54.00, 0.059360, , 
54.03, 0.059762, , 
54.06, 0.060054, , 
54.09, 0.060314, , 
54.12, 0.060600, , 
54.15, 0.060917, , 
54.18, 0.061206, , 
54.21, 0.061494, , 
54.24, 0.061843, , 
54.27, 0.062287, , 
54.30, 0.062592, , 
54.33, 0.062852, , 
54.36, 0.063245, , 
54.39, 0.063566, 17, 0.585
54.40, 0.063629, , 
54.42, 0.063949, , 
54.45, 0.064251, , 
54.48, 0.064574, , 
54.51, 0.064872, , 
54.54, 0.065120, , 
54.57, 0.065370, , 
54.60, 0.065631, , 
54.63, 0.065922, , 
54.66, 0.066176, , 
54.69, 0.066357, , 
54.72, 0.066703, , 
54.75, 0.066858, , 
54.78, 0.066928, , 
54.81, 0.067096, , 
54.84, 0.067331, , 
54.87, 0.067524, , 
54.90, 0.067635, , 
54.93, 0.067753, , 
54.96, 0.067930, , 
54.99, 0.068025, , 
55.02, 0.068035, , 
55.05, 0.068067, , 
55.08, 0.068222, , 
55.11, 0.068349, , 
55.14, 0.068479, , 
55.17, 0.068514, , 
55.20, 0.068533, , 
55.23, 0.068530, , 
55.26, 0.068431, , 
55.29, 0.068298, , 
55.32, 0.068200, , 
55.35, 0.068143, , 
55.38, 0.068108, , 
55.41, 0.068016, , 
55.44, 0.067876, , 
55.47, 0.067737, , 
55.50, 0.067584, , 
55.53, 0.067451, , 
55.56, 0.067302, , 
55.59, 0.067080, , 
55.62, 0.066864, , 
55.65, 0.066690, , 
55.68, 0.066547, , 
55.71, 0.066414, , 
55.74, 0.066160, , 
55.77, 0.065960, , 
55.80, 0.065748, , 
55.83, 0.065507, , 
55.86, 0.065291, , 
55.89, 0.065075, , 
55.92, 0.064860, , 
55.95, 0.064638, , 
55.98, 0.064419, , 
56.01, 0.064175, , 
56.04, 0.063991, , 
56.07, 0.063721, , 
56.10, 0.063416, , 
56.13, 0.063147, , 
56.16, 0.062890, , 
56.19, 0.062582, , 
56.22, 0.062329, , 
56.25, 0.062103, , 
56.28, 0.061919, , 
56.31, 0.061767, , 
56.34, 0.061583, , 
56.37, 0.061409, , 
56.40, 0.061206, , 
56.43, 0.060980, , 
56.46, 0.060749, , 
56.49, 0.060543, , 
56.52, 0.060397, , 
56.55, 0.060203, , 
56.58, 0.060013, , 
56.61, 0.059867, , 
56.64, 0.059794, , 
56.67, 0.059705, , 
56.70, 0.059540, , 
56.73, 0.059382, , 
56.76, 0.059318, , 
56.79, 0.059188, , 
56.82, 0.059131, , 
56.85, 0.059141, , 
56.88, 0.059160, , 
56.91, 0.059122, , 
56.94, 0.059125, , 
56.97, 0.059138, , 
57.00, 0.059122, , 
57.03, 0.059093, , 
57.06, 0.059049, , 
57.09, 0.059071, , 
57.12, 0.059077, , 
57.15, 0.059087, , 
57.18, 0.059074, , 
57.21, 0.059093, , 
57.24, 0.059169, , 
57.27, 0.059255, , 
57.30, 0.059353, , 
57.33, 0.059436, , 
57.36, 0.059518, , 
57.39, 0.059632, , 
57.42, 0.059753, , 
57.45, 0.059889, , 
57.48, 0.060035, , 
57.51, 0.060200, , 
57.54, 0.060365, , 
57.57, 0.060549, , 
57.59, 0.060657, 18, 0.585
57.60, 0.060727, , 
57.63, 0.060869, , 
57.66, 0.061117, , 
57.69, 0.061291, , 
57.72, 0.061542, , 
57.75, 0.061735, , 
57.78, 0.061951, , 
57.81, 0.062249, , 
57.84, 0.062446, , 
57.87, 0.062693, , 
57.90, 0.062893, , 
57.93, 0.063141, , 
57.96, 0.063401, , 
57.99, 0.063613, , 
58.02, 0.063991, , 
58.06, 0.064301, , 
58.08, 0.064498, , 
58.11, 0.064726, , 
58.14, 0.064952, , 
58.17, 0.065313, , 
58.20, 0.065599, , 
58.23, 0.065834, , 
58.26, 0.066065, , 
58.29, 0.066316, , 
58.32, 0.066582, , 
58.35, 0.066763, , 
58.38, 0.066972, , 
58.41, 0.067280, , 
58.44, 0.067467, , 
58.47, 0.067680, , 
58.50, 0.067867, , 
58.53, 0.068028, , 
58.56, 0.068219, , 
58.59, 0.068374, , 
58.62, 0.068463, , 
58.65, 0.068644, , 
58.68, 0.068758, , 
58.71, 0.068885, , 
58.75, 0.068986, , 
58.77, 0.069078, , 
58.80, 0.069139, , 
58.83, 0.069231, , 
58.86, 0.069342, , 
58.89, 0.069519, , 
58.92, 0.069611, , 
58.95, 0.069605, , 
58.98, 0.069614, , 
59.01, 0.069675, , 
59.04, 0.069614, , 
59.07, 0.069472, , 
59.10, 0.069329, , 
59.13, 0.069250, , 
59.16, 0.069208, , 
59.19, 0.069126, , 
59.22, 0.069056, , 
59.25, 0.068910, , 
59.28, 0.068783, , 
59.31, 0.068729, , 
59.34, 0.068599, , 
59.37, 0.068488, , 
59.40, 0.068320, , 
59.43, 0.068171, , 
59.46, 0.068048, , 
59.49, 0.067927, , 
59.52, 0.067759, , 
59.55, 0.067534, , 
59.58, 0.067400, , 
59.61, 0.067312, , 
59.64, 0.067105, , 
59.67, 0.066960, , 
59.70, 0.066807, , 
59.73, 0.066760, , 
59.76, 0.066630, , 
59.79, 0.066496, , 
59.82, 0.066379, , 
59.85, 0.066252, , 
59.88, 0.066192, , 
59.91, 0.066078, , 
59.94, 0.065894, , 
59.98, 0.065761, , 
60.00, 0.065656, , 
60.03, 0.065596, , 
60.06, 0.065634, , 
60.09, 0.065605, , 
60.12, 0.065529, , 
60.15, 0.065361, , 
60.19, 0.065266, , 
60.21, 0.065212, , 
60.24, 0.065133, , 
60.27, 0.065088, , 
60.30, 0.065091, , 
60.33, 0.065079, , 
60.36, 0.065041, , 
60.39, 0.065031, , 
60.42, 0.065053, , 
60.45, 0.065079, , 
60.48, 0.065012, , 
60.51, 0.065041, , 
60.54, 0.065180, , 
60.57, 0.065285, , 
60.60, 0.065342, , 
60.63, 0.065389, , 
60.66, 0.065462, , 
60.69, 0.065561, , 
60.72, 0.065675, , 
60.75, 0.065770, , 
60.78, 0.065957, 19, 0.585
60.79, 0.065986, , 
60.81, 0.066144, , 
60.85, 0.066281, , 
60.87, 0.066436, , 
60.90, 0.066636, , 
60.93, 0.066833, , 
60.96, 0.066988, , 
60.99, 0.067163, , 
61.02, 0.067391, , 
61.05, 0.067581, , 
61.08, 0.067813, , 
61.11, 0.068032, , 
61.14, 0.068295, , 
61.17, 0.068530, , 
61.20, 0.068682, , 
61.23, 0.068904, , 
61.26, 0.069078, , 
61.29, 0.069227, , 
61.32, 0.069424, , 
61.35, 0.069627, , 
61.38, 0.069824, , 
61.41, 0.070001, , 
61.44, 0.070185, , 
61.47, 0.070319, , 
61.50, 0.070452, , 
61.53, 0.070626, , 
61.56, 0.070753, , 
61.59, 0.070883, , 
61.62, 0.070978, , 
61.65, 0.071137, , 
61.68, 0.071216, , 
61.71, 0.071340, , 
61.74, 0.071454, , 
61.77, 0.071505, , 
61.80, 0.071476, , 
61.83, 0.071467, , 
61.86, 0.071537, , 
61.89, 0.071518, , 
61.92, 0.071464, , 
61.95, 0.071473, , 
61.98, 0.071553, , 
62.01, 0.071540, , 
62.04, 0.071499, , 
62.07, 0.071505, , 
62.10, 0.071524, , 
62.13, 0.071553, , 
62.16, 0.071489, , 
62.19, 0.071448, , 
62.22, 0.071349, , 
62.25, 0.071245, , 
62.28, 0.071083, , 
62.31, 0.071064, , 
62.34, 0.071105, , 
62.37, 0.071055, , 
62.40, 0.070969, , 
62.43, 0.070950, , 
62.46, 0.070852, , 
62.49, 0.070734, , 
62.52, 0.070623, , 
62.55, 0.070576, , 
62.58, 0.070522, , 
62.61, 0.070376, , 
62.64, 0.070252, , 
62.67, 0.070192, , 
62.70, 0.070151, , 
62.73, 0.070119, , 
62.76, 0.070128, , 
62.79, 0.070163, , 
62.82, 0.070160, , 
62.85, 0.070125, , 
62.88, 0.070122, , 
62.91, 0.070106, , 
62.94, 0.070116, , 
62.97, 0.070112, , 
63.00, 0.070074, , 
63.03, 0.070119, , 
63.06, 0.070173, , 
63.09, 0.070192, , 
63.12, 0.070249, , 
63.15, 0.070363, , 
63.18, 0.070522, , 
63.21, 0.070560, , 
63.24, 0.070515, , 
63.27, 0.070557, , 
63.30, 0.070585, , 
63.33, 0.070658, , 
63.36, 0.070725, , 
63.39, 0.070829, , 
63.42, 0.070991, , 
63.45, 0.071020, , 
63.48, 0.071083, , 
63.51, 0.071315, , 
63.54, 0.071467, , 
63.57, 0.071587, , 
63.60, 0.071648, , 
63.63, 0.071870, , 
63.66, 0.072009, , 
63.69, 0.072057, , 
63.72, 0.072215, , 
63.75, 0.072349, , 
63.78, 0.072444, , 
63.81, 0.072460, , 
63.84, 0.072552, , 
63.87, 0.072755, , 
63.90, 0.072904, , 
63.93, 0.073012, , 
63.96, 0.073148, , 
63.99, 0.073345, 20, 0.587
64.00, 0.073367, , 
64.02, 0.073421, , 
64.05, 0.073456, , 
64.08, 0.073459, , 
64.11, 0.073487, , 
64.14, 0.073503, , 
64.17, 0.073449, , 
64.20, 0.073414, , 
64.23, 0.073414, , 
64.26, 0.073380, , 
64.29, 0.073430, , 
64.32, 0.073459, , 
64.35, 0.073443, , 
64.38, 0.073472, , 
64.41, 0.073456, , 
64.44, 0.073414, , 
64.47, 0.073459, , 
64.50, 0.073484, , 
64.53, 0.073418, , 
64.56, 0.073319, , 
64.59, 0.073240, , 
64.62, 0.073148, , 
64.65, 0.073043, , 
64.68, 0.073005, , 
64.71, 0.072999, , 
64.74, 0.072967, , 
64.77, 0.072913, , 
64.80, 0.072916, , 
64.83, 0.072964, , 
64.86, 0.072974, , 
64.89, 0.072920, , 
64.92, 0.072907, , 
64.95, 0.072935, , 
64.98, 0.072932, , 
65.02, 0.072901, , 
65.04, 0.072894, , 
65.07, 0.072904, , 
65.10, 0.072916, , 
65.13, 0.072894, , 
65.16, 0.072923, , 
65.19, 0.072993, , 
65.22, 0.072929, , 
65.25, 0.072929, , 
65.28, 0.072926, , 
65.31, 0.072980, , 
65.34, 0.072980, , 
65.37, 0.072910, , 
65.40, 0.072897, , 
65.43, 0.072942, , 
65.46, 0.072999, , 
65.49, 0.072974, , 
65.52, 0.072970, , 
65.55, 0.073132, , 
65.58, 0.073243, , 
65.61, 0.073300, , 
65.64, 0.073427, , 
65.67, 0.073481, , 
65.70, 0.073535, , 
65.73, 0.073659, , 
65.76, 0.073792, , 
65.79, 0.073935, , 
65.82, 0.073995, , 
65.85, 0.073992, , 
65.88, 0.074109, , 
65.91, 0.074284, , 
65.94, 0.074366, , 
65.97, 0.074414, , 
66.00, 0.074445, , 
66.03, 0.074452, , 
66.06, 0.074468, , 
66.09, 0.074420, , 
66.12, 0.074429, , 
66.15, 0.074502, , 
66.19, 0.074445, , 
66.21, 0.074401, , 
66.24, 0.074442, , 
66.27, 0.074464, , 
66.30, 0.074436, , 
66.33, 0.074369, , 
66.36, 0.074366, , 
66.39, 0.074398, , 
66.42, 0.074414, , 
66.45, 0.074423, , 
66.48, 0.074401, , 
66.51, 0.074417, , 
66.54, 0.074388, , 
66.57, 0.074293, , 
66.60, 0.074169, , 
66.63, 0.074039, , 
66.66, 0.073947, , 
66.69, 0.073912, , 
66.72, 0.073935, , 
66.75, 0.073970, , 
66.78, 0.073893, , 
66.81, 0.073757, , 
66.84, 0.073627, , 
66.87, 0.073551, , 
66.90, 0.073494, , 
66.93, 0.073459, , 
66.96, 0.073446, , 
66.99, 0.073452, , 
67.02, 0.073424, , 
67.05, 0.073326, , 
67.08, 0.073218, , 
67.11, 0.073119, , 
67.14, 0.073015, , 
67.17, 0.072986, , 
67.19, 0.072954, 21, 0.586
67.20, 0.072939, , 
67.23, 0.072958, , 
67.26, 0.072951, , 
67.29, 0.072942, , 
67.32, 0.072974, , 
67.35, 0.073005, , 
67.38, 0.072989, , 
67.41, 0.072951, , 
67.44, 0.072964, , 
67.47, 0.072948, , 
67.50, 0.072945, , 
67.53, 0.072913, , 
67.56, 0.072958, , 
67.59, 0.073132, , 
67.62, 0.073234, , 
67.65, 0.073288, , 
67.68, 0.073361, , 
67.71, 0.073440, , 
67.74, 0.073424, , 
67.77, 0.073399, , 
67.80, 0.073418, , 
67.83, 0.073446, , 
67.86, 0.073383, , 
67.89, 0.073373, , 
67.92, 0.073399, , 
67.95, 0.073395, , 
67.98, 0.073414, , 
68.01, 0.073392, , 
68.04, 0.073411, , 
68.07, 0.073433, , 
68.10, 0.073373, , 
68.13, 0.073376, , 
68.16, 0.073341, , 
68.19, 0.073237, , 
68.22, 0.073107, , 
68.25, 0.072996, , 
68.28, 0.072961, , 
68.31, 0.072932, , 
68.34, 0.072920, , 
68.37, 0.072920, , 
68.40, 0.072923, , 
68.43, 0.072843, , 
68.46, 0.072701, , 
68.49, 0.072574, , 
68.52, 0.072517, , 
68.55, 0.072507, , 
68.58, 0.072434, , 
68.61, 0.072323, , 
68.64, 0.072263, , 
68.67, 0.072146, , 
68.70, 0.072022, , 
68.73, 0.071990, , 
68.76, 0.071990, , 
68.79, 0.071978, , 
68.82, 0.071920, , 
68.85, 0.071854, , 
68.88, 0.071841, , 
68.91, 0.071714, , 
68.94, 0.071594, , 
68.97, 0.071502, , 
69.00, 0.071483, , 
69.03, 0.071492, , 
69.06, 0.071441, , 
69.09, 0.071378, , 
69.12, 0.071470, , 
69.15, 0.071435, , 
69.18, 0.071334, , 
69.21, 0.071172, , 
69.24, 0.071115, , 
69.27, 0.071055, , 
69.30, 0.071001, , 
69.33, 0.070966, , 
69.36, 0.070969, , 
69.39, 0.070953, , 
69.42, 0.070943, , 
69.45, 0.070956, , 
69.48, 0.071007, , 
69.51, 0.071013, , 
69.54, 0.070972, , 
69.57, 0.070972, , 
69.60, 0.070985, , 
69.63, 0.070934, , 
69.66, 0.070775, , 
69.69, 0.070664, , 
69.72, 0.070585, , 
69.75, 0.070544, , 
69.78, 0.070480, , 
69.81, 0.070420, , 
69.84, 0.070379, , 
69.87, 0.070242, , 
69.90, 0.070112, , 
69.93, 0.070043, , 
69.96, 0.070020, , 
69.99, 0.069989, , 
70.02, 0.069948, , 
70.05, 0.069922, , 
70.08, 0.069817, , 
70.11, 0.069684, , 
70.14, 0.069529, , 
70.17, 0.069491, , 
70.20, 0.069529, , 
70.23, 0.069516, , 
70.26, 0.069469, , 
70.29, 0.069408, , 
70.32, 0.069297, , 
70.35, 0.069155, , 
70.38, 0.069028, , 
70.39, 0.069005, 22, 0.584
70.41, 0.068967, , 
70.44, 0.069028, , 
70.47, 0.069009, , 
70.50, 0.068948, , 
70.53, 0.068872, , 
70.56, 0.068774, , 
70.59, 0.068634, , 
70.62, 0.068552, , 
70.65, 0.068530, , 
70.68, 0.068523, , 
70.71, 0.068488, , 
70.74, 0.068419, , 
70.77, 0.068323, , 
70.80, 0.068178, , 
70.83, 0.068111, , 
70.86, 0.068070, , 
70.89, 0.068022, , 
70.92, 0.068003, , 
70.95, 0.067965, , 
70.98, 0.067968, , 
71.01, 0.067933, , 
71.04, 0.067822, , 
71.07, 0.067714, , 
71.10, 0.067559, , 
71.13, 0.067553, , 
71.16, 0.067572, , 
71.19, 0.067499, , 
71.22, 0.067445, , 
71.25, 0.067442, , 
71.28, 0.067496, , 
71.31, 0.067432, , 
71.34, 0.067255, , 
71.37, 0.067156, , 
71.40, 0.067102, , 
71.43, 0.066991, , 
71.46, 0.066988, , 
71.49, 0.066956, , 
71.52, 0.066960, , 
71.55, 0.066953, , 
71.58, 0.066969, , 
71.61, 0.066966, , 
71.64, 0.066890, , 
71.67, 0.066753, , 
71.70, 0.066652, , 
71.73, 0.066604, , 
71.76, 0.066573, , 
71.79, 0.066490, , 
71.82, 0.066468, , 
71.85, 0.066477, , 
71.88, 0.066360, , 
71.91, 0.066252, , 
71.94, 0.066097, , 
71.97, 0.066081, , 
72.00, 0.066097, , 
72.03, 0.066033, , 
72.06, 0.065935, , 
72.09, 0.065786, , 
72.12, 0.065691, , 
72.15, 0.065611, , 
72.18, 0.065516, , 
72.21, 0.065567, , 
72.24, 0.065583, , 
72.27, 0.065494, , 
72.30, 0.065377, , 
72.33, 0.065240, , 
72.36, 0.065218, , 
72.39, 0.065129, , 
72.42, 0.065056, , 
72.45, 0.065066, , 
72.48, 0.065050, , 
72.51, 0.064987, , 
72.54, 0.064968, , 
72.57, 0.064904, , 
72.60, 0.064774, , 
72.63, 0.064660, , 
72.66, 0.064628, , 
72.69, 0.064612, , 
72.72, 0.064539, , 
72.75, 0.064476, , 
72.78, 0.064295, , 
72.81, 0.064213, , 
72.84, 0.064152, , 
72.87, 0.064079, , 
72.90, 0.064006, , 
72.93, 0.063908, , 
72.96, 0.063794, , 
72.99, 0.063683, , 
73.02, 0.063572, , 
73.05, 0.063537, , 
73.08, 0.063524, , 
73.11, 0.063493, , 
73.14, 0.063286, , 
73.17, 0.063210, , 
73.20, 0.063137, , 
73.23, 0.063042, , 
73.26, 0.063020, , 
73.29, 0.063077, , 
73.32, 0.063074, , 
73.35, 0.063030, , 
73.38, 0.062884, , 
73.41, 0.062773, , 
73.44, 0.062668, , 
73.47, 0.062582, , 
73.50, 0.062535, , 
73.53, 0.062592, , 
73.56, 0.062563, , 
73.59, 0.062525, 23, 0.586
73.60, 0.062516, , 
73.62, 0.062509, , 
73.65, 0.062452, , 
73.68, 0.062294, , 
73.71, 0.062173, , 
73.74, 0.062132, , 
73.77, 0.062106, , 
73.80, 0.062110, , 
73.83, 0.062018, , 
73.86, 0.061891, , 
73.89, 0.061783, , 
73.92, 0.061678, , 
73.95, 0.061561, , 
73.98, 0.061555, , 
74.01, 0.061564, , 
74.04, 0.061567, , 
74.07, 0.061482, , 
74.10, 0.061418, , 
74.13, 0.061336, , 
74.16, 0.061196, , 
74.19, 0.061104, , 
74.22, 0.061104, , 
74.25, 0.061130, , 
74.28, 0.061107, , 
74.31, 0.061038, , 
74.34, 0.061031, , 
74.37, 0.061041, , 
74.40, 0.060946, , 
74.43, 0.060781, , 
74.46, 0.060708, , 
74.49, 0.060692, , 
74.52, 0.060616, , 
74.55, 0.060565, , 
74.58, 0.060632, , 
74.61, 0.060622, , 
74.64, 0.060524, , 
74.67, 0.060346, , 
74.70, 0.060241, , 
74.73, 0.060203, , 
74.76, 0.060137, , 
74.79, 0.060102, , 
74.82, 0.060111, , 
74.85, 0.060048, , 
74.88, 0.059864, , 
74.91, 0.059715, , 
74.94, 0.059670, , 
74.97, 0.059601, , 
75.00, 0.059553, , 
75.03, 0.059496, , 
75.06, 0.059426, , 
75.09, 0.059350, , 
75.12, 0.059211, , 
75.15, 0.059134, , 
75.18, 0.059141, , 
75.21, 0.059134, , 
75.25, 0.059017, , 
75.27, 0.058830, , 
75.30, 0.058773, , 
75.33, 0.058725, , 
75.36, 0.058678, , 
75.39, 0.058652, , 
75.42, 0.058608, , 
75.46, 0.058608, , 
75.48, 0.058567, , 
75.51, 0.058468, , 
75.54, 0.058370, , 
75.57, 0.058268, , 
75.60, 0.058138, , 
75.63, 0.058081, , 
75.66, 0.058027, , 
75.69, 0.057951, , 
75.72, 0.057834, , 
75.75, 0.057682, , 
75.78, 0.057628, , 
75.81, 0.057644, , 
75.84, 0.057564, , 
75.87, 0.057472, , 
75.90, 0.057425, , 
75.93, 0.057307, , 
75.96, 0.057168, , 
75.99, 0.057101, , 
76.02, 0.057108, , 
76.05, 0.057066, , 
76.08, 0.056965, , 
76.11, 0.056806, , 
76.14, 0.056711, , 
76.17, 0.056613, , 
76.20, 0.056594, , 
76.23, 0.056575, , 
76.26, 0.056587, , 
76.29, 0.056527, , 
76.32, 0.056365, , 
76.35, 0.056264, , 
76.38, 0.056229, , 
76.41, 0.056159, , 
76.44, 0.056099, , 
76.47, 0.056092, , 
76.50, 0.056131, , 
76.53, 0.056137, , 
76.56, 0.056115, , 
76.59, 0.056001, , 
76.62, 0.055864, , 
76.65, 0.055750, , 
76.68, 0.055664, , 
76.71, 0.055617, , 
76.74, 0.055626, , 
76.77, 0.055588, , 
76.79, 0.055522, 24, 0.585
76.80, 0.055445, , 
76.83, 0.055306, , 
76.86, 0.055236, , 
76.89, 0.055192, , 
76.92, 0.055081, , 
76.95, 0.055068, , 
76.98, 0.055103, , 
77.01, 0.054998, , 
77.04, 0.054862, , 
77.07, 0.054773, , 
77.10, 0.054694, , 
77.13, 0.054633, , 
77.16, 0.054627, , 
77.19, 0.054627, , 
77.22, 0.054614, , 
77.25, 0.054497, , 
77.28, 0.054319, , 
77.31, 0.054227, , 
77.34, 0.054183, , 
77.37, 0.054129, , 
77.40, 0.054081, , 
77.43, 0.054104, , 
77.46, 0.054091, , 
77.49, 0.054088, , 
77.52, 0.053920, , 
77.55, 0.053802, , 
77.58, 0.053698, , 
77.61, 0.053615, , 
77.64, 0.053587, , 
77.67, 0.053631, , 
77.70, 0.053593, , 
77.73, 0.053526, , 
77.76, 0.053409, , 
77.79, 0.053295, , 
77.82, 0.053244, , 
77.85, 0.053155, , 
77.88, 0.053120, , 
77.91, 0.053105, , 
77.94, 0.053060, , 
77.97, 0.052959, , 
78.00, 0.052844, , 
78.03, 0.052778, , 
78.06, 0.052692, , 
78.09, 0.052626, , 
78.12, 0.052613, , 
78.16, 0.052546, , 
78.18, 0.052473, , 
78.21, 0.052277, , 
78.24, 0.052204, , 
78.27, 0.052181, , 
78.30, 0.052143, , 
78.33, 0.052093, , 
78.36, 0.052032, , 
78.39, 0.051944, , 
78.42, 0.051845, , 
78.45, 0.051690, , 
78.48, 0.051582, , 
78.51, 0.051604, , 
78.54, 0.051563, , 
78.57, 0.051446, , 
78.60, 0.051338, , 
78.63, 0.051243, , 
78.66, 0.051182, , 
78.69, 0.051138, , 
78.72, 0.051071, , 
78.75, 0.051065, , 
78.78, 0.051005, , 
78.81, 0.050859, , 
78.84, 0.050716, , 
78.87, 0.050694, , 
78.90, 0.050675, , 
78.93, 0.050576, , 
78.96, 0.050570, , 
78.99, 0.050630, , 
79.02, 0.050608, , 
79.05, 0.050450, , 
79.08, 0.050370, , 
79.11, 0.050297, , 
79.14, 0.050212, , 
79.17, 0.050123, , 
79.20, 0.050120, , 
79.23, 0.050161, , 
79.26, 0.050148, , 
79.29, 0.050079, , 
79.32, 0.049987, , 
79.35, 0.049891, , 
79.38, 0.049787, , 
79.41, 0.049657, , 
79.44, 0.049622, , 
79.47, 0.049603, , 
79.50, 0.049593, , 
79.53, 0.049612, , 
79.56, 0.049539, , 
79.59, 0.049428, , 
79.62, 0.049314, , 
79.65, 0.049213, , 
79.68, 0.049178, , 
79.71, 0.049165, , 
79.74, 0.049108, , 
79.77, 0.049121, , 
79.81, 0.049133, , 
79.83, 0.049121, , 
79.86, 0.049108, , 
79.89, 0.049060, , 
79.92, 0.049051, , 
79.95, 0.048978, , 
79.98, 0.048857, , 
79.99, 0.048848, 25, 0.585
80.01, 0.048800, , 
80.04, 0.048715, , 
80.07, 0.048657, , 
80.10, 0.048619, , 
80.13, 0.048632, , 
80.16, 0.048661, , 
80.19, 0.048607, , 
80.23, 0.048585, , 
80.25, 0.048486, , 
80.28, 0.048432, , 
80.31, 0.048331, , 
80.34, 0.048204, , 
80.37, 0.048121, , 
80.40, 0.048134, , 
80.43, 0.048140, , 
80.46, 0.048052, , 
80.49, 0.047995, , 
80.52, 0.047909, , 
80.55, 0.047782, , 
80.58, 0.047646, , 
80.61, 0.047611, , 
80.64, 0.047573, , 
80.67, 0.047585, , 
80.70, 0.047579, , 
80.73, 0.047512, , 
80.76, 0.047436, , 
80.79, 0.047367, , 
80.82, 0.047176, , 
80.85, 0.047122, , 
80.88, 0.047116, , 
80.91, 0.047125, , 
80.94, 0.047084, , 
80.98, 0.047094, , 
81.00, 0.047097, , 
81.03, 0.047100, , 
81.06, 0.047008, , 
81.09, 0.046932, , 
81.12, 0.046805, , 
81.15, 0.046685, , 
81.18, 0.046615, , 
81.21, 0.046608, , 
81.24, 0.046624, , 
81.27, 0.046574, , 
81.30, 0.046551, , 
81.33, 0.046558, , 
81.36, 0.046564, , 
81.39, 0.046535, , 
81.43, 0.046396, , 
81.45, 0.046339, , 
81.48, 0.046225, , 
81.51, 0.046155, , 
81.54, 0.046107, , 
81.57, 0.046101, , 
81.60, 0.046120, , 
81.64, 0.046098, , 
81.66, 0.045993, , 
81.69, 0.045882, , 
81.72, 0.045758, , 
81.75, 0.045660, , 
81.78, 0.045581, , 
81.81, 0.045609, , 
81.84, 0.045641, , 
81.87, 0.045606, , 
81.90, 0.045558, , 
81.93, 0.045600, , 
81.96, 0.045600, , 
81.99, 0.045543, , 
82.02, 0.045517, , 
82.05, 0.045489, , 
82.08, 0.045400, , 
82.11, 0.045273, , 
82.14, 0.045149, , 
82.17, 0.045095, , 
82.20, 0.045111, , 
82.23, 0.045089, , 
82.26, 0.045073, , 
82.29, 0.045048, , 
82.32, 0.045054, , 
82.35, 0.045041, , 
82.38, 0.045054, , 
82.41, 0.045118, , 
82.44, 0.045089, , 
82.47, 0.045061, , 
82.50, 0.045048, , 
82.53, 0.045061, , 
82.56, 0.044934, , 
82.59, 0.044785, , 
82.62, 0.044699, , 
82.65, 0.044626, , 
82.68, 0.044601, , 
82.71, 0.044531, , 
82.74, 0.044521, , 
82.77, 0.044575, , 
82.80, 0.044559, , 
82.83, 0.044499, , 
82.86, 0.044563, , 
82.89, 0.044569, , 
82.92, 0.044547, , 
82.95, 0.044515, , 
82.98, 0.044502, , 
83.01, 0.044537, , 
83.04, 0.044528, , 
83.07, 0.044540, , 
83.10, 0.044534, , 
83.13, 0.044563, , 
83.16, 0.044528, , 
83.19, 0.044534, 26, 0.586
83.19, 0.044531, , 
83.22, 0.044547, , 
83.25, 0.044534, , 
83.28, 0.044471, , 
83.31, 0.044410, , 
83.34, 0.044280, , 
83.37, 0.044210, , 
83.40, 0.044137, , 
83.43, 0.044061, , 
83.46, 0.044020, , 
83.49, 0.044020, , 
83.52, 0.044004, , 
83.55, 0.043979, , 
83.58, 0.044007, , 
83.61, 0.044061, , 
83.64, 0.044014, , 
83.67, 0.044001, , 
83.70, 0.044011, , 
83.73, 0.043988, , 
83.76, 0.043992, , 
83.79, 0.043973, , 
83.82, 0.043998, , 
83.85, 0.044030, , 
83.88, 0.043925, , 
83.91, 0.043795, , 
83.94, 0.043712, , 
83.97, 0.043627, , 
84.00, 0.043570, , 
84.03, 0.043522, , 
84.06, 0.043522, , 
84.10, 0.043547, , 
84.12, 0.043513, , 
84.15, 0.043509, , 
84.18, 0.043503, , 
84.21, 0.043538, , 
84.24, 0.043503, , 
84.27, 0.043516, , 
84.30, 0.043528, , 
84.33, 0.043560, , 
84.36, 0.043513, , 
84.39, 0.043497, , 
84.42, 0.043535, , 
84.45, 0.043547, , 
84.48, 0.043484, , 
84.51, 0.043503, , 
84.54, 0.043497, , 
84.57, 0.043475, , 
84.60, 0.043436, , 
84.63, 0.043487, , 
84.66, 0.043522, , 
84.69, 0.043513, , 
84.72, 0.043475, , 
84.75, 0.043490, , 
84.78, 0.043522, , 
84.81, 0.043522, , 
84.84, 0.043468, , 
84.87, 0.043497, , 
84.90, 0.043509, , 
84.93, 0.043509, , 
84.96, 0.043516, , 
84.99, 0.043459, , 
85.02, 0.043405, , 
85.05, 0.043281, , 
85.08, 0.043164, , 
85.11, 0.043119, , 
85.14, 0.043043, , 
85.17, 0.043011, , 
85.20, 0.042964, , 
85.23, 0.042980, , 
85.26, 0.043040, , 
85.30, 0.043021, , 
85.32, 0.042951, , 
85.35, 0.042992, , 
85.38, 0.043027, , 
85.41, 0.043015, , 
85.44, 0.043021, , 
85.47, 0.043037, , 
85.50, 0.043088, , 
85.53, 0.043018, , 
85.56, 0.043011, , 
85.59, 0.043034, , 
85.62, 0.043034, , 
85.65, 0.042967, , 
85.68, 0.042973, , 
85.71, 0.043053, , 
85.74, 0.043037, , 
85.77, 0.042992, , 
85.80, 0.042951, , 
85.83, 0.043008, , 
85.86, 0.043037, , 
85.89, 0.043024, , 
85.92, 0.042948, , 
85.95, 0.043021, , 
85.98, 0.043040, , 
86.01, 0.043015, , 
86.04, 0.042996, , 
86.07, 0.043005, , 
86.10, 0.043027, , 
86.13, 0.043021, , 
86.16, 0.043015, , 
86.19, 0.043053, , 
86.22, 0.043021, , 
86.25, 0.042986, , 
86.28, 0.042954, , 
86.31, 0.042973, , 
86.34, 0.042970, , 
86.37, 0.042951, , 
86.39, 0.042970, 27, 0.586
86.40, 0.043018, , 
86.43, 0.043053, , 
86.46, 0.043027, , 
86.49, 0.042881, , 
86.52, 0.042805, , 
86.55, 0.042628, , 
86.58, 0.042539, , 
86.61, 0.042532, , 
86.64, 0.042520, , 
86.67, 0.042529, , 
86.70, 0.042517, , 
86.73, 0.042450, , 
86.76, 0.042507, , 
86.79, 0.042498, , 
86.82, 0.042460, , 
86.85, 0.042463, , 
86.88, 0.042520, , 
86.91, 0.042529, , 
86.94, 0.042501, , 
86.97, 0.042479, , 
87.00, 0.042504, , 
87.03, 0.042542, , 
87.06, 0.042501, , 
87.09, 0.042466, , 
87.12, 0.042488, , 
87.15, 0.042491, , 
87.18, 0.042437, , 
87.21, 0.042368, , 
87.24, 0.042250, , 
87.27, 0.042184, , 
87.30, 0.042054, , 
87.33, 0.041987, , 
87.36, 0.042022, , 
87.39, 0.042069, , 
87.42, 0.042034, , 
87.45, 0.042009, , 
87.48, 0.042009, , 
87.51, 0.042006, , 
87.54, 0.042000, , 
87.57, 0.041977, , 
87.60, 0.042031, , 
87.63, 0.042034, , 
87.66, 0.042009, , 
87.69, 0.042022, , 
87.72, 0.042088, , 
87.75, 0.042193, , 
87.78, 0.042310, , 
87.81, 0.042409, , 
87.84, 0.042482, , 
87.87, 0.042526, , 
87.90, 0.042517, , 
87.93, 0.042513, , 
87.96, 0.042545, , 
87.99, 0.042571, , 
88.02, 0.042555, , 
88.05, 0.042539, , 
88.08, 0.042586, , 
88.11, 0.042580, , 
88.14, 0.042552, , 
88.17, 0.042564, , 
88.20, 0.042590, , 
88.23, 0.042574, , 
88.26, 0.042590, , 
88.29, 0.042567, , 
88.32, 0.042580, , 
88.35, 0.042599, , 
88.38, 0.042577, , 
88.41, 0.042596, , 
88.44, 0.042605, , 
88.47, 0.042596, , 
88.50, 0.042583, , 
88.53, 0.042605, , 
88.56, 0.042643, , 
88.59, 0.042580, , 
88.62, 0.042580, , 
88.65, 0.042615, , 
88.68, 0.042653, , 
88.71, 0.042618, , 
88.74, 0.042593, , 
88.77, 0.042634, , 
88.80, 0.042650, , 
88.83, 0.042618, , 
88.86, 0.042574, , 
88.89, 0.042590, , 
88.92, 0.042605, , 
88.95, 0.042609, , 
88.98, 0.042602, , 
89.01, 0.042609, , 
89.04, 0.042567, , 
89.07, 0.042552, , 
89.10, 0.042558, , 
89.13, 0.042634, , 
89.16, 0.042650, , 
89.19, 0.042618, , 
89.22, 0.042612, , 
89.25, 0.042643, , 
89.28, 0.042596, , 
89.31, 0.042577, , 
89.34, 0.042577, , 
89.37, 0.042580, , 
89.40, 0.042552, , 
89.43, 0.042580, , 
89.46, 0.042605, , 
89.50, 0.042618, , 
89.52, 0.042609, , 
89.55, 0.042605, , 
89.58, 0.042602, , 
89.61, 0.042602, , 
89.64, 0.042545, , 
89.67, 0.042513, , 
89.70, 0.042523, , 
89.73, 0.042586, , 
89.76, 0.042574, , 
89.79, 0.042545, , 
89.82, 0.042558, , 
89.85, 0.042615, , 
89.88, 0.042545, , 
89.91, 0.042479, , 
89.94, 0.042536, , 
89.97, 0.042577, , 
90.00, 0.042520, , 
90.03, 0.042526, , 
90.06, 0.042548, , 
90.09, 0.042510, , 
90.12, 0.042479, , 
90.15, 0.042491, , 
90.18, 0.042520, , 
90.21, 0.042532, , 
90.24, 0.042523, , 
90.27, 0.042523, , 
90.30, 0.042593, , 
90.33, 0.042707, , 
90.36, 0.042802, , 
90.39, 0.042907, , 
90.42, 0.043018, , 
90.45, 0.043037, , 
90.48, 0.043065, , 
90.51, 0.043107, , 
90.54, 0.043110, , 
90.57, 0.043081, , 
90.60, 0.043065, , 
90.63, 0.043065, , 
90.66, 0.043129, , 
90.69, 0.043107, , 
90.72, 0.043037, , 
90.75, 0.043059, , 
90.78, 0.043097, , 
90.81, 0.043069, , 
90.84, 0.043056, , 
90.87, 0.043084, , 
90.90, 0.043097, , 
90.93, 0.043084, , 
90.96, 0.043084, , 
90.99, 0.043113, , 
91.02, 0.043113, , 
91.05, 0.043113, , 
91.08, 0.043126, , 
91.11, 0.043138, , 
91.15, 0.043211, , 
91.17, 0.043167, , 
91.20, 0.043138, , 
91.23, 0.043180, , 
91.26, 0.043161, , 
91.29, 0.043122, , 
91.32, 0.043132, , 
91.35, 0.043176, , 
91.38, 0.043202, , 
91.41, 0.043122, , 
91.44, 0.043119, , 
91.47, 0.043157, , 
91.50, 0.043138, , 
91.53, 0.043097, , 
91.57, 0.043091, , 
91.59, 0.043100, , 
91.62, 0.043110, , 
91.65, 0.043069, , 
91.68, 0.043072, , 
91.71, 0.043043, , 
91.74, 0.043072, , 
91.77, 0.043084, , 
91.80, 0.043059, , 
91.83, 0.043059, , 
91.86, 0.043065, , 
91.89, 0.043008, , 
91.92, 0.043018, , 
91.95, 0.043005, , 
91.98, 0.043024, , 
92.01, 0.042992, , 
92.04, 0.042977, , 
92.07, 0.042980, , 
92.10, 0.042986, , 
92.13, 0.042996, , 
92.16, 0.043015, , 
92.19, 0.043030, , 
92.22, 0.043015, , 
92.25, 0.042992, , 
92.28, 0.042999, , 
92.31, 0.043005, , 
92.34, 0.042996, , 
92.37, 0.042992, , 
92.40, 0.043002, , 
92.43, 0.043049, , 
92.46, 0.043002, , 
92.49, 0.043005, , 
92.52, 0.043046, , 
92.55, 0.043157, , 
92.58, 0.043265, , 
92.61, 0.043351, , 
92.64, 0.043440, , 
92.67, 0.043462, , 
92.70, 0.043449, , 
92.73, 0.043456, , 
92.76, 0.043522, , 
92.79, 0.043541, , 
92.82, 0.043506, , 
92.85, 0.043541, , 
92.88, 0.043522, , 
92.91, 0.043503, , 
92.94, 0.043465, , 
92.97, 0.043484, , 
93.00, 0.043535, , 
93.03, 0.043528, , 
93.06, 0.043532, , 
93.09, 0.043541, , 
93.12, 0.043551, , 
93.15, 0.043563, , 
93.18, 0.043551, , 
93.21, 0.043563, , 
93.24, 0.043605, , 
93.27, 0.043605, , 
93.30, 0.043614, , 
93.33, 0.043570, , 
93.36, 0.043611, , 
93.39, 0.043617, , 
93.42, 0.043586, , 
93.45, 0.043614, , 
93.48, 0.043611, , 
93.51, 0.043592, , 
93.54, 0.043582, , 
93.57, 0.043598, , 
93.60, 0.043592, , 
93.63, 0.043535, , 
93.66, 0.043557, , 
93.69, 0.043573, , 
93.72, 0.043595, , 
93.75, 0.043551, , 
93.78, 0.043541, , 
93.81, 0.043522, , 
93.84, 0.043528, , 
93.87, 0.043490, , 
93.90, 0.043452, , 
93.93, 0.043506, , 
93.96, 0.043567, , 
93.99, 0.043525, , 
94.02, 0.043528, , 
94.05, 0.043535, , 
94.08, 0.043516, , 
94.11, 0.043497, , 
94.14, 0.043475, , 
94.17, 0.043509, , 
94.20, 0.043500, , 
94.23, 0.043522, , 
94.26, 0.043513, , 
94.29, 0.043538, , 
94.32, 0.043547, , 
94.35, 0.043509, , 
94.38, 0.043516, , 
94.41, 0.043541, , 
94.44, 0.043503, , 
94.47, 0.043468, , 
94.51, 0.043487, , 
94.53, 0.043532, , 
94.56, 0.043481, , 
94.59, 0.043481, , 
94.62, 0.043541, , 
94.65, 0.043535, , 
94.68, 0.043481, , 
94.71, 0.043478, , 
94.74, 0.043506, , 
94.77, 0.043525, , 
94.80, 0.043509, , 
94.83, 0.043487, , 
94.86, 0.043532, , 
94.89, 0.043554, , 
94.92, 0.043528, , 
94.95, 0.043538, , 
94.98, 0.043570, , 
95.01, 0.043538, , 
95.04, 0.043535, , 
95.07, 0.043516, , 
95.10, 0.043513, , 
95.13, 0.043513, , 
95.16, 0.043494, , 
95.19, 0.043484, , 
95.22, 0.043503, , 
95.25, 0.043522, , 
95.28, 0.043525, , 
95.31, 0.043525, , 
95.34, 0.043538, , 
95.37, 0.043522, , 
95.41, 0.043475, , 
95.43, 0.043481, , 
95.46, 0.043579, , 
95.49, 0.043525, , 
95.52, 0.043494, , 
95.55, 0.043481, , 
95.58, 0.043522, , 
95.61, 0.043538, , 
95.64, 0.043500, , 
95.67, 0.043528, , 
95.70, 0.043560, , 
95.73, 0.043567, , 
95.76, 0.043506, , 
95.79, 0.043532, , 
95.83, 0.043547, , 
95.85, 0.043544, , 
95.88, 0.043522, , 
95.91, 0.043547, , 
95.94, 0.043573, , 
95.97, 0.043570, , 
96.00, 0.043551, , 
