Gradient Profiler Text Data File: 20240506_MV_A_30.csv
Date: 2024-05-06
Time: 16:50:13

User: jared
Experiment name: 
UV Unit: EM-1
Rotor Manufacturer: Beckman
Rotor Model: SW28.1
Speed: 28 rpm
Gradient: sucrose 10.0% to 50.0% w/v
Time: 4
w2t:  x 10^0
Sample Volume: 18 ml
Number of Tubes: 6
Volume per mm: 0.183 ml/mm

Absorbance Units Full Scale (AUFS): 2.00
Event Mark-triggered gradient; (with distance; auto start and stop)
Delay: No Delay
UV Wavelength: 254 nm
Samples / sec: 10 Hz
EM1 Speed: 0.30 mm/sec
Distance: 3.20 mm
Number: 30
Dead Volume: 0.000000 ml; Distance due to Dead Volume: 0.00 mm
Total Distance: 96.00 mm

Data Columns:
Distance(mm), Absorbance, Fraction Number, Fraction Volume(ml)
0.00, 0.098206, 0, 0.000
0.03, 0.098209, , 
0.06, 0.098257, , 
0.09, 0.098222, , 
0.12, 0.098248, , 
0.15, 0.098257, , 
0.18, 0.098232, , 
0.21, 0.098232, , 
0.24, 0.098209, , 
0.27, 0.098228, , 
0.30, 0.098228, , 
0.33, 0.098238, , 
0.36, 0.098225, , 
0.39, 0.098235, , 
0.42, 0.098257, , 
0.45, 0.098197, , 
0.48, 0.098181, , 
0.51, 0.098222, , 
0.54, 0.098305, , 
0.57, 0.098422, , 
0.60, 0.098609, , 
0.63, 0.099741, , 
0.66, 0.102482, , 
0.69, 0.113574, , 
0.72, 0.135686, , 
0.75, 0.171386, , 
0.78, 0.217731, , 
0.81, 0.280148, , 
0.84, 0.337783, , 
0.87, 0.407502, , 
0.90, 0.468447, , 
0.93, 0.519801, , 
0.96, 0.592229, , 
0.99, 0.654966, , 
1.02, 0.728505, , 
1.05, 0.791839, , 
1.08, 0.855464, , 
1.11, 0.919341, , 
1.14, 0.993853, , 
1.17, 1.056778, , 
1.20, 1.125494, , 
1.23, 1.167684, , 
1.26, 1.206737, , 
1.29, 1.236709, , 
1.32, 1.252524, , 
1.35, 1.263956, , 
1.38, 1.270379, , 
1.41, 1.275140, , 
1.44, 1.279111, , 
1.47, 1.282667, , 
1.50, 1.286397, , 
1.53, 1.289277, , 
1.56, 1.292027, , 
1.59, 1.295104, , 
1.63, 1.297610, , 
1.65, 1.300075, , 
1.68, 1.302558, , 
1.71, 1.305093, , 
1.74, 1.308128, , 
1.77, 1.310815, , 
1.80, 1.314171, , 
1.83, 1.316775, , 
1.86, 1.319931, , 
1.89, 1.323674, , 
1.92, 1.326988, , 
1.95, 1.330325, , 
1.98, 1.333608, , 
2.01, 1.337218, , 
2.04, 1.339990, , 
2.07, 1.342801, , 
2.10, 1.344716, , 
2.13, 1.346334, , 
2.16, 1.347863, , 
2.19, 1.349417, , 
2.22, 1.351263, , 
2.25, 1.352846, , 
2.28, 1.354410, , 
2.31, 1.356170, , 
2.34, 1.357534, , 
2.37, 1.358778, , 
2.40, 1.359945, , 
2.43, 1.361058, , 
2.46, 1.362292, , 
2.49, 1.363310, , 
2.52, 1.364608, , 
2.55, 1.365762, , 
2.58, 1.366815, , 
2.61, 1.368592, , 
2.64, 1.370438, , 
2.67, 1.372372, , 
2.70, 1.374533, , 
2.73, 1.376182, , 
2.76, 1.377762, , 
2.79, 1.378643, , 
2.82, 1.379576, , 
2.85, 1.380166, , 
2.88, 1.380632, , 
2.91, 1.381045, , 
2.94, 1.381235, , 
2.97, 1.381378, , 
3.00, 1.381501, , 
3.03, 1.381552, , 
3.06, 1.381400, , 
3.09, 1.381162, , 
3.12, 1.380696, , 
3.15, 1.380102, , 
3.18, 1.379259, 1, 0.582
3.19, 1.379097, , 
3.21, 1.378288, , 
3.24, 1.377127, , 
3.27, 1.375741, , 
3.30, 1.373974, , 
3.33, 1.372280, , 
3.36, 1.370111, , 
3.39, 1.367963, , 
3.42, 1.365892, , 
3.45, 1.362612, , 
3.48, 1.359418, , 
3.51, 1.355856, , 
3.54, 1.351244, , 
3.57, 1.346953, , 
3.60, 1.341611, , 
3.63, 1.336631, , 
3.66, 1.331226, , 
3.69, 1.325513, , 
3.72, 1.319392, , 
3.75, 1.311690, , 
3.78, 1.304721, , 
3.81, 1.297423, , 
3.84, 1.288557, , 
3.87, 1.280545, , 
3.90, 1.272241, , 
3.93, 1.263632, , 
3.96, 1.254703, , 
3.99, 1.243862, , 
4.02, 1.234143, , 
4.05, 1.222438, , 
4.08, 1.212022, , 
4.11, 1.203089, , 
4.14, 1.190205, , 
4.17, 1.178970, , 
4.20, 1.165623, , 
4.23, 1.153944, , 
4.26, 1.142119, , 
4.29, 1.130138, , 
4.32, 1.117964, , 
4.35, 1.103481, , 
4.38, 1.090904, , 
4.41, 1.078271, , 
4.44, 1.063413, , 
4.47, 1.050554, , 
4.50, 1.037667, , 
4.53, 1.024852, , 
4.56, 1.012037, , 
4.59, 0.996923, , 
4.62, 0.984013, , 
4.65, 0.969181, , 
4.68, 0.956525, , 
4.71, 0.946033, , 
4.74, 0.931550, , 
4.77, 0.919357, , 
4.80, 0.905388, , 
4.83, 0.893702, , 
4.86, 0.882239, , 
4.89, 0.869072, , 
4.92, 0.859734, , 
4.95, 0.846764, , 
4.98, 0.835713, , 
5.01, 0.824751, , 
5.04, 0.812095, , 
5.07, 0.801456, , 
5.10, 0.789444, , 
5.13, 0.781054, , 
5.16, 0.771091, , 
5.19, 0.759551, , 
5.22, 0.749760, , 
5.25, 0.740063, , 
5.28, 0.728825, , 
5.31, 0.719182, , 
5.34, 0.709641, , 
5.37, 0.700281, , 
5.40, 0.691054, , 
5.43, 0.680383, , 
5.46, 0.671473, , 
5.49, 0.661440, , 
5.52, 0.653003, , 
5.55, 0.646063, , 
5.58, 0.636518, , 
5.61, 0.628493, , 
5.64, 0.619339, , 
5.67, 0.611689, , 
5.70, 0.604285, , 
5.73, 0.595943, , 
5.76, 0.590078, , 
5.79, 0.581971, , 
5.82, 0.575075, , 
5.85, 0.568239, , 
5.88, 0.560335, , 
5.91, 0.553506, , 
5.94, 0.545696, , 
5.97, 0.540180, , 
6.00, 0.533589, , 
6.03, 0.525862, , 
6.06, 0.519347, , 
6.09, 0.511795, , 
6.12, 0.505403, , 
6.15, 0.499021, , 
6.18, 0.492671, , 
6.21, 0.486242, , 
6.24, 0.478724, , 
6.27, 0.472314, , 
6.30, 0.466043, , 
6.33, 0.458900, , 
6.37, 0.452968, , 
6.38, 0.449038, 2, 0.586
6.39, 0.447081, , 
6.42, 0.441359, , 
6.45, 0.435729, , 
6.48, 0.429283, , 
6.51, 0.423954, , 
6.54, 0.417845, , 
6.58, 0.412643, , 
6.60, 0.408390, , 
6.63, 0.402547, , 
6.66, 0.397742, , 
6.69, 0.393136, , 
6.72, 0.387820, , 
6.75, 0.383366, , 
6.78, 0.378938, , 
6.81, 0.373854, , 
6.84, 0.369448, , 
6.87, 0.365004, , 
6.90, 0.360639, , 
6.93, 0.356265, , 
6.96, 0.351171, , 
6.99, 0.346781, , 
7.02, 0.341728, , 
7.05, 0.337507, , 
7.08, 0.334008, , 
7.11, 0.329221, , 
7.14, 0.325196, , 
7.17, 0.320530, , 
7.20, 0.316413, , 
7.23, 0.312306, , 
7.26, 0.307671, , 
7.29, 0.304366, , 
7.32, 0.299865, , 
7.35, 0.296157, , 
7.38, 0.292525, , 
7.41, 0.288487, , 
7.44, 0.285106, , 
7.47, 0.281195, , 
7.50, 0.278483, , 
7.53, 0.275327, , 
7.56, 0.271654, , 
7.59, 0.268498, , 
7.62, 0.264958, , 
7.65, 0.262059, , 
7.68, 0.259242, , 
7.71, 0.256499, , 
7.74, 0.253802, , 
7.77, 0.251160, , 
7.80, 0.248140, , 
7.83, 0.245619, , 
7.86, 0.243116, , 
7.89, 0.240255, , 
7.92, 0.237784, , 
7.95, 0.235300, , 
7.98, 0.232906, , 
8.01, 0.230581, , 
8.04, 0.227938, , 
8.07, 0.225747, , 
8.10, 0.223127, , 
8.13, 0.220960, , 
8.16, 0.219197, , 
8.19, 0.216754, , 
8.22, 0.214670, , 
8.25, 0.212564, , 
8.28, 0.210084, , 
8.31, 0.207962, , 
8.34, 0.205541, , 
8.37, 0.203511, , 
8.40, 0.201532, , 
8.43, 0.199604, , 
8.46, 0.197751, , 
8.49, 0.195591, , 
8.52, 0.193672, , 
8.55, 0.191807, , 
8.58, 0.190113, , 
8.61, 0.188204, , 
8.64, 0.186630, , 
8.67, 0.185105, , 
8.70, 0.183423, , 
8.73, 0.181993, , 
8.76, 0.180591, , 
8.79, 0.179230, , 
8.82, 0.177917, , 
8.85, 0.176388, , 
8.88, 0.175027, , 
8.91, 0.173489, , 
8.94, 0.172299, , 
8.97, 0.171332, , 
9.00, 0.169876, , 
9.03, 0.168630, , 
9.06, 0.167129, , 
9.09, 0.165838, , 
9.12, 0.164557, , 
9.15, 0.162996, , 
9.18, 0.161956, , 
9.21, 0.160481, , 
9.24, 0.159206, , 
9.27, 0.158026, , 
9.30, 0.156659, , 
9.33, 0.155374, , 
9.36, 0.154058, , 
9.39, 0.152795, , 
9.42, 0.151634, , 
9.45, 0.150267, , 
9.48, 0.149062, , 
9.51, 0.147727, , 
9.54, 0.146705, , 
9.58, 0.145627, , 
9.58, 0.145271, 3, 0.586
9.60, 0.144564, , 
9.63, 0.143574, , 
9.66, 0.142474, , 
9.69, 0.141551, , 
9.72, 0.140609, , 
9.75, 0.139540, , 
9.78, 0.138823, , 
9.81, 0.137814, , 
9.84, 0.136907, , 
9.87, 0.136006, , 
9.90, 0.135026, , 
9.93, 0.134179, , 
9.96, 0.133132, , 
9.99, 0.132438, , 
10.02, 0.131705, , 
10.05, 0.130979, , 
10.08, 0.130148, , 
10.11, 0.129475, , 
10.14, 0.128749, , 
10.17, 0.128086, , 
10.20, 0.127401, , 
10.23, 0.126662, , 
10.26, 0.126135, , 
10.29, 0.125406, , 
10.32, 0.124870, , 
10.35, 0.124362, , 
10.38, 0.123677, , 
10.41, 0.123135, , 
10.44, 0.122487, , 
10.47, 0.122034, , 
10.50, 0.121669, , 
10.53, 0.121108, , 
10.56, 0.120626, , 
10.59, 0.120131, , 
10.62, 0.119725, , 
10.65, 0.119262, , 
10.68, 0.118691, , 
10.71, 0.118335, , 
10.74, 0.117948, , 
10.77, 0.117428, , 
10.80, 0.116987, , 
10.83, 0.116661, , 
10.86, 0.116372, , 
10.89, 0.115966, , 
10.92, 0.115582, , 
10.95, 0.115227, , 
10.98, 0.114976, , 
11.01, 0.114596, , 
11.04, 0.114278, , 
11.07, 0.113996, , 
11.10, 0.113714, , 
11.13, 0.113387, , 
11.16, 0.113105, , 
11.19, 0.112778, , 
11.22, 0.112445, , 
11.25, 0.112039, , 
11.28, 0.111611, , 
11.31, 0.111154, , 
11.34, 0.110672, , 
11.37, 0.110237, , 
11.40, 0.109686, , 
11.43, 0.109311, , 
11.46, 0.108975, , 
11.49, 0.108455, , 
11.52, 0.107985, , 
11.55, 0.107513, , 
11.58, 0.107075, , 
11.61, 0.106593, , 
11.64, 0.105987, , 
11.67, 0.105524, , 
11.70, 0.104991, , 
11.73, 0.104579, , 
11.76, 0.104163, , 
11.79, 0.103779, , 
11.82, 0.103402, , 
11.85, 0.102932, , 
11.88, 0.102660, , 
11.91, 0.102362, , 
11.94, 0.101978, , 
11.97, 0.101721, , 
12.00, 0.101407, , 
12.03, 0.101197, , 
12.06, 0.100956, , 
12.09, 0.100645, , 
12.12, 0.100385, , 
12.15, 0.100103, , 
12.18, 0.099849, , 
12.21, 0.099599, , 
12.24, 0.099320, , 
12.27, 0.098958, , 
12.30, 0.098717, , 
12.33, 0.098406, , 
12.36, 0.098054, , 
12.39, 0.097784, , 
12.42, 0.097493, , 
12.45, 0.097217, , 
12.48, 0.097014, , 
12.51, 0.096731, , 
12.54, 0.096433, , 
12.57, 0.096075, , 
12.61, 0.095859, , 
12.63, 0.095745, , 
12.66, 0.095532, , 
12.69, 0.095339, , 
12.72, 0.095152, , 
12.75, 0.095098, , 
12.78, 0.095006, 4, 0.585
12.79, 0.094987, , 
12.82, 0.094946, , 
12.84, 0.094923, , 
12.87, 0.094774, , 
12.90, 0.094657, , 
12.93, 0.094625, , 
12.96, 0.094673, , 
12.99, 0.094777, , 
13.02, 0.094863, , 
13.05, 0.094907, , 
13.08, 0.095022, , 
13.11, 0.095199, , 
13.14, 0.095320, , 
13.17, 0.095450, , 
13.20, 0.095558, , 
13.23, 0.095697, , 
13.26, 0.095888, , 
13.29, 0.096037, , 
13.32, 0.096240, , 
13.35, 0.096370, , 
13.38, 0.096519, , 
13.41, 0.096671, , 
13.44, 0.096855, , 
13.47, 0.097083, , 
13.50, 0.097283, , 
13.53, 0.097477, , 
13.56, 0.097750, , 
13.59, 0.097981, , 
13.62, 0.098197, , 
13.65, 0.098397, , 
13.68, 0.098600, , 
13.71, 0.098910, , 
13.74, 0.099107, , 
13.77, 0.099323, , 
13.80, 0.099586, , 
13.83, 0.099811, , 
13.86, 0.100011, , 
13.89, 0.100227, , 
13.92, 0.100512, , 
13.95, 0.100896, , 
13.98, 0.101128, , 
14.01, 0.101359, , 
14.04, 0.101622, , 
14.07, 0.101822, , 
14.10, 0.102032, , 
14.13, 0.102171, , 
14.16, 0.102304, , 
14.19, 0.102533, , 
14.22, 0.102672, , 
14.25, 0.102723, , 
14.28, 0.102787, , 
14.31, 0.102809, , 
14.34, 0.102818, , 
14.37, 0.102812, , 
14.40, 0.102799, , 
14.43, 0.102796, , 
14.46, 0.102796, , 
14.49, 0.102768, , 
14.52, 0.102764, , 
14.55, 0.102704, , 
14.58, 0.102545, , 
14.61, 0.102374, , 
14.64, 0.102295, , 
14.67, 0.102168, , 
14.70, 0.101971, , 
14.73, 0.101870, , 
14.76, 0.101680, , 
14.79, 0.101508, , 
14.82, 0.101280, , 
14.85, 0.101090, , 
14.88, 0.100947, , 
14.91, 0.100810, , 
14.94, 0.100642, , 
14.97, 0.100462, , 
15.00, 0.100338, , 
15.03, 0.100192, , 
15.06, 0.099967, , 
15.09, 0.099729, , 
15.12, 0.099443, , 
15.15, 0.099190, , 
15.18, 0.098799, , 
15.21, 0.098520, , 
15.24, 0.098295, , 
15.27, 0.097994, , 
15.30, 0.097651, , 
15.33, 0.097226, , 
15.36, 0.096868, , 
15.39, 0.096424, , 
15.42, 0.095922, , 
15.45, 0.095510, , 
15.48, 0.095149, , 
15.51, 0.094651, , 
15.54, 0.094283, , 
15.57, 0.093911, , 
15.60, 0.093591, , 
15.63, 0.093223, , 
15.67, 0.092703, , 
15.69, 0.092376, , 
15.72, 0.091926, , 
15.75, 0.091472, , 
15.78, 0.091019, , 
15.81, 0.090575, , 
15.84, 0.090257, , 
15.87, 0.089928, , 
15.90, 0.089598, , 
15.93, 0.089328, , 
15.96, 0.089027, , 
15.98, 0.088805, 5, 0.586
15.99, 0.088694, , 
16.02, 0.088354, , 
16.05, 0.088129, , 
16.08, 0.087783, , 
16.11, 0.087425, , 
16.14, 0.087016, , 
16.18, 0.086724, , 
16.20, 0.086473, , 
16.23, 0.086188, , 
16.26, 0.085969, , 
16.29, 0.085731, , 
16.32, 0.085503, , 
16.35, 0.085205, , 
16.38, 0.084878, , 
16.41, 0.084659, , 
16.44, 0.084361, , 
16.47, 0.084082, , 
16.50, 0.083812, , 
16.53, 0.083530, , 
16.56, 0.083232, , 
16.60, 0.082889, , 
16.62, 0.082711, , 
16.65, 0.082537, , 
16.68, 0.082248, , 
16.71, 0.081998, , 
16.74, 0.081757, , 
16.77, 0.081573, , 
16.80, 0.081341, , 
16.83, 0.081027, , 
16.86, 0.080878, , 
16.89, 0.080700, , 
16.92, 0.080501, , 
16.95, 0.080355, , 
16.98, 0.080171, , 
17.01, 0.080034, , 
17.04, 0.079869, , 
17.07, 0.079660, , 
17.10, 0.079543, , 
17.13, 0.079492, , 
17.16, 0.079349, , 
17.19, 0.079210, , 
17.22, 0.079083, , 
17.25, 0.079019, , 
17.28, 0.078835, , 
17.31, 0.078664, , 
17.34, 0.078531, , 
17.37, 0.078420, , 
17.40, 0.078245, , 
17.43, 0.078004, , 
17.46, 0.077776, , 
17.49, 0.077614, , 
17.53, 0.077392, , 
17.55, 0.077240, , 
17.58, 0.077122, , 
17.61, 0.077011, , 
17.64, 0.076802, , 
17.67, 0.076650, , 
17.70, 0.076507, , 
17.73, 0.076409, , 
17.76, 0.076187, , 
17.79, 0.076044, , 
17.82, 0.075930, , 
17.85, 0.075746, , 
17.88, 0.075578, , 
17.91, 0.075451, , 
17.94, 0.075451, , 
17.97, 0.075416, , 
18.00, 0.075270, , 
18.03, 0.075115, , 
18.06, 0.075042, , 
18.09, 0.074966, , 
18.12, 0.074851, , 
18.15, 0.074721, , 
18.18, 0.074604, , 
18.21, 0.074474, , 
18.24, 0.074287, , 
18.27, 0.074173, , 
18.30, 0.074039, , 
18.33, 0.073843, , 
18.36, 0.073675, , 
18.39, 0.073541, , 
18.43, 0.073418, , 
18.45, 0.073211, , 
18.48, 0.073078, , 
18.51, 0.072961, , 
18.54, 0.072828, , 
18.57, 0.072672, , 
18.60, 0.072495, , 
18.63, 0.072358, , 
18.66, 0.072181, , 
18.69, 0.072076, , 
18.72, 0.071889, , 
18.75, 0.071768, , 
18.78, 0.071654, , 
18.81, 0.071524, , 
18.84, 0.071445, , 
18.87, 0.071311, , 
18.90, 0.071191, , 
18.93, 0.071067, , 
18.96, 0.071010, , 
18.99, 0.070985, , 
19.02, 0.070817, , 
19.05, 0.070664, , 
19.08, 0.070566, , 
19.11, 0.070518, , 
19.14, 0.070395, , 
19.17, 0.070252, , 
19.18, 0.070236, 6, 0.585
19.20, 0.070147, , 
19.23, 0.070078, , 
19.26, 0.069992, , 
19.29, 0.069830, , 
19.32, 0.069675, , 
19.35, 0.069595, , 
19.38, 0.069535, , 
19.41, 0.069465, , 
19.44, 0.069313, , 
19.47, 0.069224, , 
19.50, 0.069142, , 
19.53, 0.069009, , 
19.56, 0.068917, , 
19.59, 0.068790, , 
19.62, 0.068660, , 
19.65, 0.068599, , 
19.68, 0.068526, , 
19.71, 0.068526, , 
19.74, 0.068466, , 
19.77, 0.068298, , 
19.80, 0.068209, , 
19.83, 0.068120, , 
19.86, 0.068035, , 
19.89, 0.068009, , 
19.92, 0.068013, , 
19.95, 0.068000, , 
19.98, 0.067968, , 
20.01, 0.068035, , 
20.04, 0.068168, , 
20.07, 0.068298, , 
20.10, 0.068358, , 
20.13, 0.068428, , 
20.16, 0.068485, , 
20.19, 0.068590, , 
20.22, 0.068736, , 
20.25, 0.068771, , 
20.28, 0.068869, , 
20.31, 0.069040, , 
20.34, 0.069158, , 
20.37, 0.069329, , 
20.40, 0.069564, , 
20.43, 0.069757, , 
20.46, 0.069862, , 
20.49, 0.070020, , 
20.52, 0.070385, , 
20.55, 0.070655, , 
20.58, 0.070820, , 
20.61, 0.071153, , 
20.64, 0.071464, , 
20.67, 0.071768, , 
20.70, 0.072060, , 
20.73, 0.072406, , 
20.76, 0.072828, , 
20.79, 0.073253, , 
20.82, 0.073716, , 
20.85, 0.074150, , 
20.88, 0.074661, , 
20.91, 0.075115, , 
20.94, 0.075521, , 
20.97, 0.075993, , 
21.00, 0.076440, , 
21.03, 0.076919, , 
21.06, 0.077325, , 
21.09, 0.077811, , 
21.12, 0.078261, , 
21.15, 0.078797, , 
21.18, 0.079279, , 
21.21, 0.079958, , 
21.24, 0.080450, , 
21.27, 0.080948, , 
21.30, 0.081484, , 
21.33, 0.081928, , 
21.36, 0.082350, , 
21.39, 0.082807, , 
21.42, 0.083111, , 
21.45, 0.083482, , 
21.48, 0.083869, , 
21.51, 0.084177, , 
21.54, 0.084602, , 
21.57, 0.085074, , 
21.60, 0.085604, , 
21.63, 0.085912, , 
21.66, 0.086216, , 
21.70, 0.086619, , 
21.72, 0.086841, , 
21.75, 0.087120, , 
21.78, 0.087441, , 
21.81, 0.087783, , 
21.84, 0.088085, , 
21.87, 0.088294, , 
21.90, 0.088513, , 
21.93, 0.088757, , 
21.96, 0.088874, , 
21.99, 0.089030, , 
22.02, 0.089154, , 
22.05, 0.089284, , 
22.08, 0.089366, , 
22.12, 0.089496, , 
22.14, 0.089629, , 
22.17, 0.089763, , 
22.20, 0.089810, , 
22.23, 0.089813, , 
22.26, 0.089832, , 
22.29, 0.089858, , 
22.32, 0.089855, , 
22.35, 0.089785, , 
22.38, 0.089797, 7, 0.586
22.38, 0.089810, , 
22.41, 0.089880, , 
22.44, 0.089874, , 
22.47, 0.089845, , 
22.50, 0.089883, , 
22.53, 0.089851, , 
22.56, 0.089712, , 
22.59, 0.089537, , 
22.62, 0.089499, , 
22.65, 0.089410, , 
22.68, 0.089379, , 
22.71, 0.089331, , 
22.74, 0.089261, , 
22.77, 0.089169, , 
22.80, 0.089049, , 
22.83, 0.088893, , 
22.86, 0.088773, , 
22.89, 0.088595, , 
22.92, 0.088427, , 
22.95, 0.088364, , 
22.98, 0.088262, , 
23.01, 0.088139, , 
23.04, 0.087901, , 
23.07, 0.087650, , 
23.10, 0.087438, , 
23.13, 0.087171, , 
23.16, 0.086962, , 
23.19, 0.086733, , 
23.22, 0.086568, , 
23.25, 0.086346, , 
23.28, 0.086055, , 
23.31, 0.085836, , 
23.34, 0.085661, , 
23.37, 0.085354, , 
23.40, 0.085055, , 
23.43, 0.084799, , 
23.46, 0.084529, , 
23.49, 0.084186, , 
23.52, 0.083793, , 
23.55, 0.083479, , 
23.58, 0.083216, , 
23.61, 0.082813, , 
23.65, 0.082470, , 
23.67, 0.082236, , 
23.70, 0.081969, , 
23.73, 0.081655, , 
23.76, 0.081313, , 
23.79, 0.081068, , 
23.82, 0.080694, , 
23.85, 0.080374, , 
23.88, 0.080031, , 
23.91, 0.079682, , 
23.94, 0.079394, , 
23.97, 0.079013, , 
24.00, 0.078750, , 
24.03, 0.078502, , 
24.06, 0.078156, , 
24.09, 0.077827, , 
24.12, 0.077497, , 
24.15, 0.077202, , 
24.18, 0.076935, , 
24.21, 0.076590, , 
24.24, 0.076323, , 
24.27, 0.076107, , 
24.30, 0.075904, , 
24.33, 0.075679, , 
24.36, 0.075444, , 
24.39, 0.075241, , 
24.42, 0.074985, , 
24.45, 0.074715, , 
24.48, 0.074499, , 
24.51, 0.074287, , 
24.54, 0.074147, , 
24.57, 0.073950, , 
24.60, 0.073779, , 
24.63, 0.073630, , 
24.66, 0.073513, , 
24.69, 0.073335, , 
24.72, 0.073208, , 
24.75, 0.073142, , 
24.78, 0.073021, , 
24.81, 0.072847, , 
24.84, 0.072694, , 
24.87, 0.072625, , 
24.90, 0.072536, , 
24.93, 0.072495, , 
24.96, 0.072441, , 
24.99, 0.072450, , 
25.02, 0.072320, , 
25.05, 0.072174, , 
25.08, 0.072073, , 
25.11, 0.072035, , 
25.14, 0.071987, , 
25.17, 0.071952, , 
25.20, 0.071978, , 
25.23, 0.072016, , 
25.26, 0.071990, , 
25.29, 0.071936, , 
25.32, 0.071962, , 
25.35, 0.071965, , 
25.38, 0.071990, , 
25.41, 0.072123, , 
25.44, 0.072269, , 
25.47, 0.072339, , 
25.50, 0.072418, , 
25.53, 0.072514, , 
25.56, 0.072675, , 
25.58, 0.072732, 8, 0.586
25.59, 0.072799, , 
25.62, 0.072913, , 
25.65, 0.073215, , 
25.68, 0.073497, , 
25.71, 0.073735, , 
25.74, 0.074062, , 
25.77, 0.074379, , 
25.80, 0.074766, , 
25.83, 0.075188, , 
25.86, 0.075581, , 
25.89, 0.076164, , 
25.92, 0.076783, , 
25.95, 0.077538, , 
25.98, 0.078099, , 
26.01, 0.078921, , 
26.04, 0.080050, , 
26.07, 0.081062, , 
26.10, 0.082270, , 
26.13, 0.083482, , 
26.16, 0.084894, , 
26.19, 0.086445, , 
26.22, 0.088059, , 
26.25, 0.090108, , 
26.28, 0.092065, , 
26.31, 0.094229, , 
26.34, 0.096982, , 
26.37, 0.099589, , 
26.40, 0.102434, , 
26.43, 0.105454, , 
26.46, 0.108721, , 
26.49, 0.112899, , 
26.52, 0.116794, , 
26.55, 0.121561, , 
26.58, 0.125878, , 
26.61, 0.130478, , 
26.64, 0.135470, , 
26.67, 0.141516, , 
26.70, 0.146071, , 
26.73, 0.152770, , 
26.76, 0.158708, , 
26.79, 0.164893, , 
26.82, 0.172395, , 
26.85, 0.179068, , 
26.88, 0.185898, , 
26.91, 0.192739, , 
26.94, 0.200875, , 
26.97, 0.208073, , 
27.00, 0.216564, , 
27.03, 0.222651, , 
27.06, 0.229984, , 
27.09, 0.238644, , 
27.12, 0.245961, , 
27.15, 0.254370, , 
27.18, 0.261513, , 
27.21, 0.268571, , 
27.24, 0.275435, , 
27.27, 0.282042, , 
27.30, 0.289547, , 
27.33, 0.295815, , 
27.36, 0.302850, , 
27.39, 0.307674, , 
27.42, 0.313168, , 
27.45, 0.319388, , 
27.48, 0.324384, , 
27.51, 0.329811, , 
27.54, 0.334211, , 
27.57, 0.337998, , 
27.60, 0.342106, , 
27.63, 0.345652, , 
27.66, 0.349484, , 
27.69, 0.352494, , 
27.72, 0.355263, , 
27.75, 0.358121, , 
27.78, 0.360341, , 
27.81, 0.362336, , 
27.84, 0.364059, , 
27.87, 0.365543, , 
27.90, 0.367034, , 
27.93, 0.368078, , 
27.96, 0.369083, , 
27.99, 0.369673, , 
28.02, 0.370013, , 
28.05, 0.370311, , 
28.08, 0.370384, , 
28.11, 0.370197, , 
28.14, 0.369940, , 
28.17, 0.369572, , 
28.20, 0.368912, , 
28.23, 0.368335, , 
28.26, 0.367608, , 
28.29, 0.366514, , 
28.32, 0.365426, , 
28.35, 0.363995, , 
28.38, 0.362654, , 
28.41, 0.361214, , 
28.44, 0.359621, , 
28.47, 0.357924, , 
28.50, 0.355923, , 
28.53, 0.354166, , 
28.56, 0.352281, , 
28.59, 0.349893, , 
28.62, 0.347828, , 
28.65, 0.345728, , 
28.68, 0.343565, , 
28.71, 0.341367, , 
28.74, 0.338759, , 
28.77, 0.336466, , 
28.79, 0.335296, 9, 0.587
28.80, 0.334087, , 
28.83, 0.331629, , 
28.86, 0.328755, , 
28.89, 0.326214, , 
28.92, 0.323106, , 
28.95, 0.320829, , 
28.98, 0.317628, , 
29.01, 0.314964, , 
29.04, 0.312306, , 
29.07, 0.309051, , 
29.10, 0.306298, , 
29.13, 0.303059, , 
29.16, 0.300665, , 
29.19, 0.297727, , 
29.22, 0.294340, , 
29.25, 0.291450, , 
29.28, 0.288005, , 
29.31, 0.285052, , 
29.34, 0.282109, , 
29.38, 0.278727, , 
29.40, 0.276244, , 
29.43, 0.273265, , 
29.46, 0.269735, , 
29.49, 0.266671, , 
29.52, 0.263204, , 
29.55, 0.260254, , 
29.58, 0.257831, , 
29.61, 0.254380, , 
29.64, 0.251389, , 
29.67, 0.247995, , 
29.70, 0.245127, , 
29.73, 0.242295, , 
29.76, 0.238913, , 
29.79, 0.236557, , 
29.82, 0.233337, , 
29.85, 0.230546, , 
29.88, 0.227735, , 
29.91, 0.224541, , 
29.94, 0.221832, , 
29.97, 0.218727, , 
30.00, 0.216491, , 
30.03, 0.213465, , 
30.06, 0.211184, , 
30.09, 0.208475, , 
30.12, 0.206017, , 
30.15, 0.203194, , 
30.18, 0.200825, , 
30.21, 0.198084, , 
30.24, 0.195705, , 
30.27, 0.193767, , 
30.30, 0.191128, , 
30.33, 0.188819, , 
30.36, 0.186218, , 
30.39, 0.184128, , 
30.42, 0.182053, , 
30.45, 0.179627, , 
30.48, 0.177933, , 
30.51, 0.175548, , 
30.54, 0.173581, , 
30.57, 0.171618, , 
30.60, 0.169286, , 
30.63, 0.167383, , 
30.66, 0.165274, , 
30.69, 0.163764, , 
30.72, 0.161969, , 
30.75, 0.159878, , 
30.78, 0.158134, , 
30.81, 0.156364, , 
30.84, 0.154337, , 
30.87, 0.152608, , 
30.90, 0.150854, , 
30.93, 0.149097, , 
30.96, 0.147114, , 
30.99, 0.145503, , 
31.02, 0.143936, , 
31.05, 0.142093, , 
31.08, 0.140789, , 
31.11, 0.139315, , 
31.14, 0.137500, , 
31.17, 0.135971, , 
31.20, 0.134519, , 
31.23, 0.132920, , 
31.26, 0.131597, , 
31.29, 0.130002, , 
31.32, 0.128663, , 
31.35, 0.127594, , 
31.38, 0.126056, , 
31.41, 0.124724, , 
31.44, 0.123239, , 
31.47, 0.122062, , 
31.50, 0.120901, , 
31.53, 0.119563, , 
31.56, 0.118614, , 
31.59, 0.117384, , 
31.62, 0.116324, , 
31.65, 0.115230, , 
31.68, 0.113907, , 
31.71, 0.112854, , 
31.75, 0.111595, , 
31.77, 0.110694, , 
31.80, 0.109663, , 
31.83, 0.108515, , 
31.86, 0.107510, , 
31.89, 0.106266, , 
31.92, 0.105197, , 
31.95, 0.104284, , 
31.98, 0.103348, , 
31.99, 0.103189, 10, 0.586
32.01, 0.102422, , 
32.04, 0.101508, , 
32.07, 0.100509, , 
32.10, 0.099694, , 
32.13, 0.098761, , 
32.16, 0.098022, , 
32.19, 0.097312, , 
32.22, 0.096547, , 
32.25, 0.095789, , 
32.28, 0.094923, , 
32.31, 0.094194, , 
32.34, 0.093467, , 
32.37, 0.092662, , 
32.40, 0.092078, , 
32.43, 0.091558, , 
32.46, 0.090943, , 
32.49, 0.090289, , 
32.52, 0.089537, , 
32.55, 0.088919, , 
32.58, 0.088338, , 
32.61, 0.087618, , 
32.64, 0.087022, , 
32.67, 0.086480, , 
32.70, 0.085906, , 
32.73, 0.085325, , 
32.76, 0.084649, , 
32.79, 0.084120, , 
32.82, 0.083371, , 
32.85, 0.082791, , 
32.88, 0.082350, , 
32.91, 0.081836, , 
32.94, 0.081341, , 
32.97, 0.080853, , 
33.00, 0.080323, , 
33.03, 0.079885, , 
33.06, 0.079400, , 
33.09, 0.079057, , 
33.12, 0.078528, , 
33.15, 0.078096, , 
33.18, 0.077678, , 
33.21, 0.077316, , 
33.24, 0.076957, , 
33.27, 0.076621, , 
33.30, 0.076215, , 
33.33, 0.075682, , 
33.36, 0.075397, , 
33.39, 0.075048, , 
33.42, 0.074785, , 
33.45, 0.074445, , 
33.48, 0.074100, , 
33.51, 0.073871, , 
33.54, 0.073427, , 
33.57, 0.073062, , 
33.60, 0.072755, , 
33.63, 0.072476, , 
33.66, 0.072133, , 
33.69, 0.071803, , 
33.72, 0.071553, , 
33.75, 0.071258, , 
33.78, 0.070893, , 
33.81, 0.070585, , 
33.84, 0.070284, , 
33.87, 0.069954, , 
33.90, 0.069611, , 
33.93, 0.069281, , 
33.96, 0.068955, , 
33.99, 0.068663, , 
34.02, 0.068330, , 
34.05, 0.068060, , 
34.08, 0.067841, , 
34.11, 0.067626, , 
34.14, 0.067366, , 
34.17, 0.067071, , 
34.20, 0.066858, , 
34.23, 0.066703, , 
34.26, 0.066401, , 
34.29, 0.066217, , 
34.32, 0.065967, , 
34.35, 0.065789, , 
34.38, 0.065618, , 
34.41, 0.065405, , 
34.44, 0.065244, , 
34.47, 0.065047, , 
34.50, 0.064866, , 
34.53, 0.064707, , 
34.56, 0.064581, , 
34.59, 0.064387, , 
34.62, 0.064178, , 
34.65, 0.063972, , 
34.68, 0.063765, , 
34.71, 0.063572, , 
34.74, 0.063318, , 
34.77, 0.063093, , 
34.80, 0.062880, , 
34.83, 0.062677, , 
34.86, 0.062414, , 
34.89, 0.062208, , 
34.92, 0.062094, , 
34.95, 0.061983, , 
34.98, 0.061805, , 
35.01, 0.061653, , 
35.04, 0.061599, , 
35.07, 0.061523, , 
35.10, 0.061352, , 
35.13, 0.061222, , 
35.16, 0.061193, , 
35.18, 0.061183, 11, 0.585
35.19, 0.061183, , 
35.22, 0.061104, , 
35.25, 0.061069, , 
35.28, 0.061120, , 
35.31, 0.061123, , 
35.34, 0.061076, , 
35.37, 0.061095, , 
35.40, 0.061085, , 
35.43, 0.061082, , 
35.46, 0.061069, , 
35.49, 0.061079, , 
35.52, 0.061120, , 
35.55, 0.061180, , 
35.58, 0.061272, , 
35.61, 0.061371, , 
35.64, 0.061478, , 
35.67, 0.061561, , 
35.70, 0.061599, , 
35.73, 0.061685, , 
35.76, 0.061888, , 
35.79, 0.061995, , 
35.82, 0.062103, , 
35.85, 0.062268, , 
35.88, 0.062421, , 
35.91, 0.062582, , 
35.94, 0.062668, , 
35.97, 0.062887, , 
36.00, 0.063141, , 
36.03, 0.063448, , 
36.06, 0.063721, , 
36.09, 0.064006, , 
36.12, 0.064451, , 
36.15, 0.064657, , 
36.18, 0.064869, , 
36.21, 0.065253, , 
36.24, 0.065653, , 
36.27, 0.066049, , 
36.30, 0.066274, , 
36.33, 0.066601, , 
36.36, 0.066994, , 
36.39, 0.067366, , 
36.42, 0.067810, , 
36.45, 0.068273, , 
36.48, 0.068752, , 
36.51, 0.069237, , 
36.54, 0.069621, , 
36.57, 0.069957, , 
36.60, 0.070290, , 
36.63, 0.070607, , 
36.66, 0.071029, , 
36.69, 0.071416, , 
36.72, 0.071943, , 
36.75, 0.072377, , 
36.78, 0.072694, , 
36.81, 0.073180, , 
36.84, 0.073716, , 
36.87, 0.074160, , 
36.90, 0.074496, , 
36.93, 0.074823, , 
36.96, 0.075188, , 
36.99, 0.075476, , 
37.02, 0.075936, , 
37.05, 0.076310, , 
37.08, 0.076637, , 
37.11, 0.077024, , 
37.14, 0.077367, , 
37.17, 0.077728, , 
37.20, 0.078128, , 
37.23, 0.078385, , 
37.26, 0.078689, , 
37.29, 0.078968, , 
37.32, 0.079286, , 
37.35, 0.079549, , 
37.38, 0.079749, , 
37.41, 0.079999, , 
37.44, 0.080336, , 
37.47, 0.080535, , 
37.50, 0.080681, , 
37.53, 0.080922, , 
37.56, 0.081167, , 
37.59, 0.081303, , 
37.62, 0.081373, , 
37.65, 0.081436, , 
37.68, 0.081579, , 
37.71, 0.081687, , 
37.74, 0.081744, , 
37.77, 0.081833, , 
37.80, 0.081928, , 
37.83, 0.081890, , 
37.86, 0.081947, , 
37.90, 0.081963, , 
37.92, 0.081941, , 
37.95, 0.081937, , 
37.98, 0.081918, , 
38.01, 0.081896, , 
38.04, 0.081753, , 
38.07, 0.081611, , 
38.10, 0.081512, , 
38.13, 0.081439, , 
38.16, 0.081376, , 
38.19, 0.081179, , 
38.22, 0.080897, , 
38.25, 0.080761, , 
38.28, 0.080624, , 
38.31, 0.080418, , 
38.34, 0.080256, , 
38.37, 0.079917, , 
38.38, 0.079876, 12, 0.584
38.40, 0.079654, , 
38.43, 0.079292, , 
38.46, 0.078975, , 
38.49, 0.078705, , 
38.52, 0.078410, , 
38.55, 0.078036, , 
38.58, 0.077747, , 
38.61, 0.077494, , 
38.64, 0.077199, , 
38.67, 0.076751, , 
38.70, 0.076368, , 
38.73, 0.075996, , 
38.76, 0.075698, , 
38.79, 0.075403, , 
38.82, 0.074997, , 
38.85, 0.074607, , 
38.88, 0.074144, , 
38.91, 0.073709, , 
38.94, 0.073316, , 
38.97, 0.072910, , 
39.00, 0.072571, , 
39.03, 0.072304, , 
39.06, 0.071886, , 
39.09, 0.071476, , 
39.12, 0.070985, , 
39.15, 0.070512, , 
39.18, 0.070112, , 
39.22, 0.069770, , 
39.24, 0.069510, , 
39.27, 0.069056, , 
39.30, 0.068669, , 
39.33, 0.068330, , 
39.36, 0.067962, , 
39.39, 0.067642, , 
39.42, 0.067261, , 
39.45, 0.066902, , 
39.48, 0.066582, , 
39.51, 0.066195, , 
39.54, 0.065859, , 
39.57, 0.065573, , 
39.60, 0.065282, , 
39.63, 0.065015, , 
39.66, 0.064657, , 
39.69, 0.064428, , 
39.72, 0.064095, , 
39.75, 0.063753, , 
39.78, 0.063420, , 
39.81, 0.063153, , 
39.84, 0.062950, , 
39.87, 0.062684, , 
39.90, 0.062427, , 
39.93, 0.062237, , 
39.96, 0.062008, , 
39.99, 0.061761, , 
40.02, 0.061478, , 
40.05, 0.061342, , 
40.08, 0.061164, , 
40.11, 0.060882, , 
40.14, 0.060638, , 
40.17, 0.060467, , 
40.20, 0.060276, , 
40.23, 0.060130, , 
40.26, 0.059956, , 
40.29, 0.059772, , 
40.32, 0.059559, , 
40.35, 0.059299, , 
40.38, 0.059103, , 
40.41, 0.058973, , 
40.44, 0.058766, , 
40.47, 0.058567, , 
40.50, 0.058351, , 
40.53, 0.058230, , 
40.56, 0.058059, , 
40.59, 0.057834, , 
40.62, 0.057675, , 
40.65, 0.057482, , 
40.68, 0.057317, , 
40.71, 0.057225, , 
40.74, 0.057063, , 
40.77, 0.056876, , 
40.80, 0.056730, , 
40.83, 0.056667, , 
40.86, 0.056552, , 
40.89, 0.056407, , 
40.92, 0.056292, , 
40.95, 0.056219, , 
40.98, 0.056134, , 
41.01, 0.056121, , 
41.04, 0.055950, , 
41.07, 0.055782, , 
41.10, 0.055709, , 
41.13, 0.055709, , 
41.16, 0.055683, , 
41.19, 0.055541, , 
41.22, 0.055404, , 
41.25, 0.055290, , 
41.28, 0.055220, , 
41.31, 0.055150, , 
41.34, 0.055138, , 
41.37, 0.055144, , 
41.40, 0.055097, , 
41.43, 0.054947, , 
41.46, 0.054843, , 
41.49, 0.054833, , 
41.52, 0.054697, , 
41.55, 0.054627, , 
41.58, 0.054652, , 
41.59, 0.054656, 13, 0.587
41.61, 0.054665, , 
41.64, 0.054640, , 
41.67, 0.054605, , 
41.70, 0.054637, , 
41.73, 0.054665, , 
41.76, 0.054649, , 
41.79, 0.054564, , 
41.82, 0.054618, , 
41.85, 0.054668, , 
41.88, 0.054637, , 
41.91, 0.054630, , 
41.94, 0.054643, , 
41.97, 0.054665, , 
42.00, 0.054646, , 
42.03, 0.054668, , 
42.06, 0.054821, , 
42.09, 0.054992, , 
42.12, 0.055058, , 
42.15, 0.055065, , 
42.18, 0.055106, , 
42.21, 0.055223, , 
42.24, 0.055395, , 
42.27, 0.055512, , 
42.30, 0.055610, , 
42.33, 0.055683, , 
42.36, 0.055804, , 
42.39, 0.055988, , 
42.42, 0.056226, , 
42.45, 0.056438, , 
42.48, 0.056559, , 
42.51, 0.056695, , 
42.54, 0.056943, , 
42.57, 0.057111, , 
42.60, 0.057361, , 
42.63, 0.057574, , 
42.66, 0.057774, , 
42.69, 0.058069, , 
42.72, 0.058316, , 
42.75, 0.058665, , 
42.78, 0.058884, , 
42.81, 0.059147, , 
42.84, 0.059483, , 
42.87, 0.059737, , 
42.90, 0.060105, , 
42.93, 0.060470, , 
42.96, 0.060819, , 
42.99, 0.061183, , 
43.02, 0.061567, , 
43.05, 0.061957, , 
43.08, 0.062208, , 
43.11, 0.062570, , 
43.14, 0.063064, , 
43.17, 0.063397, , 
43.20, 0.063870, , 
43.23, 0.064327, , 
43.26, 0.064752, , 
43.29, 0.065259, , 
43.32, 0.065691, , 
43.35, 0.066208, , 
43.38, 0.066557, , 
43.41, 0.067077, , 
43.44, 0.067461, , 
43.47, 0.067838, , 
43.50, 0.068422, , 
43.53, 0.068888, , 
43.57, 0.069354, , 
43.59, 0.069700, , 
43.62, 0.070151, , 
43.65, 0.070696, , 
43.68, 0.071105, , 
43.71, 0.071514, , 
43.74, 0.071952, , 
43.77, 0.072412, , 
43.80, 0.072907, , 
43.83, 0.073433, , 
43.86, 0.073811, , 
43.89, 0.074258, , 
43.92, 0.074737, , 
43.95, 0.075235, , 
43.98, 0.075708, , 
44.01, 0.076152, , 
44.04, 0.076567, , 
44.07, 0.076977, , 
44.10, 0.077398, , 
44.13, 0.077833, , 
44.16, 0.078391, , 
44.19, 0.078791, , 
44.22, 0.079140, , 
44.25, 0.079501, , 
44.28, 0.079828, , 
44.31, 0.080231, , 
44.35, 0.080551, , 
44.37, 0.080789, , 
44.40, 0.081122, , 
44.43, 0.081449, , 
44.46, 0.081728, , 
44.49, 0.081988, , 
44.52, 0.082226, , 
44.55, 0.082480, , 
44.58, 0.082724, , 
44.61, 0.082860, , 
44.64, 0.082981, , 
44.67, 0.083130, , 
44.70, 0.083305, , 
44.73, 0.083387, , 
44.76, 0.083476, , 
44.79, 0.083619, 14, 0.586
44.79, 0.083647, , 
44.82, 0.083752, , 
44.85, 0.083875, , 
44.88, 0.083898, , 
44.91, 0.083904, , 
44.94, 0.083917, , 
44.97, 0.083799, , 
45.00, 0.083628, , 
45.03, 0.083523, , 
45.06, 0.083473, , 
45.09, 0.083346, , 
45.12, 0.083203, , 
45.15, 0.083108, , 
45.18, 0.082971, , 
45.21, 0.082781, , 
45.24, 0.082572, , 
45.27, 0.082356, , 
45.30, 0.082083, , 
45.33, 0.081738, , 
45.36, 0.081535, , 
45.39, 0.081243, , 
45.42, 0.081018, , 
45.45, 0.080691, , 
45.48, 0.080370, , 
45.51, 0.080079, , 
45.54, 0.079790, , 
45.57, 0.079419, , 
45.60, 0.079013, , 
45.63, 0.078632, , 
45.66, 0.078350, , 
45.69, 0.077957, , 
45.72, 0.077563, , 
45.75, 0.077230, , 
45.78, 0.076881, , 
45.81, 0.076602, , 
45.84, 0.076234, , 
45.87, 0.075822, , 
45.90, 0.075438, , 
45.93, 0.075061, , 
45.96, 0.074718, , 
45.99, 0.074372, , 
46.02, 0.074033, , 
46.05, 0.073646, , 
46.08, 0.073208, , 
46.11, 0.072793, , 
46.14, 0.072434, , 
46.17, 0.072123, , 
46.20, 0.071775, , 
46.23, 0.071359, , 
46.26, 0.070994, , 
46.29, 0.070607, , 
46.32, 0.070211, , 
46.35, 0.069982, , 
46.38, 0.069665, , 
46.41, 0.069202, , 
46.44, 0.068812, , 
46.47, 0.068590, , 
46.50, 0.068235, , 
46.53, 0.067943, , 
46.56, 0.067680, , 
46.59, 0.067381, , 
46.62, 0.067023, , 
46.65, 0.066776, , 
46.68, 0.066458, , 
46.71, 0.066135, , 
46.74, 0.065900, , 
46.78, 0.065551, , 
46.80, 0.065288, , 
46.83, 0.065136, , 
46.86, 0.064869, , 
46.89, 0.064669, , 
46.92, 0.064457, , 
46.95, 0.064213, , 
46.98, 0.064006, , 
47.01, 0.063731, , 
47.04, 0.063632, , 
47.07, 0.063502, , 
47.10, 0.063318, , 
47.13, 0.063077, , 
47.16, 0.062839, , 
47.19, 0.062722, , 
47.22, 0.062646, , 
47.25, 0.062538, , 
47.28, 0.062367, , 
47.31, 0.062227, , 
47.34, 0.062179, , 
47.37, 0.062154, , 
47.40, 0.062059, , 
47.43, 0.062078, , 
47.46, 0.062129, , 
47.49, 0.062113, , 
47.52, 0.062068, , 
47.55, 0.062106, , 
47.58, 0.062122, , 
47.61, 0.062091, , 
47.64, 0.062097, , 
47.67, 0.062129, , 
47.70, 0.062132, , 
47.73, 0.062138, , 
47.76, 0.062233, , 
47.79, 0.062433, , 
47.82, 0.062516, , 
47.85, 0.062525, , 
47.88, 0.062595, , 
47.91, 0.062646, , 
47.94, 0.062744, , 
47.97, 0.062833, , 
47.98, 0.062839, 15, 0.584
48.00, 0.062931, , 
48.03, 0.063074, , 
48.06, 0.063128, , 
48.09, 0.063112, , 
48.12, 0.063118, , 
48.15, 0.063147, , 
48.18, 0.063169, , 
48.21, 0.063122, , 
48.24, 0.063109, , 
48.27, 0.063131, , 
48.30, 0.063217, , 
48.33, 0.063363, , 
48.36, 0.063496, , 
48.39, 0.063550, , 
48.42, 0.063607, , 
48.45, 0.063762, , 
48.48, 0.063911, , 
48.51, 0.064045, , 
48.54, 0.064127, , 
48.57, 0.064238, , 
48.60, 0.064444, , 
48.63, 0.064666, , 
48.66, 0.064876, , 
48.69, 0.065034, , 
48.72, 0.065215, , 
48.75, 0.065497, , 
48.78, 0.065729, , 
48.81, 0.065964, , 
48.84, 0.066249, , 
48.87, 0.066557, , 
48.90, 0.066823, , 
48.93, 0.067086, , 
48.96, 0.067410, , 
48.99, 0.067778, , 
49.02, 0.068025, , 
49.05, 0.068343, , 
49.08, 0.068704, , 
49.11, 0.069075, , 
49.14, 0.069342, , 
49.17, 0.069624, , 
49.20, 0.070055, , 
49.23, 0.070477, , 
49.26, 0.070867, , 
49.29, 0.071311, , 
49.32, 0.071616, , 
49.35, 0.071959, , 
49.38, 0.072304, , 
49.41, 0.072637, , 
49.44, 0.073075, , 
49.47, 0.073376, , 
49.50, 0.073694, , 
49.53, 0.073995, , 
49.56, 0.074471, , 
49.59, 0.074899, , 
49.62, 0.075273, , 
49.65, 0.075746, , 
49.68, 0.076088, , 
49.71, 0.076453, , 
49.74, 0.076780, , 
49.77, 0.077122, , 
49.80, 0.077617, , 
49.83, 0.078026, , 
49.86, 0.078379, , 
49.89, 0.078740, , 
49.92, 0.079070, , 
49.95, 0.079460, , 
49.98, 0.079831, , 
50.01, 0.080209, , 
50.04, 0.080646, , 
50.07, 0.080983, , 
50.10, 0.081274, , 
50.13, 0.081554, , 
50.16, 0.081792, , 
50.19, 0.082134, , 
50.22, 0.082324, , 
50.25, 0.082559, , 
50.28, 0.082819, , 
50.31, 0.083035, , 
50.34, 0.083279, , 
50.37, 0.083488, , 
50.40, 0.083707, , 
50.43, 0.083926, , 
50.46, 0.084040, , 
50.49, 0.084174, , 
50.52, 0.084307, , 
50.55, 0.084405, , 
50.58, 0.084453, , 
50.61, 0.084462, , 
50.64, 0.084497, , 
50.67, 0.084500, , 
50.70, 0.084494, , 
50.73, 0.084494, , 
50.76, 0.084443, , 
50.79, 0.084310, , 
50.82, 0.084110, , 
50.85, 0.084025, , 
50.88, 0.083993, , 
50.91, 0.083815, , 
50.94, 0.083606, , 
50.97, 0.083390, , 
51.00, 0.083225, , 
51.03, 0.082994, , 
51.06, 0.082768, , 
51.09, 0.082518, , 
51.12, 0.082305, , 
51.15, 0.082064, , 
51.17, 0.081788, 16, 0.585
51.18, 0.081696, , 
51.21, 0.081436, , 
51.24, 0.081202, , 
51.27, 0.080910, , 
51.30, 0.080561, , 
51.33, 0.080275, , 
51.36, 0.080041, , 
51.39, 0.079638, , 
51.43, 0.079229, , 
51.45, 0.078956, , 
51.48, 0.078613, , 
51.51, 0.078255, , 
51.54, 0.077814, , 
51.57, 0.077513, , 
51.60, 0.077116, , 
51.63, 0.076770, , 
51.66, 0.076431, , 
51.69, 0.076060, , 
51.72, 0.075695, , 
51.75, 0.075222, , 
51.78, 0.074908, , 
51.81, 0.074582, , 
51.84, 0.074217, , 
51.87, 0.073865, , 
51.90, 0.073395, , 
51.93, 0.073046, , 
51.96, 0.072793, , 
51.99, 0.072437, , 
52.02, 0.072050, , 
52.05, 0.071794, , 
52.08, 0.071521, , 
52.11, 0.071181, , 
52.14, 0.070823, , 
52.17, 0.070560, , 
52.20, 0.070300, , 
52.23, 0.070008, , 
52.26, 0.069713, , 
52.29, 0.069421, , 
52.32, 0.069215, , 
52.35, 0.068948, , 
52.38, 0.068695, , 
52.41, 0.068504, , 
52.44, 0.068304, , 
52.47, 0.068120, , 
52.50, 0.067981, , 
52.53, 0.067797, , 
52.56, 0.067664, , 
52.59, 0.067470, , 
52.63, 0.067318, , 
52.65, 0.067242, , 
52.68, 0.067096, , 
52.71, 0.066864, , 
52.74, 0.066693, , 
52.77, 0.066630, , 
52.80, 0.066582, , 
52.84, 0.066519, , 
52.86, 0.066496, , 
52.89, 0.066531, , 
52.92, 0.066538, , 
52.95, 0.066462, , 
52.98, 0.066512, , 
53.01, 0.066522, , 
53.04, 0.066509, , 
53.07, 0.066522, , 
53.10, 0.066544, , 
53.13, 0.066655, , 
53.16, 0.066772, , 
53.19, 0.066861, , 
53.22, 0.067093, , 
53.25, 0.067245, , 
53.28, 0.067331, , 
53.31, 0.067524, , 
53.34, 0.067651, , 
53.37, 0.067889, , 
53.40, 0.068114, , 
53.43, 0.068314, , 
53.46, 0.068612, , 
53.49, 0.068923, , 
53.52, 0.069199, , 
53.55, 0.069396, , 
53.58, 0.069646, , 
53.61, 0.069909, , 
53.64, 0.070195, , 
53.68, 0.070595, , 
53.70, 0.070918, , 
53.73, 0.071235, , 
53.76, 0.071581, , 
53.79, 0.071889, , 
53.82, 0.072365, , 
53.85, 0.072774, , 
53.88, 0.073183, , 
53.91, 0.073621, , 
53.94, 0.073998, , 
53.97, 0.074318, , 
54.00, 0.074623, , 
54.03, 0.075096, , 
54.07, 0.075505, , 
54.09, 0.075923, , 
54.12, 0.076345, , 
54.15, 0.076764, , 
54.18, 0.077265, , 
54.21, 0.077706, , 
54.24, 0.078195, , 
54.27, 0.078588, , 
54.30, 0.079054, , 
54.33, 0.079552, , 
54.36, 0.079974, , 
54.39, 0.080351, 17, 0.588
54.39, 0.080424, , 
54.42, 0.080903, , 
54.45, 0.081360, , 
54.48, 0.081601, , 
54.51, 0.081979, , 
54.54, 0.082369, , 
54.57, 0.082743, , 
54.60, 0.083076, , 
54.63, 0.083416, , 
54.66, 0.083803, , 
54.69, 0.084123, , 
54.72, 0.084434, , 
54.75, 0.084716, , 
54.78, 0.084954, , 
54.81, 0.085189, , 
54.84, 0.085379, , 
54.87, 0.085572, , 
54.90, 0.085718, , 
54.93, 0.085902, , 
54.96, 0.086026, , 
54.99, 0.086188, , 
55.02, 0.086286, , 
55.05, 0.086305, , 
55.08, 0.086334, , 
55.11, 0.086413, , 
55.14, 0.086587, , 
55.17, 0.086597, , 
55.20, 0.086499, , 
55.23, 0.086499, , 
55.26, 0.086454, , 
55.29, 0.086343, , 
55.32, 0.086318, , 
55.35, 0.086308, , 
55.38, 0.086235, , 
55.41, 0.086048, , 
55.44, 0.085893, , 
55.47, 0.085706, , 
55.50, 0.085541, , 
55.53, 0.085395, , 
55.56, 0.085170, , 
55.59, 0.084986, , 
55.62, 0.084783, , 
55.65, 0.084497, , 
55.68, 0.084250, , 
55.71, 0.083936, , 
55.74, 0.083679, , 
55.77, 0.083435, , 
55.80, 0.083086, , 
55.83, 0.082810, , 
55.86, 0.082562, , 
55.89, 0.082267, , 
55.92, 0.081985, , 
55.95, 0.081646, , 
55.98, 0.081366, , 
56.01, 0.081100, , 
56.04, 0.080862, , 
56.07, 0.080634, , 
56.10, 0.080298, , 
56.13, 0.080009, , 
56.16, 0.079730, , 
56.19, 0.079533, , 
56.22, 0.079241, , 
56.25, 0.078889, , 
56.28, 0.078689, , 
56.31, 0.078442, , 
56.34, 0.078156, , 
56.37, 0.077909, , 
56.40, 0.077678, , 
56.43, 0.077452, , 
56.47, 0.077176, , 
56.49, 0.076942, , 
56.52, 0.076739, , 
56.55, 0.076602, , 
56.58, 0.076412, , 
56.61, 0.076225, , 
56.64, 0.076123, , 
56.67, 0.076073, , 
56.70, 0.075968, , 
56.73, 0.075797, , 
56.76, 0.075606, , 
56.79, 0.075533, , 
56.82, 0.075460, , 
56.85, 0.075419, , 
56.88, 0.075463, , 
56.91, 0.075460, , 
56.94, 0.075400, , 
56.97, 0.075368, , 
57.00, 0.075425, , 
57.03, 0.075562, , 
57.06, 0.075695, , 
57.09, 0.075768, , 
57.12, 0.075882, , 
57.15, 0.076019, , 
57.18, 0.076098, , 
57.21, 0.076222, , 
57.24, 0.076425, , 
57.27, 0.076564, , 
57.30, 0.076748, , 
57.33, 0.076938, , 
57.36, 0.077157, , 
57.39, 0.077446, , 
57.42, 0.077624, , 
57.45, 0.077925, , 
57.48, 0.078191, , 
57.51, 0.078423, , 
57.54, 0.078734, , 
57.57, 0.078949, , 
57.59, 0.079073, 18, 0.585
57.60, 0.079248, , 
57.63, 0.079568, , 
57.66, 0.079892, , 
57.69, 0.080326, , 
57.72, 0.080605, , 
57.75, 0.080957, , 
57.78, 0.081214, , 
57.81, 0.081566, , 
57.84, 0.081966, , 
57.87, 0.082261, , 
57.90, 0.082604, , 
57.93, 0.082902, , 
57.96, 0.083270, , 
57.99, 0.083606, , 
58.02, 0.083885, , 
58.05, 0.084234, , 
58.08, 0.084719, , 
58.11, 0.084982, , 
58.14, 0.085287, , 
58.17, 0.085595, , 
58.20, 0.085902, , 
58.23, 0.086200, , 
58.26, 0.086435, , 
58.29, 0.086711, , 
58.32, 0.086965, , 
58.35, 0.087133, , 
58.38, 0.087330, , 
58.41, 0.087549, , 
58.44, 0.087742, , 
58.47, 0.087872, , 
58.50, 0.088069, , 
58.53, 0.088231, , 
58.56, 0.088278, , 
58.59, 0.088364, , 
58.62, 0.088519, , 
58.65, 0.088598, , 
58.68, 0.088706, , 
58.71, 0.088757, , 
58.74, 0.088754, , 
58.77, 0.088821, , 
58.80, 0.088840, , 
58.83, 0.088770, , 
58.86, 0.088697, , 
58.89, 0.088671, , 
58.92, 0.088545, , 
58.95, 0.088402, , 
58.98, 0.088326, , 
59.01, 0.088338, , 
59.04, 0.088272, , 
59.07, 0.088078, , 
59.10, 0.087958, , 
59.13, 0.087866, , 
59.16, 0.087675, , 
59.19, 0.087545, , 
59.22, 0.087428, , 
59.25, 0.087371, , 
59.28, 0.087196, , 
59.31, 0.086984, , 
59.34, 0.086835, , 
59.37, 0.086645, , 
59.40, 0.086499, , 
59.43, 0.086289, , 
59.46, 0.086150, , 
59.49, 0.086001, , 
59.52, 0.085750, , 
59.55, 0.085544, , 
59.58, 0.085408, , 
59.61, 0.085268, , 
59.64, 0.085113, , 
59.67, 0.084922, , 
59.70, 0.084840, , 
59.73, 0.084656, , 
59.76, 0.084478, , 
59.79, 0.084354, , 
59.82, 0.084262, , 
59.85, 0.084186, , 
59.88, 0.084009, , 
59.91, 0.083901, , 
59.94, 0.083910, , 
59.97, 0.083860, , 
60.00, 0.083844, , 
60.03, 0.083834, , 
60.06, 0.083853, , 
60.09, 0.083872, , 
60.12, 0.083891, , 
60.15, 0.083996, , 
60.18, 0.084136, , 
60.21, 0.084269, , 
60.24, 0.084278, , 
60.27, 0.084335, , 
60.30, 0.084510, , 
60.33, 0.084621, , 
60.36, 0.084665, , 
60.40, 0.084856, , 
60.42, 0.085002, , 
60.45, 0.085151, , 
60.48, 0.085262, , 
60.51, 0.085446, , 
60.54, 0.085703, , 
60.57, 0.085893, , 
60.61, 0.086080, , 
60.63, 0.086258, , 
60.66, 0.086515, , 
60.69, 0.086746, , 
60.72, 0.086952, , 
60.75, 0.087238, , 
60.78, 0.087479, 19, 0.584
60.78, 0.087533, , 
60.81, 0.087758, , 
60.84, 0.088031, , 
60.87, 0.088303, , 
60.90, 0.088560, , 
60.93, 0.088821, , 
60.96, 0.089004, , 
60.99, 0.089230, , 
61.02, 0.089499, , 
61.05, 0.089696, , 
61.08, 0.089883, , 
61.11, 0.090096, , 
61.14, 0.090362, , 
61.17, 0.090540, , 
61.20, 0.090648, , 
61.23, 0.090885, , 
61.27, 0.091073, , 
61.29, 0.091127, , 
61.32, 0.091130, , 
61.35, 0.091212, , 
61.38, 0.091339, , 
61.41, 0.091466, , 
61.44, 0.091552, , 
61.48, 0.091688, , 
61.50, 0.091723, , 
61.53, 0.091707, , 
61.56, 0.091713, , 
61.59, 0.091739, , 
61.62, 0.091713, , 
61.65, 0.091736, , 
61.68, 0.091761, , 
61.71, 0.091780, , 
61.74, 0.091758, , 
61.77, 0.091748, , 
61.80, 0.091713, , 
61.83, 0.091637, , 
61.86, 0.091577, , 
61.89, 0.091418, , 
61.92, 0.091349, , 
61.95, 0.091291, , 
61.98, 0.091276, , 
62.01, 0.091272, , 
62.04, 0.091218, , 
62.07, 0.091161, , 
62.10, 0.091044, , 
62.13, 0.090914, , 
62.16, 0.090873, , 
62.19, 0.090860, , 
62.22, 0.090828, , 
62.25, 0.090762, , 
62.28, 0.090740, , 
62.31, 0.090651, , 
62.34, 0.090527, , 
62.37, 0.090403, , 
62.41, 0.090413, , 
62.43, 0.090397, , 
62.46, 0.090349, , 
62.49, 0.090314, , 
62.52, 0.090343, , 
62.55, 0.090359, , 
62.58, 0.090314, , 
62.61, 0.090308, , 
62.64, 0.090372, , 
62.67, 0.090498, , 
62.70, 0.090609, , 
62.73, 0.090676, , 
62.76, 0.090768, , 
62.79, 0.090819, , 
62.82, 0.090847, , 
62.85, 0.090885, , 
62.88, 0.091041, , 
62.91, 0.091203, , 
62.94, 0.091336, , 
62.97, 0.091463, , 
63.00, 0.091612, , 
63.03, 0.091726, , 
63.06, 0.091789, , 
63.09, 0.091926, , 
63.12, 0.092097, , 
63.15, 0.092208, , 
63.18, 0.092326, , 
63.21, 0.092519, , 
63.24, 0.092652, , 
63.27, 0.092785, , 
63.30, 0.092979, , 
63.33, 0.093093, , 
63.36, 0.093188, , 
63.39, 0.093277, , 
63.42, 0.093391, , 
63.45, 0.093569, , 
63.48, 0.093693, , 
63.51, 0.093756, , 
63.54, 0.093877, , 
63.57, 0.094010, , 
63.60, 0.094159, , 
63.63, 0.094213, , 
63.66, 0.094238, , 
63.69, 0.094314, , 
63.72, 0.094454, , 
63.75, 0.094593, , 
63.78, 0.094654, , 
63.81, 0.094704, , 
63.84, 0.094736, , 
63.87, 0.094746, , 
63.90, 0.094733, , 
63.93, 0.094771, , 
63.96, 0.094784, , 
63.98, 0.094796, 20, 0.586
63.99, 0.094787, , 
64.02, 0.094765, , 
64.05, 0.094787, , 
64.08, 0.094841, , 
64.11, 0.094714, , 
64.14, 0.094565, , 
64.17, 0.094467, , 
64.20, 0.094381, , 
64.24, 0.094324, , 
64.26, 0.094273, , 
64.29, 0.094276, , 
64.32, 0.094232, , 
64.35, 0.094083, , 
64.38, 0.093946, , 
64.41, 0.093858, , 
64.44, 0.093858, , 
64.47, 0.093797, , 
64.50, 0.093772, , 
64.53, 0.093797, , 
64.56, 0.093816, , 
64.59, 0.093788, , 
64.62, 0.093769, , 
64.65, 0.093785, , 
64.68, 0.093816, , 
64.71, 0.093797, , 
64.74, 0.093788, , 
64.77, 0.093813, , 
64.80, 0.093781, , 
64.83, 0.093753, , 
64.86, 0.093804, , 
64.89, 0.093956, , 
64.92, 0.094092, , 
64.95, 0.094206, , 
64.98, 0.094273, , 
65.01, 0.094317, , 
65.04, 0.094302, , 
65.07, 0.094337, , 
65.10, 0.094508, , 
65.13, 0.094660, , 
65.16, 0.094768, , 
65.19, 0.094768, , 
65.22, 0.094812, , 
65.25, 0.094898, , 
65.28, 0.095003, , 
65.31, 0.095076, , 
65.34, 0.095193, , 
65.37, 0.095301, , 
65.40, 0.095345, , 
65.43, 0.095342, , 
65.46, 0.095497, , 
65.49, 0.095637, , 
65.52, 0.095745, , 
65.55, 0.095780, , 
65.58, 0.095786, , 
65.61, 0.095818, , 
65.64, 0.095850, , 
65.68, 0.095948, , 
65.70, 0.096075, , 
65.73, 0.096214, , 
65.76, 0.096281, , 
65.79, 0.096278, , 
65.82, 0.096300, , 
65.85, 0.096351, , 
65.89, 0.096367, , 
65.91, 0.096335, , 
65.94, 0.096338, , 
65.97, 0.096373, , 
66.00, 0.096344, , 
66.03, 0.096297, , 
66.06, 0.096341, , 
66.09, 0.096401, , 
66.12, 0.096389, , 
66.15, 0.096335, , 
66.18, 0.096386, , 
66.21, 0.096395, , 
66.24, 0.096351, , 
66.27, 0.096287, , 
66.30, 0.096183, , 
66.33, 0.096119, , 
66.36, 0.096014, , 
66.39, 0.095957, , 
66.42, 0.095932, , 
66.45, 0.095903, , 
66.48, 0.095900, , 
66.51, 0.095853, , 
66.54, 0.095884, , 
66.57, 0.095894, , 
66.60, 0.095726, , 
66.63, 0.095647, , 
66.66, 0.095539, , 
66.69, 0.095488, , 
66.72, 0.095437, , 
66.75, 0.095380, , 
66.78, 0.095440, , 
66.81, 0.095453, , 
66.84, 0.095421, , 
66.87, 0.095409, , 
66.90, 0.095456, , 
66.93, 0.095409, , 
66.96, 0.095348, , 
66.99, 0.095358, , 
67.02, 0.095402, , 
67.05, 0.095393, , 
67.08, 0.095358, , 
67.11, 0.095374, , 
67.14, 0.095390, , 
67.17, 0.095377, 21, 0.585
67.18, 0.095380, , 
67.20, 0.095377, , 
67.23, 0.095396, , 
67.26, 0.095434, , 
67.29, 0.095434, , 
67.32, 0.095355, , 
67.35, 0.095209, , 
67.38, 0.095091, , 
67.41, 0.095006, , 
67.44, 0.094955, , 
67.48, 0.094939, , 
67.50, 0.094923, , 
67.53, 0.094933, , 
67.56, 0.094920, , 
67.59, 0.094898, , 
67.62, 0.094882, , 
67.65, 0.094879, , 
67.68, 0.094863, , 
67.71, 0.094841, , 
67.74, 0.094892, , 
67.77, 0.094863, , 
67.80, 0.094828, , 
67.83, 0.094787, , 
67.86, 0.094644, , 
67.89, 0.094555, , 
67.92, 0.094425, , 
67.95, 0.094394, , 
67.98, 0.094403, , 
68.01, 0.094378, , 
68.04, 0.094302, , 
68.07, 0.094181, , 
68.10, 0.094118, , 
68.13, 0.094019, , 
68.16, 0.093931, , 
68.19, 0.093918, , 
68.22, 0.093946, , 
68.25, 0.093835, , 
68.28, 0.093661, , 
68.31, 0.093569, , 
68.34, 0.093490, , 
68.37, 0.093423, , 
68.40, 0.093436, , 
68.43, 0.093423, , 
68.46, 0.093268, , 
68.49, 0.093061, , 
68.52, 0.093001, , 
68.55, 0.092969, , 
68.58, 0.092903, , 
68.61, 0.092849, , 
68.64, 0.092798, , 
68.67, 0.092700, , 
68.70, 0.092586, , 
68.73, 0.092471, , 
68.76, 0.092440, , 
68.79, 0.092481, , 
68.82, 0.092475, , 
68.85, 0.092433, , 
68.88, 0.092338, , 
68.91, 0.092256, , 
68.94, 0.092138, , 
68.97, 0.092065, , 
69.00, 0.092021, , 
69.03, 0.091958, , 
69.06, 0.091783, , 
69.09, 0.091653, , 
69.12, 0.091596, , 
69.15, 0.091574, , 
69.18, 0.091517, , 
69.21, 0.091479, , 
69.24, 0.091479, , 
69.27, 0.091412, , 
69.30, 0.091212, , 
69.33, 0.091133, , 
69.36, 0.091079, , 
69.39, 0.091019, , 
69.42, 0.090943, , 
69.45, 0.090797, , 
69.48, 0.090692, , 
69.51, 0.090578, , 
69.54, 0.090502, , 
69.57, 0.090467, , 
69.60, 0.090410, , 
69.63, 0.090264, , 
69.66, 0.090143, , 
69.69, 0.090080, , 
69.72, 0.090007, , 
69.75, 0.089848, , 
69.78, 0.089683, , 
69.81, 0.089569, , 
69.84, 0.089515, , 
69.87, 0.089319, , 
69.90, 0.089131, , 
69.93, 0.089049, , 
69.96, 0.088992, , 
69.99, 0.088859, , 
70.02, 0.088665, , 
70.05, 0.088500, , 
70.08, 0.088418, , 
70.11, 0.088262, , 
70.14, 0.088129, , 
70.17, 0.088009, , 
70.20, 0.088012, , 
70.23, 0.087970, , 
70.26, 0.087910, , 
70.29, 0.087812, , 
70.32, 0.087691, , 
70.35, 0.087615, , 
70.38, 0.087507, , 
70.40, 0.087495, 22, 0.590
70.41, 0.087495, , 
70.44, 0.087504, , 
70.47, 0.087374, , 
70.50, 0.087146, , 
70.53, 0.087044, , 
70.56, 0.087044, , 
70.59, 0.087003, , 
70.62, 0.086879, , 
70.65, 0.086714, , 
70.68, 0.086635, , 
70.71, 0.086546, , 
70.74, 0.086362, , 
70.77, 0.086216, , 
70.80, 0.086083, , 
70.83, 0.086042, , 
70.86, 0.085963, , 
70.89, 0.085823, , 
70.92, 0.085696, , 
70.95, 0.085550, , 
70.98, 0.085490, , 
71.01, 0.085373, , 
71.04, 0.085239, , 
71.07, 0.085065, , 
71.10, 0.084903, , 
71.13, 0.084783, , 
71.16, 0.084630, , 
71.19, 0.084427, , 
71.23, 0.084291, , 
71.25, 0.084117, , 
71.28, 0.083879, , 
71.31, 0.083647, , 
71.34, 0.083517, , 
71.37, 0.083384, , 
71.40, 0.083146, , 
71.43, 0.083032, , 
71.46, 0.082924, , 
71.49, 0.082730, , 
71.52, 0.082569, , 
71.55, 0.082439, , 
71.58, 0.082429, , 
71.61, 0.082442, , 
71.64, 0.082401, , 
71.67, 0.082258, , 
71.70, 0.082115, , 
71.73, 0.082055, , 
71.76, 0.081988, , 
71.79, 0.081912, , 
71.82, 0.081909, , 
71.85, 0.081915, , 
71.88, 0.081887, , 
71.91, 0.081826, , 
71.94, 0.081712, , 
71.97, 0.081614, , 
72.00, 0.081500, , 
72.03, 0.081414, , 
72.06, 0.081417, , 
72.09, 0.081439, , 
72.12, 0.081408, , 
72.15, 0.081408, , 
72.18, 0.081430, , 
72.21, 0.081392, , 
72.24, 0.081160, , 
72.27, 0.081062, , 
72.30, 0.081027, , 
72.33, 0.080995, , 
72.36, 0.080964, , 
72.39, 0.080964, , 
72.42, 0.080970, , 
72.45, 0.080957, , 
72.48, 0.080948, , 
72.51, 0.080926, , 
72.54, 0.080926, , 
72.57, 0.080926, , 
72.60, 0.080938, , 
72.63, 0.080910, , 
72.66, 0.080881, , 
72.69, 0.080815, , 
72.72, 0.080646, , 
72.75, 0.080564, , 
72.78, 0.080523, , 
72.81, 0.080472, , 
72.84, 0.080345, , 
72.88, 0.080212, , 
72.90, 0.080091, , 
72.93, 0.079961, , 
72.96, 0.079800, , 
72.99, 0.079666, , 
73.02, 0.079555, , 
73.05, 0.079368, , 
73.08, 0.079225, , 
73.11, 0.079102, , 
73.14, 0.078940, , 
73.17, 0.078788, , 
73.20, 0.078572, , 
73.23, 0.078464, , 
73.26, 0.078334, , 
73.29, 0.078163, , 
73.32, 0.078042, , 
73.35, 0.077985, , 
73.38, 0.077868, , 
73.41, 0.077738, , 
73.44, 0.077608, , 
73.47, 0.077538, , 
73.50, 0.077417, , 
73.53, 0.077233, , 
73.56, 0.077072, , 
73.58, 0.077034, 23, 0.582
73.60, 0.077008, , 
73.62, 0.077008, , 
73.65, 0.076856, , 
73.68, 0.076678, , 
73.71, 0.076609, , 
73.74, 0.076545, , 
73.77, 0.076466, , 
73.80, 0.076437, , 
73.83, 0.076440, , 
73.86, 0.076374, , 
73.89, 0.076250, , 
73.92, 0.076120, , 
73.95, 0.076060, , 
73.98, 0.076025, , 
74.01, 0.075984, , 
74.04, 0.075923, , 
74.07, 0.075854, , 
74.10, 0.075746, , 
74.13, 0.075603, , 
74.16, 0.075540, , 
74.19, 0.075562, , 
74.22, 0.075508, , 
74.25, 0.075403, , 
74.28, 0.075273, , 
74.31, 0.075146, , 
74.34, 0.075099, , 
74.37, 0.075029, , 
74.40, 0.075013, , 
74.43, 0.075032, , 
74.46, 0.075048, , 
74.49, 0.075029, , 
74.52, 0.075004, , 
74.55, 0.075010, , 
74.58, 0.074997, , 
74.61, 0.074921, , 
74.64, 0.074832, , 
74.67, 0.074693, , 
74.70, 0.074601, , 
74.73, 0.074559, , 
74.76, 0.074540, , 
74.79, 0.074512, , 
74.82, 0.074464, , 
74.85, 0.074376, , 
74.88, 0.074214, , 
74.91, 0.074195, , 
74.94, 0.074134, , 
74.97, 0.074090, , 
75.00, 0.074011, , 
75.03, 0.073833, , 
75.06, 0.073665, , 
75.09, 0.073573, , 
75.12, 0.073503, , 
75.15, 0.073376, , 
75.18, 0.073237, , 
75.21, 0.073085, , 
75.24, 0.073040, , 
75.27, 0.072913, , 
75.30, 0.072751, , 
75.33, 0.072640, , 
75.36, 0.072542, , 
75.39, 0.072450, , 
75.42, 0.072355, , 
75.45, 0.072206, , 
75.48, 0.072120, , 
75.51, 0.072035, , 
75.54, 0.071873, , 
75.57, 0.071746, , 
75.60, 0.071667, , 
75.63, 0.071565, , 
75.66, 0.071381, , 
75.69, 0.071204, , 
75.72, 0.071140, , 
75.75, 0.071064, , 
75.78, 0.070858, , 
75.81, 0.070690, , 
75.84, 0.070604, , 
75.87, 0.070553, , 
75.90, 0.070388, , 
75.93, 0.070293, , 
75.96, 0.070204, , 
75.99, 0.070128, , 
76.02, 0.070055, , 
76.05, 0.070027, , 
76.08, 0.070062, , 
76.11, 0.070052, , 
76.14, 0.070011, , 
76.17, 0.070020, , 
76.20, 0.070033, , 
76.23, 0.069970, , 
76.26, 0.069706, , 
76.29, 0.069535, , 
76.32, 0.069424, , 
76.35, 0.069170, , 
76.38, 0.068999, , 
76.41, 0.068710, , 
76.44, 0.068631, , 
76.47, 0.068504, , 
76.50, 0.068209, , 
76.53, 0.067952, , 
76.56, 0.067686, , 
76.59, 0.067426, , 
76.62, 0.067121, , 
76.65, 0.066801, , 
76.68, 0.066646, , 
76.71, 0.066471, , 
76.74, 0.066259, , 
76.77, 0.066201, , 
76.78, 0.066195, 24, 0.586
76.80, 0.066189, , 
76.83, 0.066141, , 
76.86, 0.066106, , 
76.89, 0.066081, , 
76.92, 0.065938, , 
76.95, 0.065783, , 
76.98, 0.065672, , 
77.01, 0.065640, , 
77.04, 0.065646, , 
77.07, 0.065548, , 
77.10, 0.065332, , 
77.14, 0.065209, , 
77.16, 0.065167, , 
77.19, 0.064983, , 
77.22, 0.064822, , 
77.25, 0.064714, , 
77.28, 0.064644, , 
77.31, 0.064451, , 
77.34, 0.064374, , 
77.37, 0.064235, , 
77.40, 0.064064, , 
77.43, 0.063854, , 
77.46, 0.063727, , 
77.49, 0.063639, , 
77.52, 0.063464, , 
77.55, 0.063328, , 
77.58, 0.063175, , 
77.61, 0.062991, , 
77.64, 0.062884, , 
77.67, 0.062709, , 
77.70, 0.062579, , 
77.73, 0.062500, , 
77.76, 0.062373, , 
77.79, 0.062271, , 
77.82, 0.062157, , 
77.85, 0.062018, , 
77.88, 0.061872, , 
77.91, 0.061723, , 
77.94, 0.061634, , 
77.97, 0.061618, , 
78.00, 0.061488, , 
78.03, 0.061307, , 
78.06, 0.061180, , 
78.09, 0.061145, , 
78.12, 0.061047, , 
78.15, 0.060923, , 
78.18, 0.060762, , 
78.21, 0.060628, , 
78.24, 0.060613, , 
78.27, 0.060460, , 
78.30, 0.060283, , 
78.33, 0.060165, , 
78.37, 0.060149, , 
78.39, 0.060111, , 
78.42, 0.060080, , 
78.45, 0.060048, , 
78.48, 0.059991, , 
78.51, 0.059823, , 
78.54, 0.059712, , 
78.57, 0.059651, , 
78.60, 0.059636, , 
78.63, 0.059626, , 
78.66, 0.059604, , 
78.69, 0.059585, , 
78.72, 0.059585, , 
78.75, 0.059537, , 
78.78, 0.059544, , 
78.81, 0.059486, , 
78.84, 0.059363, , 
78.87, 0.059207, , 
78.90, 0.059141, , 
78.93, 0.059131, , 
78.96, 0.059125, , 
78.99, 0.059115, , 
79.02, 0.059087, , 
79.05, 0.059096, , 
79.08, 0.059115, , 
79.11, 0.059058, , 
79.14, 0.059049, , 
79.17, 0.059061, , 
79.20, 0.059033, , 
79.23, 0.058868, , 
79.26, 0.058706, , 
79.29, 0.058646, , 
79.32, 0.058659, , 
79.35, 0.058605, , 
79.38, 0.058567, , 
79.41, 0.058529, , 
79.44, 0.058437, , 
79.47, 0.058243, , 
79.51, 0.058148, , 
79.53, 0.058132, , 
79.56, 0.058100, , 
79.59, 0.058021, , 
79.62, 0.057802, , 
79.65, 0.057694, , 
79.68, 0.057628, , 
79.71, 0.057618, , 
79.74, 0.057552, , 
79.77, 0.057415, , 
79.80, 0.057272, , 
79.83, 0.057146, , 
79.86, 0.057127, , 
79.89, 0.057108, , 
79.92, 0.057104, , 
79.95, 0.057073, , 
79.98, 0.056958, 25, 0.586
80.00, 0.056933, , 
80.01, 0.056876, , 
80.04, 0.056740, , 
80.07, 0.056648, , 
80.10, 0.056606, , 
80.13, 0.056616, , 
80.16, 0.056597, , 
80.19, 0.056546, , 
80.22, 0.056432, , 
80.25, 0.056346, , 
80.28, 0.056216, , 
80.31, 0.056118, , 
80.34, 0.056080, , 
80.37, 0.056039, , 
80.40, 0.055915, , 
80.43, 0.055763, , 
80.46, 0.055677, , 
80.49, 0.055636, , 
80.52, 0.055534, , 
80.55, 0.055290, , 
80.58, 0.055150, , 
80.62, 0.055119, , 
80.64, 0.055119, , 
80.67, 0.055046, , 
80.70, 0.054925, , 
80.73, 0.054951, , 
80.76, 0.054957, , 
80.79, 0.054868, , 
80.82, 0.054833, , 
80.85, 0.054643, , 
80.88, 0.054526, , 
80.91, 0.054345, , 
80.94, 0.054205, , 
80.97, 0.054180, , 
81.00, 0.054167, , 
81.03, 0.054135, , 
81.06, 0.054101, , 
81.09, 0.054062, , 
81.12, 0.053948, , 
81.15, 0.053847, , 
81.18, 0.053698, , 
81.22, 0.053631, , 
81.24, 0.053650, , 
81.27, 0.053615, , 
81.30, 0.053574, , 
81.33, 0.053596, , 
81.36, 0.053580, , 
81.39, 0.053650, , 
81.42, 0.053764, , 
81.45, 0.053837, , 
81.48, 0.053999, , 
81.51, 0.054024, , 
81.54, 0.054085, , 
81.57, 0.054126, , 
81.60, 0.054107, , 
81.63, 0.054097, , 
81.66, 0.054062, , 
81.70, 0.054059, , 
81.72, 0.054107, , 
81.75, 0.054075, , 
81.78, 0.054053, , 
81.81, 0.054009, , 
81.84, 0.053898, , 
81.87, 0.053758, , 
81.90, 0.053647, , 
81.93, 0.053641, , 
81.96, 0.053679, , 
81.99, 0.053622, , 
82.02, 0.053558, , 
82.05, 0.053587, , 
82.08, 0.053606, , 
82.11, 0.053564, , 
82.14, 0.053539, , 
82.17, 0.053517, , 
82.20, 0.053438, , 
82.23, 0.053342, , 
82.26, 0.053247, , 
82.29, 0.053155, , 
82.32, 0.053120, , 
82.35, 0.053114, , 
82.38, 0.053108, , 
82.41, 0.053092, , 
82.44, 0.053013, , 
82.47, 0.052854, , 
82.50, 0.052730, , 
82.53, 0.052708, , 
82.56, 0.052689, , 
82.59, 0.052657, , 
82.62, 0.052603, , 
82.65, 0.052629, , 
82.68, 0.052648, , 
82.71, 0.052651, , 
82.74, 0.052619, , 
82.77, 0.052584, , 
82.80, 0.052549, , 
82.83, 0.052496, , 
82.86, 0.052432, , 
82.89, 0.052267, , 
82.92, 0.052210, , 
82.95, 0.052147, , 
82.98, 0.052061, , 
83.01, 0.052090, , 
83.04, 0.052109, , 
83.07, 0.052058, , 
83.10, 0.052064, , 
83.13, 0.052102, , 
83.16, 0.052080, , 
83.18, 0.052017, 26, 0.586
83.19, 0.051982, , 
83.22, 0.051877, , 
83.25, 0.051823, , 
83.28, 0.051766, , 
83.31, 0.051741, , 
83.34, 0.051690, , 
83.37, 0.051639, , 
83.40, 0.051664, , 
83.43, 0.051649, , 
83.46, 0.051563, , 
83.49, 0.051588, , 
83.52, 0.051582, , 
83.55, 0.051408, , 
83.58, 0.051281, , 
83.61, 0.051201, , 
83.65, 0.051176, , 
83.67, 0.051128, , 
83.70, 0.051081, , 
83.73, 0.051100, , 
83.76, 0.051163, , 
83.79, 0.051116, , 
83.82, 0.051113, , 
83.85, 0.051157, , 
83.88, 0.051151, , 
83.91, 0.051116, , 
83.94, 0.051094, , 
83.97, 0.051138, , 
84.00, 0.051154, , 
84.03, 0.051097, , 
84.06, 0.050948, , 
84.09, 0.050878, , 
84.12, 0.050783, , 
84.15, 0.050713, , 
84.18, 0.050646, , 
84.21, 0.050640, , 
84.24, 0.050659, , 
84.27, 0.050640, , 
84.30, 0.050567, , 
84.33, 0.050453, , 
84.36, 0.050329, , 
84.39, 0.050234, , 
84.42, 0.050170, , 
84.45, 0.050126, , 
84.48, 0.050205, , 
84.51, 0.050170, , 
84.54, 0.050132, , 
84.57, 0.050151, , 
84.60, 0.050158, , 
84.63, 0.050164, , 
84.67, 0.050110, , 
84.69, 0.050136, , 
84.72, 0.050177, , 
84.75, 0.050107, , 
84.78, 0.050088, , 
84.81, 0.050136, , 
84.84, 0.050170, , 
84.87, 0.050148, , 
84.90, 0.050091, , 
84.94, 0.050148, , 
84.96, 0.050158, , 
84.99, 0.050107, , 
85.02, 0.050075, , 
85.05, 0.049939, , 
85.08, 0.049834, , 
85.11, 0.049745, , 
85.14, 0.049676, , 
85.17, 0.049660, , 
85.20, 0.049692, , 
85.23, 0.049653, , 
85.26, 0.049653, , 
85.29, 0.049672, , 
85.32, 0.049609, , 
85.35, 0.049600, , 
85.38, 0.049628, , 
85.41, 0.049663, , 
85.44, 0.049685, , 
85.47, 0.049676, , 
85.50, 0.049647, , 
85.53, 0.049688, , 
85.56, 0.049707, , 
85.59, 0.049638, , 
85.62, 0.049596, , 
85.65, 0.049638, , 
85.68, 0.049628, , 
85.71, 0.049625, , 
85.74, 0.049596, , 
85.77, 0.049631, , 
85.80, 0.049641, , 
85.83, 0.049603, , 
85.86, 0.049584, , 
85.89, 0.049619, , 
85.92, 0.049653, , 
85.95, 0.049609, , 
85.98, 0.049590, , 
86.01, 0.049631, , 
86.04, 0.049647, , 
86.07, 0.049628, , 
86.10, 0.049622, , 
86.13, 0.049628, , 
86.16, 0.049625, , 
86.19, 0.049482, , 
86.22, 0.049317, , 
86.26, 0.049219, , 
86.28, 0.049187, , 
86.31, 0.049117, , 
86.34, 0.049127, , 
86.37, 0.049159, , 
86.38, 0.049149, 27, 0.585
86.40, 0.049117, , 
86.43, 0.049114, , 
86.46, 0.049127, , 
86.49, 0.049181, , 
86.52, 0.049168, , 
86.55, 0.049105, , 
86.58, 0.049124, , 
86.61, 0.049197, , 
86.64, 0.049133, , 
86.67, 0.049086, , 
86.70, 0.049089, , 
86.73, 0.049114, , 
86.76, 0.049117, , 
86.79, 0.049057, , 
86.82, 0.049092, , 
86.85, 0.049124, , 
86.88, 0.049098, , 
86.91, 0.049089, , 
86.94, 0.049022, , 
86.97, 0.048857, , 
87.00, 0.048749, , 
87.03, 0.048683, , 
87.06, 0.048619, , 
87.10, 0.048642, , 
87.12, 0.048648, , 
87.15, 0.048559, , 
87.18, 0.048559, , 
87.21, 0.048664, , 
87.24, 0.048673, , 
87.27, 0.048591, , 
87.30, 0.048604, , 
87.33, 0.048629, , 
87.36, 0.048610, , 
87.39, 0.048623, , 
87.42, 0.048613, , 
87.45, 0.048626, , 
87.48, 0.048626, , 
87.51, 0.048645, , 
87.54, 0.048788, , 
87.57, 0.048978, , 
87.60, 0.049048, , 
87.63, 0.049054, , 
87.66, 0.049130, , 
87.69, 0.049102, , 
87.72, 0.049108, , 
87.75, 0.049108, , 
87.78, 0.049121, , 
87.81, 0.049133, , 
87.84, 0.049092, , 
87.87, 0.049111, , 
87.90, 0.049117, , 
87.93, 0.049155, , 
87.96, 0.049102, , 
87.99, 0.049076, , 
88.02, 0.049076, , 
88.05, 0.049108, , 
88.08, 0.049117, , 
88.11, 0.049098, , 
88.14, 0.049102, , 
88.17, 0.049152, , 
88.20, 0.049140, , 
88.23, 0.049102, , 
88.26, 0.049114, , 
88.29, 0.049124, , 
88.32, 0.049111, , 
88.35, 0.049114, , 
88.38, 0.049108, , 
88.41, 0.049133, , 
88.44, 0.049124, , 
88.47, 0.049051, , 
88.50, 0.049108, , 
88.53, 0.049162, , 
88.56, 0.049121, , 
88.59, 0.049044, , 
88.62, 0.048949, , 
88.65, 0.048857, , 
88.68, 0.048686, , 
88.71, 0.048623, , 
88.74, 0.048654, , 
88.77, 0.048600, , 
88.80, 0.048572, , 
88.83, 0.048581, , 
88.86, 0.048632, , 
88.89, 0.048645, , 
88.92, 0.048629, , 
88.95, 0.048613, , 
88.98, 0.048623, , 
89.01, 0.048664, , 
89.04, 0.048645, , 
89.07, 0.048623, , 
89.10, 0.048629, , 
89.13, 0.048613, , 
89.16, 0.048638, , 
89.19, 0.048645, , 
89.22, 0.048632, , 
89.25, 0.048686, , 
89.28, 0.048667, , 
89.31, 0.048645, , 
89.34, 0.048632, , 
89.37, 0.048616, , 
89.40, 0.048607, , 
89.43, 0.048562, , 
89.46, 0.048585, , 
89.49, 0.048585, , 
89.52, 0.048559, , 
89.55, 0.048543, , 
89.58, 0.048623, , 
89.61, 0.048610, , 
89.64, 0.048600, , 
89.67, 0.048616, , 
89.70, 0.048616, , 
89.73, 0.048607, , 
89.76, 0.048578, , 
89.79, 0.048569, , 
89.82, 0.048591, , 
89.85, 0.048623, , 
89.88, 0.048578, , 
89.91, 0.048537, , 
89.94, 0.048613, , 
89.97, 0.048623, , 
90.00, 0.048565, , 
90.03, 0.048559, , 
90.06, 0.048572, , 
90.09, 0.048597, , 
90.12, 0.048581, , 
90.15, 0.048546, , 
90.18, 0.048619, , 
90.21, 0.048597, , 
90.24, 0.048585, , 
90.27, 0.048581, , 
90.30, 0.048642, , 
90.33, 0.048642, , 
90.36, 0.048629, , 
90.39, 0.048632, , 
90.42, 0.048664, , 
90.45, 0.048683, , 
90.48, 0.048657, , 
90.51, 0.048648, , 
90.54, 0.048680, , 
90.57, 0.048635, , 
90.60, 0.048626, , 
90.63, 0.048651, , 
90.66, 0.048683, , 
90.69, 0.048686, , 
90.72, 0.048683, , 
90.75, 0.048686, , 
90.78, 0.048727, , 
90.81, 0.048727, , 
90.84, 0.048730, , 
90.87, 0.048718, , 
90.90, 0.048721, , 
90.93, 0.048692, , 
90.96, 0.048699, , 
90.99, 0.048686, , 
91.02, 0.048696, , 
91.05, 0.048683, , 
91.08, 0.048686, , 
91.11, 0.048734, , 
91.14, 0.048765, , 
91.17, 0.048730, , 
91.20, 0.048730, , 
91.23, 0.048749, , 
91.26, 0.048749, , 
91.29, 0.048734, , 
91.32, 0.048718, , 
91.35, 0.048734, , 
91.38, 0.048734, , 
91.41, 0.048702, , 
91.44, 0.048683, , 
91.47, 0.048724, , 
91.50, 0.048724, , 
91.53, 0.048651, , 
91.56, 0.048664, , 
91.59, 0.048737, , 
91.62, 0.048715, , 
91.65, 0.048696, , 
91.68, 0.048696, , 
91.71, 0.048737, , 
91.74, 0.048781, , 
91.77, 0.048746, , 
91.80, 0.048721, , 
91.83, 0.048708, , 
91.86, 0.048692, , 
91.89, 0.048727, , 
91.92, 0.048737, , 
91.95, 0.048756, , 
91.98, 0.048759, , 
92.01, 0.048715, , 
92.04, 0.048753, , 
92.07, 0.048822, , 
92.10, 0.048800, , 
92.13, 0.048753, , 
92.16, 0.048765, , 
92.19, 0.048784, , 
92.22, 0.048756, , 
92.25, 0.048715, , 
92.28, 0.048715, , 
92.31, 0.048746, , 
92.34, 0.048768, , 
92.37, 0.048762, , 
92.41, 0.048775, , 
92.43, 0.048791, , 
92.46, 0.048775, , 
92.49, 0.048730, , 
92.52, 0.048775, , 
92.55, 0.048740, , 
92.58, 0.048711, , 
92.61, 0.048702, , 
92.64, 0.048667, , 
92.67, 0.048708, , 
92.70, 0.048746, , 
92.73, 0.048683, , 
92.76, 0.048715, , 
92.79, 0.048772, , 
92.82, 0.048788, , 
92.85, 0.048730, , 
92.88, 0.048727, , 
92.91, 0.048715, , 
92.94, 0.048702, , 
92.97, 0.048673, , 
93.00, 0.048711, , 
93.03, 0.048737, , 
93.06, 0.048727, , 
93.09, 0.048686, , 
93.12, 0.048721, , 
93.15, 0.048727, , 
93.18, 0.048749, , 
93.21, 0.048667, , 
93.24, 0.048667, , 
93.27, 0.048715, , 
93.30, 0.048711, , 
93.33, 0.048680, , 
93.36, 0.048670, , 
93.39, 0.048692, , 
93.42, 0.048673, , 
93.45, 0.048638, , 
93.48, 0.048654, , 
93.51, 0.048689, , 
93.54, 0.048670, , 
93.57, 0.048635, , 
93.60, 0.048683, , 
93.63, 0.048664, , 
93.66, 0.048645, , 
93.69, 0.048600, , 
93.72, 0.048623, , 
93.75, 0.048670, , 
93.78, 0.048651, , 
93.81, 0.048645, , 
93.84, 0.048657, , 
93.87, 0.048673, , 
93.90, 0.048623, , 
93.93, 0.048638, , 
93.96, 0.048664, , 
93.99, 0.048661, , 
94.02, 0.048670, , 
94.05, 0.048651, , 
94.08, 0.048670, , 
94.11, 0.048657, , 
94.14, 0.048645, , 
94.17, 0.048635, , 
94.20, 0.048654, , 
94.23, 0.048692, , 
94.26, 0.048664, , 
94.29, 0.048657, , 
94.32, 0.048705, , 
94.35, 0.048705, , 
94.38, 0.048677, , 
94.41, 0.048699, , 
94.44, 0.048661, , 
94.47, 0.048651, , 
94.50, 0.048648, , 
94.53, 0.048677, , 
94.56, 0.048692, , 
94.59, 0.048683, , 
94.62, 0.048664, , 
94.65, 0.048664, , 
94.68, 0.048696, , 
94.71, 0.048692, , 
94.74, 0.048638, , 
94.77, 0.048667, , 
94.80, 0.048699, , 
94.83, 0.048673, , 
94.86, 0.048642, , 
94.89, 0.048616, , 
94.92, 0.048664, , 
94.95, 0.048667, , 
94.98, 0.048635, , 
95.01, 0.048616, , 
95.04, 0.048715, , 
95.07, 0.048692, , 
95.10, 0.048626, , 
95.13, 0.048632, , 
95.16, 0.048657, , 
95.19, 0.048645, , 
95.22, 0.048635, , 
95.25, 0.048661, , 
95.28, 0.048670, , 
95.31, 0.048702, , 
95.34, 0.048642, , 
95.37, 0.048629, , 
95.41, 0.048645, , 
95.43, 0.048604, , 
95.46, 0.048613, , 
95.49, 0.048657, , 
95.52, 0.048686, , 
95.55, 0.048645, , 
95.58, 0.048629, , 
95.61, 0.048651, , 
95.64, 0.048642, , 
95.67, 0.048642, , 
95.70, 0.048600, , 
95.73, 0.048600, , 
95.76, 0.048610, , 
95.79, 0.048619, , 
95.82, 0.048613, , 
95.85, 0.048626, , 
95.88, 0.048632, , 
95.91, 0.048623, , 
95.94, 0.048635, , 
95.97, 0.048645, , 
96.00, 0.048626, , 
