Gradient Profiler Text Data File: 20240506_BY4742_40.csv
Date: 2024-05-06
Time: 17:05:24

User: jared
Experiment name: 
UV Unit: EM-1
Rotor Manufacturer: Beckman
Rotor Model: SW28.1
Speed: 28 rpm
Gradient: sucrose 10.0% to 50.0% w/v
Time: 4
w2t:  x 10^0
Sample Volume: 18 ml
Number of Tubes: 6
Volume per mm: 0.183 ml/mm

Absorbance Units Full Scale (AUFS): 2.00
Event Mark-triggered gradient; (with distance; auto start and stop)
Delay: No Delay
UV Wavelength: 254 nm
Samples / sec: 10 Hz
EM1 Speed: 0.30 mm/sec
Distance: 3.20 mm
Number: 30
Dead Volume: 0.000000 ml; Distance due to Dead Volume: 0.00 mm
Total Distance: 96.00 mm

Data Columns:
Distance(mm), Absorbance, Fraction Number, Fraction Volume(ml)
0.00, 0.095256, 0, 0.000
0.03, 0.095282, , 
0.06, 0.095285, , 
0.09, 0.095298, , 
0.12, 0.095336, , 
0.15, 0.095320, , 
0.18, 0.095294, , 
0.21, 0.095291, , 
0.24, 0.095291, , 
0.27, 0.095285, , 
0.30, 0.095215, , 
0.33, 0.095241, , 
0.36, 0.095294, , 
0.39, 0.095247, , 
0.42, 0.095206, , 
0.45, 0.095260, , 
0.48, 0.095301, , 
0.51, 0.095298, , 
0.54, 0.095285, , 
0.57, 0.095275, , 
0.60, 0.095561, , 
0.63, 0.097280, , 
0.66, 0.103389, , 
0.69, 0.118779, , 
0.72, 0.146470, , 
0.75, 0.192489, , 
0.78, 0.239598, , 
0.81, 0.299713, , 
0.84, 0.353617, , 
0.87, 0.399492, , 
0.90, 0.464682, , 
0.93, 0.521098, , 
0.96, 0.587601, , 
0.99, 0.645029, , 
1.02, 0.702755, , 
1.05, 0.770571, , 
1.08, 0.819086, , 
1.11, 0.887285, , 
1.14, 0.945414, , 
1.17, 1.001687, , 
1.20, 1.060048, , 
1.23, 1.098714, , 
1.26, 1.129409, , 
1.29, 1.143806, , 
1.32, 1.155682, , 
1.35, 1.165102, , 
1.38, 1.171116, , 
1.41, 1.176867, , 
1.44, 1.181095, , 
1.47, 1.184857, , 
1.50, 1.188261, , 
1.53, 1.191337, , 
1.56, 1.194484, , 
1.59, 1.196939, , 
1.62, 1.199328, , 
1.65, 1.201916, , 
1.68, 1.203870, , 
1.71, 1.205649, , 
1.74, 1.207210, , 
1.77, 1.208475, , 
1.80, 1.209465, , 
1.83, 1.209938, , 
1.86, 1.210026, , 
1.90, 1.209700, , 
1.92, 1.209103, , 
1.95, 1.207781, , 
1.98, 1.206166, , 
2.01, 1.203654, , 
2.04, 1.200856, , 
2.07, 1.197516, , 
2.11, 1.193145, , 
2.13, 1.189672, , 
2.16, 1.184321, , 
2.19, 1.179233, , 
2.22, 1.173743, , 
2.25, 1.166692, , 
2.28, 1.160008, , 
2.31, 1.152767, , 
2.34, 1.145094, , 
2.37, 1.136967, , 
2.40, 1.127046, , 
2.43, 1.118155, , 
2.46, 1.107519, , 
2.49, 1.098190, , 
2.52, 1.090207, , 
2.55, 1.078921, , 
2.58, 1.069091, , 
2.61, 1.057336, , 
2.64, 1.047103, , 
2.67, 1.036712, , 
2.70, 1.024598, , 
2.73, 1.015876, , 
2.76, 1.003660, , 
2.79, 0.993314, , 
2.82, 0.983116, , 
2.85, 0.971345, , 
2.88, 0.961366, , 
2.91, 0.949849, , 
2.94, 0.941665, , 
2.97, 0.931883, , 
3.00, 0.920492, , 
3.03, 0.910865, , 
3.06, 0.899818, , 
3.09, 0.890441, , 
3.12, 0.881103, , 
3.15, 0.871809, , 
3.18, 0.862528, , 
3.19, 0.859404, 1, 0.584
3.21, 0.851661, , 
3.24, 0.842472, , 
3.27, 0.833347, , 
3.30, 0.822841, , 
3.33, 0.813944, , 
3.36, 0.805094, , 
3.39, 0.796384, , 
3.42, 0.787750, , 
3.45, 0.777796, , 
3.48, 0.769404, , 
3.51, 0.759666, , 
3.54, 0.752827, , 
3.57, 0.744761, , 
3.60, 0.735641, , 
3.63, 0.728007, , 
3.66, 0.719236, , 
3.69, 0.711941, , 
3.72, 0.704874, , 
3.75, 0.697965, , 
3.78, 0.691127, , 
3.81, 0.683222, , 
3.84, 0.676561, , 
3.87, 0.669973, , 
3.90, 0.662392, , 
3.93, 0.656007, , 
3.96, 0.649739, , 
3.99, 0.643611, , 
4.02, 0.637616, , 
4.05, 0.630717, , 
4.08, 0.624928, , 
4.11, 0.618245, , 
4.14, 0.612542, , 
4.17, 0.607787, , 
4.20, 0.601170, , 
4.23, 0.595601, , 
4.26, 0.590056, , 
4.29, 0.583585, , 
4.32, 0.578187, , 
4.35, 0.571903, , 
4.38, 0.567399, , 
4.41, 0.561981, , 
4.44, 0.555713, , 
4.47, 0.550423, , 
4.50, 0.544266, , 
4.53, 0.539083, , 
4.56, 0.533998, , 
4.59, 0.528945, , 
4.62, 0.523959, , 
4.65, 0.518237, , 
4.68, 0.513390, , 
4.71, 0.508651, , 
4.74, 0.503148, , 
4.77, 0.498536, , 
4.80, 0.493978, , 
4.83, 0.489458, , 
4.86, 0.484932, , 
4.89, 0.479869, , 
4.92, 0.475714, , 
4.95, 0.470858, , 
4.98, 0.466696, , 
5.01, 0.463277, , 
5.04, 0.458522, , 
5.07, 0.454456, , 
5.10, 0.449695, , 
5.13, 0.445644, , 
5.16, 0.441695, , 
5.19, 0.437191, , 
5.22, 0.433978, , 
5.25, 0.429483, , 
5.28, 0.425728, , 
5.31, 0.421982, , 
5.34, 0.417614, , 
5.37, 0.413947, , 
5.40, 0.409757, , 
5.43, 0.406804, , 
5.46, 0.403258, , 
5.49, 0.399102, , 
5.52, 0.395658, , 
5.55, 0.391737, , 
5.58, 0.388416, , 
5.61, 0.385159, , 
5.64, 0.381926, , 
5.67, 0.378723, , 
5.70, 0.375034, , 
5.73, 0.371963, , 
5.76, 0.368915, , 
5.79, 0.365337, , 
5.83, 0.362244, , 
5.85, 0.359222, , 
5.88, 0.356250, , 
5.91, 0.353306, , 
5.94, 0.349969, , 
5.97, 0.347241, , 
6.00, 0.344444, , 
6.03, 0.341148, , 
6.06, 0.338376, , 
6.09, 0.335724, , 
6.12, 0.333142, , 
6.15, 0.330550, , 
6.18, 0.327566, , 
6.21, 0.325082, , 
6.24, 0.322288, , 
6.27, 0.319855, , 
6.30, 0.317869, , 
6.33, 0.315138, , 
6.36, 0.312845, , 
6.39, 0.310586, 2, 0.585
6.39, 0.310196, , 
6.42, 0.307985, , 
6.45, 0.305771, , 
6.48, 0.303183, , 
6.51, 0.301366, , 
6.54, 0.298806, , 
6.57, 0.296703, , 
6.60, 0.294651, , 
6.63, 0.292557, , 
6.66, 0.290565, , 
6.69, 0.288237, , 
6.72, 0.286175, , 
6.75, 0.283774, , 
6.78, 0.281823, , 
6.81, 0.279977, , 
6.84, 0.278153, , 
6.87, 0.276380, , 
6.90, 0.274299, , 
6.93, 0.272548, , 
6.96, 0.270807, , 
6.99, 0.268726, , 
7.02, 0.266956, , 
7.05, 0.265234, , 
7.08, 0.263480, , 
7.11, 0.261707, , 
7.14, 0.259677, , 
7.17, 0.257996, , 
7.20, 0.256381, , 
7.23, 0.254545, , 
7.26, 0.252997, , 
7.29, 0.251452, , 
7.32, 0.249917, , 
7.35, 0.248353, , 
7.38, 0.246580, , 
7.41, 0.245083, , 
7.44, 0.243316, , 
7.47, 0.241816, , 
7.50, 0.240376, , 
7.53, 0.238907, , 
7.56, 0.237429, , 
7.59, 0.235738, , 
7.62, 0.234285, , 
7.65, 0.232569, , 
7.68, 0.231145, , 
7.71, 0.230029, , 
7.74, 0.228335, , 
7.77, 0.226908, , 
7.80, 0.225480, , 
7.83, 0.223850, , 
7.86, 0.222502, , 
7.89, 0.220970, , 
7.92, 0.219571, , 
7.95, 0.218353, , 
7.98, 0.216761, , 
8.01, 0.215419, , 
8.04, 0.214118, , 
8.07, 0.212704, , 
8.10, 0.211479, , 
8.13, 0.210220, , 
8.16, 0.208919, , 
8.19, 0.207460, , 
8.22, 0.206296, , 
8.25, 0.205104, , 
8.28, 0.203638, , 
8.32, 0.202446, , 
8.34, 0.201285, , 
8.37, 0.200152, , 
8.40, 0.198972, , 
8.43, 0.197678, , 
8.46, 0.196650, , 
8.49, 0.195328, , 
8.52, 0.194421, , 
8.55, 0.193380, , 
8.58, 0.192162, , 
8.61, 0.191122, , 
8.64, 0.189885, , 
8.67, 0.188813, , 
8.70, 0.187740, , 
8.73, 0.186725, , 
8.76, 0.185653, , 
8.79, 0.184461, , 
8.82, 0.183487, , 
8.85, 0.182504, , 
8.88, 0.181359, , 
8.91, 0.180378, , 
8.94, 0.179379, , 
8.97, 0.178402, , 
9.00, 0.177460, , 
9.03, 0.176426, , 
9.06, 0.175519, , 
9.09, 0.174501, , 
9.12, 0.173327, , 
9.15, 0.172347, , 
9.18, 0.171307, , 
9.21, 0.170511, , 
9.24, 0.169610, , 
9.27, 0.168607, , 
9.30, 0.167770, , 
9.33, 0.166761, , 
9.36, 0.165994, , 
9.39, 0.165239, , 
9.42, 0.164458, , 
9.45, 0.163605, , 
9.48, 0.162752, , 
9.51, 0.161877, , 
9.54, 0.161176, , 
9.57, 0.160240, , 
9.59, 0.159846, 3, 0.585
9.60, 0.159491, , 
9.63, 0.158806, , 
9.66, 0.158070, , 
9.69, 0.157287, , 
9.72, 0.156478, , 
9.75, 0.155840, , 
9.78, 0.155130, , 
9.81, 0.154251, , 
9.84, 0.153515, , 
9.87, 0.152941, , 
9.90, 0.152132, , 
9.93, 0.151412, , 
9.96, 0.150556, , 
9.99, 0.149855, , 
10.02, 0.149182, , 
10.05, 0.148380, , 
10.08, 0.147838, , 
10.11, 0.147057, , 
10.14, 0.146413, , 
10.17, 0.145652, , 
10.20, 0.145024, , 
10.23, 0.144409, , 
10.26, 0.143597, , 
10.29, 0.143019, , 
10.32, 0.142372, , 
10.35, 0.141627, , 
10.38, 0.141012, , 
10.41, 0.140301, , 
10.44, 0.139692, , 
10.47, 0.139131, , 
10.50, 0.138553, , 
10.53, 0.137925, , 
10.56, 0.137256, , 
10.59, 0.136729, , 
10.62, 0.136146, , 
10.65, 0.135353, , 
10.68, 0.134820, , 
10.71, 0.134338, , 
10.74, 0.133780, , 
10.77, 0.133183, , 
10.80, 0.132530, , 
10.83, 0.132048, , 
10.86, 0.131394, , 
10.90, 0.130807, , 
10.92, 0.130347, , 
10.95, 0.129735, , 
10.98, 0.129202, , 
11.01, 0.128704, , 
11.04, 0.128121, , 
11.07, 0.127569, , 
11.10, 0.126985, , 
11.13, 0.126427, , 
11.16, 0.125872, , 
11.19, 0.125450, , 
11.22, 0.125006, , 
11.25, 0.124622, , 
11.28, 0.124327, , 
11.32, 0.123931, , 
11.34, 0.123709, , 
11.37, 0.123429, , 
11.40, 0.123150, , 
11.43, 0.122928, , 
11.46, 0.122621, , 
11.49, 0.122446, , 
11.52, 0.122345, , 
11.55, 0.122173, , 
11.58, 0.121974, , 
11.61, 0.121844, , 
11.64, 0.121856, , 
11.67, 0.121821, , 
11.70, 0.121713, , 
11.73, 0.121694, , 
11.76, 0.121682, , 
11.79, 0.121552, , 
11.82, 0.121409, , 
11.85, 0.121295, , 
11.88, 0.121317, , 
11.91, 0.121301, , 
11.94, 0.121263, , 
11.97, 0.121225, , 
12.00, 0.121276, , 
12.03, 0.121295, , 
12.06, 0.121260, , 
12.09, 0.121260, , 
12.12, 0.121247, , 
12.15, 0.121244, , 
12.18, 0.121158, , 
12.21, 0.121035, , 
12.24, 0.120990, , 
12.27, 0.120908, , 
12.30, 0.120765, , 
12.33, 0.120781, , 
12.36, 0.120775, , 
12.39, 0.120765, , 
12.42, 0.120721, , 
12.45, 0.120622, , 
12.48, 0.120508, , 
12.51, 0.120394, , 
12.54, 0.120321, , 
12.57, 0.120242, , 
12.60, 0.120089, , 
12.63, 0.119944, , 
12.66, 0.119661, , 
12.69, 0.119458, , 
12.72, 0.119274, , 
12.75, 0.118932, , 
12.78, 0.118675, , 
12.80, 0.118519, 4, 0.588
12.81, 0.118386, , 
12.84, 0.118151, , 
12.87, 0.117777, , 
12.90, 0.117285, , 
12.93, 0.116952, , 
12.96, 0.116645, , 
12.99, 0.116331, , 
13.02, 0.115956, , 
13.05, 0.115500, , 
13.08, 0.115106, , 
13.11, 0.114621, , 
13.14, 0.114171, , 
13.17, 0.113809, , 
13.20, 0.113298, , 
13.23, 0.112911, , 
13.26, 0.112344, , 
13.29, 0.111941, , 
13.32, 0.111538, , 
13.35, 0.111116, , 
13.38, 0.110872, , 
13.41, 0.110475, , 
13.44, 0.110092, , 
13.47, 0.109689, , 
13.50, 0.109175, , 
13.53, 0.108762, , 
13.56, 0.108287, , 
13.59, 0.107893, , 
13.62, 0.107414, , 
13.65, 0.106951, , 
13.68, 0.106482, , 
13.71, 0.105911, , 
13.74, 0.105407, , 
13.77, 0.104861, , 
13.80, 0.104315, , 
13.83, 0.103808, , 
13.86, 0.103231, , 
13.89, 0.102828, , 
13.92, 0.102371, , 
13.95, 0.101905, , 
13.98, 0.101588, , 
14.01, 0.101318, , 
14.04, 0.100956, , 
14.07, 0.100557, , 
14.10, 0.100090, , 
14.13, 0.099688, , 
14.16, 0.099288, , 
14.20, 0.098952, , 
14.22, 0.098676, , 
14.25, 0.098270, , 
14.28, 0.097908, , 
14.31, 0.097562, , 
14.34, 0.097210, , 
14.37, 0.096969, , 
14.40, 0.096700, , 
14.43, 0.096389, , 
14.46, 0.096129, , 
14.49, 0.095916, , 
14.52, 0.095624, , 
14.55, 0.095307, , 
14.58, 0.095009, , 
14.61, 0.094752, , 
14.64, 0.094524, , 
14.67, 0.094292, , 
14.70, 0.094026, , 
14.73, 0.093851, , 
14.76, 0.093559, , 
14.79, 0.093274, , 
14.82, 0.093065, , 
14.85, 0.092773, , 
14.88, 0.092503, , 
14.91, 0.092176, , 
14.94, 0.091913, , 
14.97, 0.091745, , 
15.00, 0.091571, , 
15.03, 0.091428, , 
15.06, 0.091215, , 
15.09, 0.091079, , 
15.12, 0.090841, , 
15.15, 0.090635, , 
15.18, 0.090546, , 
15.21, 0.090445, , 
15.24, 0.090318, , 
15.27, 0.090127, , 
15.30, 0.090013, , 
15.33, 0.089969, , 
15.36, 0.089820, , 
15.39, 0.089655, , 
15.42, 0.089528, , 
15.45, 0.089506, , 
15.48, 0.089439, , 
15.51, 0.089385, , 
15.54, 0.089280, , 
15.57, 0.089116, , 
15.60, 0.088989, , 
15.64, 0.088922, , 
15.66, 0.088817, , 
15.69, 0.088678, , 
15.72, 0.088494, , 
15.75, 0.088246, , 
15.78, 0.088091, , 
15.81, 0.087967, , 
15.84, 0.087904, , 
15.87, 0.087761, , 
15.90, 0.087587, , 
15.93, 0.087511, , 
15.96, 0.087352, , 
15.99, 0.087187, 5, 0.584
16.00, 0.087162, , 
16.02, 0.087032, , 
16.05, 0.086921, , 
16.08, 0.086733, , 
16.11, 0.086581, , 
16.14, 0.086499, , 
16.17, 0.086416, , 
16.20, 0.086191, , 
16.23, 0.086086, , 
16.26, 0.086001, , 
16.29, 0.085833, , 
16.32, 0.085661, , 
16.35, 0.085541, , 
16.38, 0.085477, , 
16.41, 0.085357, , 
16.44, 0.085205, , 
16.47, 0.085071, , 
16.50, 0.084976, , 
16.53, 0.084821, , 
16.56, 0.084570, , 
16.59, 0.084405, , 
16.62, 0.084202, , 
16.65, 0.084072, , 
16.68, 0.083850, , 
16.71, 0.083660, , 
16.74, 0.083580, , 
16.77, 0.083425, , 
16.80, 0.083216, , 
16.83, 0.083095, , 
16.86, 0.083032, , 
16.89, 0.082873, , 
16.92, 0.082657, , 
16.95, 0.082524, , 
16.98, 0.082454, , 
17.01, 0.082283, , 
17.05, 0.082159, , 
17.07, 0.082061, , 
17.10, 0.081969, , 
17.13, 0.081890, , 
17.16, 0.081715, , 
17.19, 0.081623, , 
17.22, 0.081547, , 
17.25, 0.081487, , 
17.28, 0.081382, , 
17.31, 0.081284, , 
17.34, 0.081182, , 
17.37, 0.081052, , 
17.40, 0.080957, , 
17.43, 0.080945, , 
17.46, 0.080957, , 
17.49, 0.080891, , 
17.52, 0.080716, , 
17.55, 0.080605, , 
17.58, 0.080551, , 
17.61, 0.080459, , 
17.64, 0.080421, , 
17.67, 0.080472, , 
17.70, 0.080488, , 
17.73, 0.080424, , 
17.76, 0.080440, , 
17.79, 0.080440, , 
17.82, 0.080472, , 
17.85, 0.080510, , 
17.88, 0.080599, , 
17.91, 0.080783, , 
17.94, 0.080846, , 
17.97, 0.080888, , 
18.00, 0.081043, , 
18.03, 0.081221, , 
18.06, 0.081465, , 
18.09, 0.081573, , 
18.12, 0.081820, , 
18.15, 0.082102, , 
18.18, 0.082328, , 
18.21, 0.082604, , 
18.24, 0.082956, , 
18.27, 0.083301, , 
18.30, 0.083739, , 
18.33, 0.084177, , 
18.36, 0.084687, , 
18.39, 0.085128, , 
18.42, 0.085519, , 
18.45, 0.086064, , 
18.49, 0.086610, , 
18.51, 0.087149, , 
18.54, 0.087682, , 
18.57, 0.088205, , 
18.60, 0.088979, , 
18.63, 0.089534, , 
18.66, 0.090184, , 
18.69, 0.090682, , 
18.72, 0.091244, , 
18.75, 0.092040, , 
18.78, 0.092671, , 
18.81, 0.093436, , 
18.84, 0.094175, , 
18.87, 0.094822, , 
18.90, 0.095577, , 
18.93, 0.096243, , 
18.96, 0.097061, , 
18.99, 0.097724, , 
19.02, 0.098263, , 
19.05, 0.098977, , 
19.08, 0.099605, , 
19.11, 0.100217, , 
19.14, 0.100757, , 
19.17, 0.101213, , 
19.19, 0.101651, 6, 0.586
19.20, 0.101800, , 
19.23, 0.102254, , 
19.26, 0.102815, , 
19.29, 0.103250, , 
19.32, 0.103614, , 
19.35, 0.104103, , 
19.38, 0.104417, , 
19.41, 0.104728, , 
19.44, 0.104982, , 
19.47, 0.105146, , 
19.51, 0.105257, , 
19.53, 0.105407, , 
19.56, 0.105616, , 
19.59, 0.105708, , 
19.62, 0.105727, , 
19.65, 0.105755, , 
19.68, 0.105803, , 
19.71, 0.105775, , 
19.74, 0.105746, , 
19.77, 0.105641, , 
19.80, 0.105508, , 
19.83, 0.105426, , 
19.86, 0.105334, , 
19.89, 0.105254, , 
19.92, 0.105134, , 
19.95, 0.104902, , 
19.98, 0.104671, , 
20.01, 0.104522, , 
20.04, 0.104350, , 
20.07, 0.104170, , 
20.10, 0.103951, , 
20.13, 0.103792, , 
20.16, 0.103599, , 
20.19, 0.103396, , 
20.22, 0.103154, , 
20.25, 0.102901, , 
20.28, 0.102720, , 
20.31, 0.102447, , 
20.34, 0.102225, , 
20.37, 0.102022, , 
20.40, 0.101803, , 
20.43, 0.101607, , 
20.46, 0.101435, , 
20.49, 0.101286, , 
20.52, 0.101124, , 
20.55, 0.100902, , 
20.58, 0.100693, , 
20.61, 0.100462, , 
20.64, 0.100243, , 
20.67, 0.100017, , 
20.70, 0.099764, , 
20.73, 0.099586, , 
20.76, 0.099383, , 
20.79, 0.099101, , 
20.82, 0.098803, , 
20.86, 0.098612, , 
20.88, 0.098425, , 
20.91, 0.098228, , 
20.94, 0.098029, , 
20.97, 0.097759, , 
21.00, 0.097562, , 
21.03, 0.097328, , 
21.06, 0.097058, , 
21.09, 0.096874, , 
21.12, 0.096598, , 
21.15, 0.096363, , 
21.18, 0.096151, , 
21.21, 0.095916, , 
21.24, 0.095615, , 
21.27, 0.095260, , 
21.30, 0.095091, , 
21.33, 0.094860, , 
21.36, 0.094590, , 
21.39, 0.094343, , 
21.42, 0.094092, , 
21.45, 0.093845, , 
21.48, 0.093521, , 
21.51, 0.093201, , 
21.54, 0.092957, , 
21.57, 0.092722, , 
21.60, 0.092452, , 
21.63, 0.092234, , 
21.66, 0.092008, , 
21.69, 0.091824, , 
21.72, 0.091545, , 
21.75, 0.091241, , 
21.78, 0.090965, , 
21.81, 0.090682, , 
21.84, 0.090400, , 
21.87, 0.090143, , 
21.90, 0.089928, , 
21.93, 0.089782, , 
21.96, 0.089474, , 
21.99, 0.089230, , 
22.02, 0.089090, , 
22.05, 0.088982, , 
22.08, 0.088776, , 
22.11, 0.088541, , 
22.14, 0.088323, , 
22.17, 0.088091, , 
22.20, 0.087844, , 
22.23, 0.087647, , 
22.26, 0.087555, , 
22.29, 0.087396, , 
22.32, 0.087184, , 
22.35, 0.087044, , 
22.38, 0.086924, , 
22.40, 0.086863, 7, 0.586
22.41, 0.086752, , 
22.44, 0.086575, , 
22.47, 0.086508, , 
22.50, 0.086457, , 
22.53, 0.086312, , 
22.56, 0.086096, , 
22.59, 0.086023, , 
22.62, 0.086029, , 
22.65, 0.085966, , 
22.68, 0.085823, , 
22.71, 0.085680, , 
22.74, 0.085591, , 
22.77, 0.085519, , 
22.80, 0.085455, , 
22.83, 0.085442, , 
22.86, 0.085455, , 
22.89, 0.085439, , 
22.92, 0.085458, , 
22.95, 0.085614, , 
22.98, 0.085741, , 
23.01, 0.085817, , 
23.04, 0.085858, , 
23.07, 0.085918, , 
23.10, 0.086048, , 
23.13, 0.086166, , 
23.16, 0.086283, , 
23.19, 0.086413, , 
23.22, 0.086534, , 
23.25, 0.086708, , 
23.28, 0.086879, , 
23.31, 0.087139, , 
23.34, 0.087453, , 
23.37, 0.087717, , 
23.40, 0.088031, , 
23.43, 0.088253, , 
23.46, 0.088545, , 
23.49, 0.088951, , 
23.52, 0.089417, , 
23.55, 0.089994, , 
23.58, 0.090682, , 
23.61, 0.091320, , 
23.64, 0.092186, , 
23.67, 0.093084, , 
23.70, 0.093842, , 
23.73, 0.095034, , 
23.76, 0.096176, , 
23.79, 0.097692, , 
23.82, 0.099120, , 
23.85, 0.100674, , 
23.88, 0.102790, , 
23.91, 0.104541, , 
23.94, 0.107218, , 
23.97, 0.109727, , 
24.00, 0.112534, , 
24.03, 0.115576, , 
24.06, 0.119506, , 
24.09, 0.123261, , 
24.12, 0.128175, , 
24.15, 0.132841, , 
24.18, 0.137744, , 
24.21, 0.143038, , 
24.24, 0.148821, , 
24.27, 0.156097, , 
24.30, 0.162774, , 
24.33, 0.169892, , 
24.36, 0.178808, , 
24.40, 0.186998, , 
24.42, 0.194176, , 
24.45, 0.204739, , 
24.48, 0.214375, , 
24.51, 0.226054, , 
24.54, 0.236499, , 
24.57, 0.247278, , 
24.60, 0.260286, , 
24.63, 0.268714, , 
24.66, 0.283593, , 
24.69, 0.295659, , 
24.72, 0.307979, , 
24.75, 0.322662, , 
24.78, 0.335375, , 
24.81, 0.348244, , 
24.84, 0.363412, , 
24.87, 0.376322, , 
24.90, 0.389130, , 
24.93, 0.401849, , 
24.96, 0.414502, , 
24.99, 0.429087, , 
25.02, 0.441394, , 
25.05, 0.455537, , 
25.08, 0.467461, , 
25.11, 0.477211, , 
25.14, 0.490403, , 
25.17, 0.501350, , 
25.20, 0.513654, , 
25.23, 0.523674, , 
25.26, 0.533275, , 
25.30, 0.544019, , 
25.32, 0.551403, , 
25.35, 0.561169, , 
25.38, 0.568994, , 
25.41, 0.576328, , 
25.44, 0.584251, , 
25.47, 0.590513, , 
25.50, 0.596355, , 
25.53, 0.601773, , 
25.56, 0.606820, , 
25.59, 0.612082, 8, 0.585
25.60, 0.612789, , 
25.62, 0.616171, , 
25.65, 0.620370, , 
25.68, 0.623536, , 
25.71, 0.625858, , 
25.74, 0.628769, , 
25.77, 0.630907, , 
25.80, 0.633010, , 
25.83, 0.634473, , 
25.86, 0.635640, , 
25.89, 0.636823, , 
25.92, 0.637492, , 
25.95, 0.638082, , 
25.98, 0.638393, , 
26.01, 0.638656, , 
26.04, 0.638790, , 
26.07, 0.638641, , 
26.10, 0.638241, , 
26.13, 0.637676, , 
26.16, 0.636855, , 
26.19, 0.636017, , 
26.22, 0.635091, , 
26.25, 0.633879, , 
26.29, 0.632607, , 
26.31, 0.631142, , 
26.34, 0.629562, , 
26.37, 0.627967, , 
26.40, 0.625956, , 
26.43, 0.624040, , 
26.46, 0.621985, , 
26.49, 0.619831, , 
26.52, 0.617496, , 
26.55, 0.614562, , 
26.58, 0.612006, , 
26.61, 0.608992, , 
26.64, 0.606312, , 
26.67, 0.603461, , 
26.70, 0.600558, , 
26.73, 0.597561, , 
26.76, 0.594417, , 
26.79, 0.590570, , 
26.82, 0.587315, , 
26.85, 0.584020, , 
26.88, 0.579938, , 
26.91, 0.576369, , 
26.94, 0.572753, , 
26.97, 0.568500, , 
27.00, 0.564801, , 
27.03, 0.561042, , 
27.06, 0.557195, , 
27.09, 0.553360, , 
27.12, 0.548783, , 
27.15, 0.544894, , 
27.18, 0.540970, , 
27.21, 0.536298, , 
27.24, 0.532162, , 
27.27, 0.528016, , 
27.30, 0.523848, , 
27.33, 0.519655, , 
27.36, 0.514795, , 
27.39, 0.510558, , 
27.42, 0.506288, , 
27.45, 0.502013, , 
27.48, 0.496944, , 
27.51, 0.492551, , 
27.54, 0.488205, , 
27.57, 0.483152, , 
27.60, 0.478734, , 
27.63, 0.474284, , 
27.66, 0.469805, , 
27.69, 0.465358, , 
27.72, 0.460140, , 
27.75, 0.455671, , 
27.78, 0.450538, , 
27.81, 0.446187, , 
27.84, 0.442561, , 
27.87, 0.437549, , 
27.90, 0.433239, , 
27.93, 0.428154, , 
27.96, 0.423843, , 
27.99, 0.419628, , 
28.02, 0.414778, , 
28.05, 0.411359, , 
28.08, 0.406575, , 
28.11, 0.402519, , 
28.14, 0.398598, , 
28.17, 0.394049, , 
28.20, 0.390126, , 
28.23, 0.385574, , 
28.26, 0.382434, , 
28.29, 0.378659, , 
28.32, 0.374288, , 
28.35, 0.370641, , 
28.38, 0.366523, , 
28.41, 0.362942, , 
28.44, 0.359428, , 
28.47, 0.355967, , 
28.50, 0.352624, , 
28.53, 0.349246, , 
28.56, 0.345306, , 
28.59, 0.341963, , 
28.62, 0.338667, , 
28.65, 0.334848, , 
28.68, 0.331591, , 
28.71, 0.327861, , 
28.74, 0.325193, , 
28.77, 0.321967, , 
28.79, 0.319322, 9, 0.586
28.80, 0.318259, , 
28.83, 0.315211, , 
28.86, 0.311639, , 
28.89, 0.308566, , 
28.92, 0.305492, , 
28.95, 0.302422, , 
28.98, 0.299361, , 
29.01, 0.296284, , 
29.04, 0.292722, , 
29.07, 0.289677, , 
29.10, 0.286733, , 
29.13, 0.283257, , 
29.16, 0.280288, , 
29.19, 0.276894, , 
29.22, 0.274512, , 
29.25, 0.271606, , 
29.28, 0.268257, , 
29.31, 0.265427, , 
29.34, 0.262186, , 
29.37, 0.259366, , 
29.40, 0.256540, , 
29.43, 0.253802, , 
29.46, 0.251113, , 
29.49, 0.247918, , 
29.52, 0.245273, , 
29.55, 0.242818, , 
29.58, 0.239881, , 
29.61, 0.237343, , 
29.64, 0.234860, , 
29.67, 0.232430, , 
29.70, 0.230076, , 
29.73, 0.227323, , 
29.76, 0.224957, , 
29.79, 0.222232, , 
29.82, 0.219929, , 
29.85, 0.218013, , 
29.88, 0.215393, , 
29.91, 0.213262, , 
29.94, 0.210702, , 
29.97, 0.208488, , 
30.00, 0.206347, , 
30.03, 0.203965, , 
30.06, 0.201868, , 
30.10, 0.199762, , 
30.12, 0.197697, , 
30.15, 0.195743, , 
30.18, 0.193428, , 
30.21, 0.191388, , 
30.24, 0.189412, , 
30.27, 0.187242, , 
30.30, 0.185688, , 
30.33, 0.183573, , 
30.36, 0.181771, , 
30.39, 0.179950, , 
30.42, 0.177771, , 
30.45, 0.175922, , 
30.48, 0.174228, , 
30.51, 0.172284, , 
30.55, 0.170622, , 
30.57, 0.168982, , 
30.60, 0.167373, , 
30.63, 0.165854, , 
30.66, 0.164062, , 
30.69, 0.162486, , 
30.72, 0.160703, , 
30.75, 0.159425, , 
30.78, 0.157883, , 
30.81, 0.156138, , 
30.84, 0.154711, , 
30.87, 0.152973, , 
30.90, 0.151501, , 
30.93, 0.150115, , 
30.96, 0.148608, , 
31.00, 0.147267, , 
31.02, 0.146172, , 
31.05, 0.144593, , 
31.08, 0.143327, , 
31.11, 0.141950, , 
31.14, 0.140732, , 
31.17, 0.139489, , 
31.20, 0.138265, , 
31.23, 0.137069, , 
31.26, 0.135705, , 
31.29, 0.134563, , 
31.32, 0.133465, , 
31.35, 0.132197, , 
31.38, 0.131058, , 
31.41, 0.129910, , 
31.44, 0.128793, , 
31.47, 0.127677, , 
31.50, 0.126459, , 
31.53, 0.125450, , 
31.56, 0.124305, , 
31.59, 0.123293, , 
31.62, 0.122421, , 
31.65, 0.121339, , 
31.68, 0.120388, , 
31.71, 0.119170, , 
31.74, 0.118167, , 
31.77, 0.117222, , 
31.80, 0.116166, , 
31.83, 0.115401, , 
31.86, 0.114351, , 
31.89, 0.113479, , 
31.92, 0.112642, , 
31.95, 0.111614, , 
31.98, 0.110694, , 
31.99, 0.110418, 10, 0.585
32.01, 0.109784, , 
32.04, 0.109200, , 
32.07, 0.108414, , 
32.10, 0.107446, , 
32.13, 0.106723, , 
32.16, 0.105952, , 
32.19, 0.105080, , 
32.22, 0.104309, , 
32.25, 0.103599, , 
32.28, 0.102913, , 
32.31, 0.102216, , 
32.34, 0.101467, , 
32.37, 0.100925, , 
32.40, 0.100227, , 
32.44, 0.099640, , 
32.46, 0.099148, , 
32.49, 0.098457, , 
32.52, 0.097895, , 
32.55, 0.097220, , 
32.58, 0.096696, , 
32.61, 0.096278, , 
32.64, 0.095818, , 
32.67, 0.095260, , 
32.70, 0.094578, , 
32.73, 0.094095, , 
32.76, 0.093604, , 
32.79, 0.093030, , 
32.82, 0.092538, , 
32.85, 0.092062, , 
32.88, 0.091659, , 
32.91, 0.091222, , 
32.94, 0.090708, , 
32.97, 0.090311, , 
33.00, 0.089889, , 
33.03, 0.089575, , 
33.06, 0.089309, , 
33.09, 0.088881, , 
33.12, 0.088462, , 
33.15, 0.088034, , 
33.18, 0.087726, , 
33.21, 0.087425, , 
33.24, 0.087070, , 
33.27, 0.086806, , 
33.30, 0.086489, , 
33.33, 0.086270, , 
33.36, 0.086042, , 
33.39, 0.085782, , 
33.42, 0.085550, , 
33.45, 0.085312, , 
33.48, 0.085113, , 
33.51, 0.084868, , 
33.54, 0.084634, , 
33.57, 0.084434, , 
33.60, 0.084164, , 
33.63, 0.083945, , 
33.66, 0.083812, , 
33.69, 0.083631, , 
33.72, 0.083469, , 
33.75, 0.083266, , 
33.78, 0.083127, , 
33.81, 0.083010, , 
33.84, 0.082807, , 
33.88, 0.082616, , 
33.90, 0.082540, , 
33.93, 0.082531, , 
33.96, 0.082388, , 
33.99, 0.082201, , 
34.02, 0.082093, , 
34.05, 0.082042, , 
34.09, 0.082010, , 
34.11, 0.081998, , 
34.14, 0.081979, , 
34.17, 0.081988, , 
34.20, 0.081941, , 
34.23, 0.081944, , 
34.26, 0.082004, , 
34.29, 0.082026, , 
34.32, 0.081969, , 
34.35, 0.081944, , 
34.38, 0.081953, , 
34.41, 0.081966, , 
34.44, 0.081934, , 
34.47, 0.081947, , 
34.50, 0.081982, , 
34.53, 0.081998, , 
34.56, 0.081960, , 
34.59, 0.081975, , 
34.62, 0.082001, , 
34.65, 0.081979, , 
34.68, 0.081956, , 
34.71, 0.081944, , 
34.74, 0.081998, , 
34.77, 0.082023, , 
34.80, 0.081947, , 
34.84, 0.081953, , 
34.86, 0.081991, , 
34.89, 0.081982, , 
34.92, 0.081941, , 
34.95, 0.081950, , 
34.98, 0.081982, , 
35.01, 0.081995, , 
35.04, 0.081937, , 
35.07, 0.081928, , 
35.10, 0.081849, , 
35.13, 0.081674, , 
35.16, 0.081566, , 
35.19, 0.081503, 11, 0.586
35.20, 0.081516, , 
35.22, 0.081506, , 
35.25, 0.081471, , 
35.28, 0.081465, , 
35.31, 0.081493, , 
35.34, 0.081516, , 
35.37, 0.081465, , 
35.40, 0.081357, , 
35.43, 0.081309, , 
35.46, 0.081195, , 
35.49, 0.081084, , 
35.52, 0.080983, , 
35.55, 0.080948, , 
35.58, 0.080957, , 
35.61, 0.080891, , 
35.64, 0.080745, , 
35.67, 0.080640, , 
35.70, 0.080539, , 
35.73, 0.080447, , 
35.76, 0.080443, , 
35.79, 0.080367, , 
35.82, 0.080196, , 
35.85, 0.079964, , 
35.88, 0.079882, , 
35.91, 0.079739, , 
35.94, 0.079635, , 
35.97, 0.079543, , 
36.00, 0.079371, , 
36.03, 0.079298, , 
36.06, 0.079175, , 
36.09, 0.078991, , 
36.12, 0.078813, , 
36.15, 0.078699, , 
36.18, 0.078553, , 
36.21, 0.078401, , 
36.24, 0.078267, , 
36.27, 0.078090, , 
36.30, 0.077874, , 
36.33, 0.077598, , 
36.36, 0.077351, , 
36.39, 0.077154, , 
36.42, 0.076948, , 
36.45, 0.076707, , 
36.48, 0.076415, , 
36.51, 0.076225, , 
36.54, 0.076000, , 
36.57, 0.075736, , 
36.60, 0.075517, , 
36.63, 0.075280, , 
36.66, 0.075007, , 
36.69, 0.074693, , 
36.72, 0.074360, , 
36.75, 0.074087, , 
36.78, 0.073709, , 
36.81, 0.073433, , 
36.84, 0.073135, , 
36.87, 0.072847, , 
36.90, 0.072558, , 
36.93, 0.072222, , 
36.96, 0.071927, , 
36.99, 0.071679, , 
37.02, 0.071315, , 
37.05, 0.071067, , 
37.08, 0.070801, , 
37.11, 0.070484, , 
37.14, 0.070160, , 
37.17, 0.069836, , 
37.20, 0.069548, , 
37.23, 0.069202, , 
37.26, 0.068990, , 
37.29, 0.068729, , 
37.32, 0.068431, , 
37.35, 0.068212, , 
37.38, 0.067936, , 
37.41, 0.067683, , 
37.44, 0.067413, , 
37.47, 0.067118, , 
37.50, 0.066842, , 
37.53, 0.066538, , 
37.56, 0.066328, , 
37.59, 0.066122, , 
37.62, 0.065894, , 
37.65, 0.065672, , 
37.68, 0.065472, , 
37.71, 0.065224, , 
37.75, 0.064987, , 
37.77, 0.064765, , 
37.80, 0.064527, , 
37.83, 0.064238, , 
37.86, 0.063892, , 
37.89, 0.063629, , 
37.92, 0.063445, , 
37.95, 0.063283, , 
37.98, 0.063106, , 
38.01, 0.062890, , 
38.04, 0.062722, , 
38.07, 0.062481, , 
38.10, 0.062240, , 
38.13, 0.062030, , 
38.16, 0.061875, , 
38.19, 0.061735, , 
38.22, 0.061529, , 
38.25, 0.061336, , 
38.28, 0.061164, , 
38.31, 0.060942, , 
38.34, 0.060752, , 
38.37, 0.060625, , 
38.39, 0.060571, 12, 0.586
38.40, 0.060521, , 
38.43, 0.060390, , 
38.46, 0.060197, , 
38.49, 0.060019, , 
38.52, 0.059931, , 
38.55, 0.059734, , 
38.58, 0.059582, , 
38.61, 0.059464, , 
38.64, 0.059325, , 
38.67, 0.059166, , 
38.70, 0.058947, , 
38.73, 0.058843, , 
38.76, 0.058741, , 
38.79, 0.058636, , 
38.83, 0.058500, , 
38.85, 0.058414, , 
38.88, 0.058281, , 
38.91, 0.058211, , 
38.94, 0.058059, , 
38.97, 0.057891, , 
39.00, 0.057831, , 
39.03, 0.057761, , 
39.06, 0.057602, , 
39.09, 0.057469, , 
39.12, 0.057364, , 
39.15, 0.057301, , 
39.18, 0.057228, , 
39.21, 0.057199, , 
39.24, 0.057203, , 
39.27, 0.057155, , 
39.30, 0.057028, , 
39.33, 0.056939, , 
39.36, 0.056857, , 
39.39, 0.056727, , 
39.42, 0.056695, , 
39.45, 0.056686, , 
39.48, 0.056717, , 
39.51, 0.056676, , 
39.54, 0.056641, , 
39.57, 0.056695, , 
39.60, 0.056711, , 
39.63, 0.056660, , 
39.66, 0.056619, , 
39.69, 0.056641, , 
39.72, 0.056635, , 
39.75, 0.056629, , 
39.78, 0.056654, , 
39.81, 0.056736, , 
39.84, 0.056860, , 
39.87, 0.057022, , 
39.90, 0.057069, , 
39.93, 0.057133, , 
39.96, 0.057168, , 
39.99, 0.057158, , 
40.02, 0.057276, , 
40.05, 0.057463, , 
40.08, 0.057571, , 
40.11, 0.057599, , 
40.14, 0.057688, , 
40.17, 0.057926, , 
40.20, 0.058040, , 
40.23, 0.058088, , 
40.26, 0.058170, , 
40.29, 0.058307, , 
40.32, 0.058462, , 
40.35, 0.058557, , 
40.38, 0.058735, , 
40.41, 0.058950, , 
40.44, 0.059049, , 
40.47, 0.059169, , 
40.50, 0.059363, , 
40.53, 0.059528, , 
40.56, 0.059651, , 
40.59, 0.059785, , 
40.62, 0.059940, , 
40.65, 0.060086, , 
40.68, 0.060213, , 
40.71, 0.060371, , 
40.74, 0.060549, , 
40.77, 0.060698, , 
40.80, 0.060841, , 
40.83, 0.061050, , 
40.86, 0.061275, , 
40.89, 0.061421, , 
40.92, 0.061567, , 
40.95, 0.061723, , 
40.98, 0.061945, , 
41.01, 0.062189, , 
41.04, 0.062344, , 
41.07, 0.062522, , 
41.10, 0.062715, , 
41.13, 0.062903, , 
41.16, 0.063068, , 
41.19, 0.063283, , 
41.22, 0.063531, , 
41.25, 0.063721, , 
41.28, 0.063848, , 
41.31, 0.064041, , 
41.34, 0.064203, , 
41.37, 0.064384, , 
41.40, 0.064612, , 
41.43, 0.064768, , 
41.46, 0.064964, , 
41.49, 0.065158, , 
41.52, 0.065301, , 
41.55, 0.065488, , 
41.58, 0.065700, , 
41.59, 0.065824, 13, 0.586
41.61, 0.065925, , 
41.64, 0.065964, , 
41.67, 0.066081, , 
41.70, 0.066281, , 
41.73, 0.066430, , 
41.76, 0.066496, , 
41.79, 0.066626, , 
41.82, 0.066826, , 
41.85, 0.066918, , 
41.88, 0.066975, , 
41.91, 0.067102, , 
41.94, 0.067264, , 
41.97, 0.067372, , 
42.00, 0.067391, , 
42.03, 0.067480, , 
42.06, 0.067581, , 
42.09, 0.067629, , 
42.12, 0.067683, , 
42.15, 0.067838, , 
42.18, 0.067956, , 
42.21, 0.067975, , 
42.24, 0.068009, , 
42.27, 0.068025, , 
42.30, 0.068041, , 
42.33, 0.068070, , 
42.36, 0.068028, , 
42.39, 0.068038, , 
42.42, 0.068063, , 
42.45, 0.068073, , 
42.48, 0.068019, , 
42.51, 0.068028, , 
42.54, 0.068076, , 
42.57, 0.068057, , 
42.60, 0.067959, , 
42.63, 0.067813, , 
42.66, 0.067689, , 
42.69, 0.067578, , 
42.72, 0.067530, , 
42.75, 0.067492, , 
42.78, 0.067378, , 
42.81, 0.067223, , 
42.84, 0.067124, , 
42.87, 0.067096, , 
42.90, 0.066982, , 
42.93, 0.066776, , 
42.96, 0.066658, , 
42.99, 0.066576, , 
43.02, 0.066385, , 
43.05, 0.066227, , 
43.08, 0.066087, , 
43.11, 0.065875, , 
43.14, 0.065745, , 
43.17, 0.065481, , 
43.20, 0.065288, , 
43.23, 0.065123, , 
43.26, 0.064831, , 
43.29, 0.064603, , 
43.32, 0.064355, , 
43.35, 0.064133, , 
43.38, 0.063937, , 
43.41, 0.063654, , 
43.44, 0.063432, , 
43.47, 0.063233, , 
43.50, 0.063036, , 
43.53, 0.062820, , 
43.56, 0.062509, , 
43.59, 0.062351, , 
43.62, 0.062113, , 
43.65, 0.061824, , 
43.68, 0.061624, , 
43.71, 0.061383, , 
43.74, 0.061180, , 
43.77, 0.060958, , 
43.80, 0.060689, , 
43.83, 0.060517, , 
43.86, 0.060314, , 
43.89, 0.060168, , 
43.92, 0.059988, , 
43.95, 0.059829, , 
43.98, 0.059715, , 
44.01, 0.059528, , 
44.04, 0.059363, , 
44.07, 0.059268, , 
44.10, 0.059125, , 
44.13, 0.058900, , 
44.16, 0.058747, , 
44.19, 0.058662, , 
44.22, 0.058601, , 
44.25, 0.058421, , 
44.28, 0.058278, , 
44.31, 0.058183, , 
44.34, 0.058056, , 
44.37, 0.057885, , 
44.40, 0.057786, , 
44.43, 0.057717, , 
44.46, 0.057574, , 
44.49, 0.057364, , 
44.52, 0.057269, , 
44.55, 0.057206, , 
44.58, 0.057146, , 
44.61, 0.057082, , 
44.64, 0.057066, , 
44.67, 0.057028, , 
44.70, 0.056876, , 
44.73, 0.056787, , 
44.76, 0.056730, , 
44.79, 0.056676, 14, 0.584
44.79, 0.056689, , 
44.82, 0.056635, , 
44.85, 0.056613, , 
44.88, 0.056629, , 
44.92, 0.056695, , 
44.94, 0.056800, , 
44.97, 0.056870, , 
45.00, 0.056993, , 
45.03, 0.057079, , 
45.06, 0.057088, , 
45.09, 0.057108, , 
45.12, 0.057111, , 
45.15, 0.057127, , 
45.18, 0.057114, , 
45.21, 0.057117, , 
45.24, 0.057177, , 
45.27, 0.057336, , 
45.30, 0.057469, , 
45.33, 0.057463, , 
45.36, 0.057526, , 
45.39, 0.057599, , 
45.42, 0.057596, , 
45.45, 0.057669, , 
45.48, 0.057847, , 
45.51, 0.058018, , 
45.55, 0.058059, , 
45.57, 0.058097, , 
45.60, 0.058284, , 
45.63, 0.058449, , 
45.66, 0.058522, , 
45.69, 0.058595, , 
45.72, 0.058697, , 
45.75, 0.058916, , 
45.78, 0.059004, , 
45.81, 0.059128, , 
45.84, 0.059347, , 
45.87, 0.059525, , 
45.90, 0.059728, , 
45.93, 0.059908, , 
45.96, 0.060064, , 
45.99, 0.060210, , 
46.02, 0.060356, , 
46.05, 0.060546, , 
46.08, 0.060682, , 
46.11, 0.060838, , 
46.14, 0.061063, , 
46.17, 0.061196, , 
46.20, 0.061418, , 
46.23, 0.061583, , 
46.26, 0.061621, , 
46.29, 0.061773, , 
46.32, 0.061935, , 
46.35, 0.062068, , 
46.38, 0.062189, , 
46.41, 0.062325, , 
46.44, 0.062449, , 
46.47, 0.062658, , 
46.50, 0.062779, , 
46.53, 0.062931, , 
46.56, 0.063118, , 
46.59, 0.063321, , 
46.62, 0.063426, , 
46.65, 0.063540, , 
46.68, 0.063711, , 
46.71, 0.063851, , 
46.74, 0.063959, , 
46.77, 0.064092, , 
46.80, 0.064289, , 
46.83, 0.064425, , 
46.86, 0.064558, , 
46.89, 0.064752, , 
46.92, 0.064901, , 
46.95, 0.064987, , 
46.98, 0.065091, , 
47.01, 0.065218, , 
47.04, 0.065386, , 
47.07, 0.065440, , 
47.10, 0.065456, , 
47.13, 0.065523, , 
47.16, 0.065684, , 
47.19, 0.065786, , 
47.22, 0.065878, , 
47.25, 0.065986, , 
47.28, 0.066049, , 
47.31, 0.066049, , 
47.34, 0.066021, , 
47.37, 0.066056, , 
47.40, 0.066236, , 
47.43, 0.066316, , 
47.46, 0.066414, , 
47.49, 0.066500, , 
47.52, 0.066525, , 
47.55, 0.066522, , 
47.58, 0.066471, , 
47.61, 0.066490, , 
47.64, 0.066541, , 
47.67, 0.066509, , 
47.70, 0.066446, , 
47.73, 0.066370, , 
47.76, 0.066268, , 
47.79, 0.066176, , 
47.82, 0.066090, , 
47.85, 0.066068, , 
47.88, 0.066084, , 
47.91, 0.065932, , 
47.94, 0.065856, , 
47.97, 0.065742, , 
48.00, 0.065684, 15, 0.588
48.00, 0.065684, , 
48.03, 0.065621, , 
48.06, 0.065586, , 
48.09, 0.065447, , 
48.12, 0.065336, , 
48.15, 0.065196, , 
48.18, 0.065072, , 
48.21, 0.064993, , 
48.24, 0.064876, , 
48.27, 0.064733, , 
48.30, 0.064565, , 
48.33, 0.064428, , 
48.36, 0.064282, , 
48.39, 0.064124, , 
48.42, 0.064010, , 
48.45, 0.063797, , 
48.48, 0.063645, , 
48.51, 0.063486, , 
48.54, 0.063305, , 
48.57, 0.063210, , 
48.60, 0.063099, , 
48.63, 0.062868, , 
48.67, 0.062735, , 
48.69, 0.062643, , 
48.72, 0.062462, , 
48.75, 0.062278, , 
48.78, 0.062179, , 
48.81, 0.062113, , 
48.84, 0.062005, , 
48.87, 0.061853, , 
48.90, 0.061716, , 
48.93, 0.061599, , 
48.96, 0.061440, , 
48.99, 0.061301, , 
49.02, 0.061231, , 
49.05, 0.061209, , 
49.08, 0.061130, , 
49.12, 0.060987, , 
49.14, 0.060876, , 
49.17, 0.060819, , 
49.20, 0.060739, , 
49.23, 0.060717, , 
49.26, 0.060695, , 
49.29, 0.060606, , 
49.32, 0.060457, , 
49.35, 0.060308, , 
49.38, 0.060260, , 
49.41, 0.060260, , 
49.44, 0.060232, , 
49.47, 0.060210, , 
49.50, 0.060219, , 
49.53, 0.060238, , 
49.56, 0.060219, , 
49.59, 0.060219, , 
49.62, 0.060241, , 
49.65, 0.060238, , 
49.68, 0.060191, , 
49.71, 0.060153, , 
49.74, 0.060153, , 
49.77, 0.060191, , 
49.80, 0.060238, , 
49.83, 0.060390, , 
49.86, 0.060517, , 
49.89, 0.060622, , 
49.92, 0.060641, , 
49.95, 0.060632, , 
49.98, 0.060644, , 
50.01, 0.060647, , 
50.04, 0.060654, , 
50.07, 0.060632, , 
50.10, 0.060647, , 
50.13, 0.060771, , 
50.16, 0.060882, , 
50.19, 0.061012, , 
50.22, 0.061107, , 
50.25, 0.061155, , 
50.28, 0.061168, , 
50.31, 0.061285, , 
50.34, 0.061412, , 
50.37, 0.061536, , 
50.40, 0.061567, , 
50.43, 0.061726, , 
50.46, 0.061865, , 
50.49, 0.062005, , 
50.52, 0.062056, , 
50.55, 0.062122, , 
50.58, 0.062313, , 
50.61, 0.062484, , 
50.64, 0.062538, , 
50.67, 0.062595, , 
50.70, 0.062731, , 
50.73, 0.062880, , 
50.77, 0.062957, , 
50.79, 0.063007, , 
50.82, 0.063160, , 
50.85, 0.063350, , 
50.88, 0.063489, , 
50.91, 0.063524, , 
50.94, 0.063604, , 
50.97, 0.063724, , 
51.00, 0.063870, , 
51.03, 0.063959, , 
51.06, 0.064048, , 
51.09, 0.064197, , 
51.12, 0.064343, , 
51.15, 0.064451, , 
51.18, 0.064549, , 
51.19, 0.064584, 16, 0.585
51.21, 0.064600, , 
51.24, 0.064584, , 
51.27, 0.064628, , 
51.30, 0.064818, , 
51.33, 0.064987, , 
51.36, 0.065025, , 
51.39, 0.065050, , 
51.42, 0.065101, , 
51.45, 0.065085, , 
51.48, 0.065053, , 
51.51, 0.065053, , 
51.54, 0.065164, , 
51.57, 0.065301, , 
51.60, 0.065389, , 
51.63, 0.065427, , 
51.66, 0.065535, , 
51.69, 0.065580, , 
51.72, 0.065535, , 
51.75, 0.065599, , 
51.78, 0.065592, , 
51.81, 0.065615, , 
51.84, 0.065605, , 
51.87, 0.065548, , 
51.90, 0.065583, , 
51.93, 0.065608, , 
51.96, 0.065573, , 
51.99, 0.065535, , 
52.02, 0.065570, , 
52.05, 0.065624, , 
52.08, 0.065567, , 
52.11, 0.065523, , 
52.14, 0.065567, , 
52.17, 0.065491, , 
52.20, 0.065272, , 
52.23, 0.065183, , 
52.26, 0.065139, , 
52.30, 0.065110, , 
52.32, 0.065104, , 
52.35, 0.065107, , 
52.38, 0.065075, , 
52.41, 0.064917, , 
52.44, 0.064723, , 
52.47, 0.064682, , 
52.50, 0.064657, , 
52.53, 0.064641, , 
52.57, 0.064584, , 
52.59, 0.064562, , 
52.62, 0.064511, , 
52.65, 0.064397, , 
52.68, 0.064248, , 
52.71, 0.064149, , 
52.74, 0.064089, , 
52.77, 0.064013, , 
52.80, 0.063807, , 
52.83, 0.063689, , 
52.86, 0.063639, , 
52.89, 0.063502, , 
52.92, 0.063305, , 
52.95, 0.063182, , 
52.98, 0.063156, , 
53.01, 0.063147, , 
53.04, 0.063109, , 
53.07, 0.063039, , 
53.10, 0.062912, , 
53.13, 0.062760, , 
53.16, 0.062652, , 
53.19, 0.062639, , 
53.22, 0.062652, , 
53.25, 0.062646, , 
53.28, 0.062598, , 
53.31, 0.062617, , 
53.34, 0.062633, , 
53.37, 0.062646, , 
53.40, 0.062592, , 
53.43, 0.062573, , 
53.46, 0.062585, , 
53.49, 0.062563, , 
53.52, 0.062554, , 
53.55, 0.062582, , 
53.58, 0.062639, , 
53.61, 0.062611, , 
53.64, 0.062554, , 
53.67, 0.062585, , 
53.70, 0.062624, , 
53.73, 0.062604, , 
53.76, 0.062554, , 
53.80, 0.062598, , 
53.82, 0.062624, , 
53.85, 0.062589, , 
53.88, 0.062589, , 
53.91, 0.062601, , 
53.94, 0.062627, , 
53.97, 0.062627, , 
54.01, 0.062551, , 
54.03, 0.062557, , 
54.06, 0.062608, , 
54.09, 0.062608, , 
54.12, 0.062598, , 
54.15, 0.062630, , 
54.18, 0.062792, , 
54.21, 0.062890, , 
54.24, 0.062950, , 
54.27, 0.063001, , 
54.30, 0.063096, , 
54.33, 0.063112, , 
54.36, 0.063147, , 
54.39, 0.063290, 17, 0.585
54.39, 0.063309, , 
54.42, 0.063477, , 
54.45, 0.063543, , 
54.48, 0.063626, , 
54.51, 0.063788, , 
54.54, 0.063946, , 
54.57, 0.064016, , 
54.60, 0.064035, , 
54.63, 0.064098, , 
54.66, 0.064194, , 
54.69, 0.064324, , 
54.72, 0.064432, , 
54.75, 0.064501, , 
54.78, 0.064552, , 
54.81, 0.064558, , 
54.84, 0.064568, , 
54.87, 0.064635, , 
54.90, 0.064761, , 
54.93, 0.064863, , 
54.96, 0.064920, , 
54.99, 0.064996, , 
55.02, 0.065047, , 
55.05, 0.065069, , 
55.08, 0.065050, , 
55.11, 0.065104, , 
55.14, 0.065117, , 
55.17, 0.065123, , 
55.20, 0.065063, , 
55.23, 0.065101, , 
55.26, 0.065098, , 
55.29, 0.065069, , 
55.32, 0.065069, , 
55.35, 0.065101, , 
55.38, 0.065202, , 
55.41, 0.065326, , 
55.44, 0.065399, , 
55.47, 0.065466, , 
55.50, 0.065507, , 
55.53, 0.065532, , 
55.56, 0.065580, , 
55.59, 0.065583, , 
55.62, 0.065583, , 
55.65, 0.065551, , 
55.68, 0.065434, , 
55.71, 0.065336, , 
55.74, 0.065247, , 
55.77, 0.065167, , 
55.80, 0.065079, , 
55.83, 0.065098, , 
55.86, 0.065145, , 
55.89, 0.065075, , 
55.92, 0.065063, , 
55.95, 0.065113, , 
55.98, 0.065139, , 
56.01, 0.064971, , 
56.04, 0.064828, , 
56.07, 0.064733, , 
56.10, 0.064644, , 
56.13, 0.064603, , 
56.16, 0.064609, , 
56.19, 0.064606, , 
56.22, 0.064647, , 
56.25, 0.064584, , 
56.28, 0.064444, , 
56.31, 0.064314, , 
56.34, 0.064244, , 
56.37, 0.064162, , 
56.40, 0.064137, , 
56.43, 0.064121, , 
56.46, 0.064121, , 
56.49, 0.064152, , 
56.52, 0.064111, , 
56.55, 0.064121, , 
56.58, 0.064060, , 
56.61, 0.063924, , 
56.64, 0.063762, , 
56.67, 0.063721, , 
56.70, 0.063651, , 
56.73, 0.063613, , 
56.76, 0.063619, , 
56.79, 0.063600, , 
56.82, 0.063626, , 
56.85, 0.063619, , 
56.88, 0.063597, , 
56.91, 0.063600, , 
56.94, 0.063613, , 
56.97, 0.063578, , 
57.00, 0.063556, , 
57.04, 0.063613, , 
57.06, 0.063594, , 
57.09, 0.063559, , 
57.12, 0.063578, , 
57.15, 0.063692, , 
57.18, 0.063880, , 
57.21, 0.063905, , 
57.24, 0.063962, , 
57.27, 0.064073, , 
57.30, 0.064079, , 
57.33, 0.064041, , 
57.36, 0.064051, , 
57.39, 0.064127, , 
57.43, 0.064244, , 
57.45, 0.064320, , 
57.48, 0.064409, , 
57.51, 0.064523, , 
57.54, 0.064562, , 
57.57, 0.064577, , 
57.59, 0.064587, 18, 0.585
57.60, 0.064581, , 
57.63, 0.064593, , 
57.66, 0.064650, , 
57.69, 0.064774, , 
57.72, 0.064904, , 
57.75, 0.065009, , 
57.78, 0.065056, , 
57.81, 0.065028, , 
57.84, 0.065018, , 
57.87, 0.065060, , 
57.90, 0.065053, , 
57.93, 0.065056, , 
57.96, 0.065050, , 
57.99, 0.065060, , 
58.02, 0.065107, , 
58.05, 0.065094, , 
58.08, 0.065085, , 
58.11, 0.065088, , 
58.14, 0.065123, , 
58.17, 0.065063, , 
58.20, 0.065082, , 
58.23, 0.065120, , 
58.26, 0.065155, , 
58.29, 0.065266, , 
58.32, 0.065380, , 
58.35, 0.065478, , 
58.38, 0.065516, , 
58.41, 0.065548, , 
58.44, 0.065577, , 
58.47, 0.065583, , 
58.50, 0.065554, , 
58.53, 0.065523, , 
58.56, 0.065408, , 
58.59, 0.065291, , 
58.62, 0.065180, , 
58.65, 0.065136, , 
58.68, 0.065136, , 
58.71, 0.065136, , 
58.74, 0.065088, , 
58.77, 0.065060, , 
58.80, 0.065085, , 
58.83, 0.065129, , 
58.86, 0.065050, , 
58.89, 0.065012, , 
58.92, 0.064920, , 
58.95, 0.064831, , 
58.98, 0.064726, , 
59.01, 0.064631, , 
59.04, 0.064612, , 
59.07, 0.064669, , 
59.10, 0.064641, , 
59.13, 0.064603, , 
59.16, 0.064552, , 
59.19, 0.064593, , 
59.22, 0.064555, , 
59.26, 0.064549, , 
59.28, 0.064565, , 
59.31, 0.064596, , 
59.34, 0.064590, , 
59.37, 0.064555, , 
59.40, 0.064609, , 
59.43, 0.064622, , 
59.46, 0.064590, , 
59.49, 0.064546, , 
59.52, 0.064428, , 
59.55, 0.064317, , 
59.58, 0.064203, , 
59.61, 0.064143, , 
59.64, 0.064156, , 
59.67, 0.064143, , 
59.70, 0.064121, , 
59.73, 0.064102, , 
59.76, 0.064111, , 
59.79, 0.064133, , 
59.82, 0.064111, , 
59.85, 0.064070, , 
59.88, 0.064060, , 
59.91, 0.064121, , 
59.94, 0.064133, , 
59.97, 0.064095, , 
60.00, 0.064089, , 
60.03, 0.064127, , 
60.06, 0.064098, , 
60.09, 0.064137, , 
60.12, 0.064257, , 
60.15, 0.064432, , 
60.18, 0.064504, , 
60.21, 0.064530, , 
60.24, 0.064600, , 
60.27, 0.064638, , 
60.30, 0.064650, , 
60.33, 0.064612, , 
60.36, 0.064619, , 
60.39, 0.064609, , 
60.42, 0.064562, , 
60.45, 0.064574, , 
60.48, 0.064581, , 
60.51, 0.064593, , 
60.54, 0.064628, , 
60.57, 0.064606, , 
60.60, 0.064587, , 
60.63, 0.064600, , 
60.66, 0.064596, , 
60.69, 0.064593, , 
60.72, 0.064603, , 
60.75, 0.064625, , 
60.78, 0.064581, , 
60.79, 0.064581, 19, 0.586
60.81, 0.064571, , 
60.84, 0.064593, , 
60.87, 0.064660, , 
60.91, 0.064641, , 
60.93, 0.064584, , 
60.96, 0.064584, , 
60.99, 0.064619, , 
61.02, 0.064590, , 
61.05, 0.064432, , 
61.08, 0.064324, , 
61.11, 0.064238, , 
61.14, 0.064175, , 
61.17, 0.064095, , 
61.20, 0.064121, , 
61.23, 0.064133, , 
61.26, 0.064105, , 
61.29, 0.064098, , 
61.32, 0.064105, , 
61.35, 0.064130, , 
61.38, 0.064124, , 
61.41, 0.064076, , 
61.44, 0.064114, , 
61.47, 0.064140, , 
61.50, 0.064089, , 
61.53, 0.064060, , 
61.56, 0.064086, , 
61.59, 0.064076, , 
61.62, 0.063908, , 
61.65, 0.063765, , 
61.68, 0.063718, , 
61.71, 0.063677, , 
61.74, 0.063619, , 
61.77, 0.063591, , 
61.80, 0.063619, , 
61.83, 0.063632, , 
61.86, 0.063619, , 
61.89, 0.063600, , 
61.92, 0.063597, , 
61.95, 0.063616, , 
61.98, 0.063600, , 
62.01, 0.063562, , 
62.04, 0.063572, , 
62.07, 0.063635, , 
62.10, 0.063619, , 
62.13, 0.063610, , 
62.16, 0.063610, , 
62.19, 0.063607, , 
62.22, 0.063604, , 
62.25, 0.063581, , 
62.28, 0.063607, , 
62.31, 0.063575, , 
62.34, 0.063566, , 
62.37, 0.063575, , 
62.40, 0.063619, , 
62.43, 0.063616, , 
62.46, 0.063566, , 
62.49, 0.063559, , 
62.52, 0.063585, , 
62.56, 0.063547, , 
62.58, 0.063547, , 
62.61, 0.063553, , 
62.64, 0.063591, , 
62.67, 0.063588, , 
62.70, 0.063575, , 
62.73, 0.063537, , 
62.76, 0.063543, , 
62.79, 0.063404, , 
62.82, 0.063261, , 
62.85, 0.063185, , 
62.88, 0.063156, , 
62.91, 0.063137, , 
62.94, 0.063074, , 
62.97, 0.063039, , 
63.00, 0.063052, , 
63.03, 0.063090, , 
63.06, 0.063083, , 
63.09, 0.063074, , 
63.12, 0.063102, , 
63.15, 0.063090, , 
63.18, 0.063071, , 
63.21, 0.063061, , 
63.24, 0.063080, , 
63.27, 0.063090, , 
63.30, 0.063096, , 
63.33, 0.063039, , 
63.36, 0.063077, , 
63.39, 0.063074, , 
63.42, 0.062915, , 
63.45, 0.062776, , 
63.48, 0.062738, , 
63.51, 0.062674, , 
63.54, 0.062624, , 
63.57, 0.062563, , 
63.60, 0.062585, , 
63.63, 0.062582, , 
63.66, 0.062532, , 
63.69, 0.062544, , 
63.72, 0.062573, , 
63.75, 0.062601, , 
63.78, 0.062589, , 
63.81, 0.062585, , 
63.84, 0.062608, , 
63.87, 0.062614, , 
63.90, 0.062573, , 
63.93, 0.062563, , 
63.96, 0.062687, , 
63.99, 0.062817, 20, 0.587
64.00, 0.062817, , 
64.02, 0.062868, , 
64.05, 0.062957, , 
64.08, 0.063033, , 
64.11, 0.063077, , 
64.14, 0.063049, , 
64.17, 0.063058, , 
64.21, 0.063096, , 
64.23, 0.063087, , 
64.26, 0.063033, , 
64.29, 0.063030, , 
64.32, 0.063068, , 
64.35, 0.063023, , 
64.38, 0.062991, , 
64.42, 0.063017, , 
64.44, 0.063014, , 
64.47, 0.062884, , 
64.50, 0.062719, , 
64.53, 0.062643, , 
64.56, 0.062595, , 
64.59, 0.062525, , 
64.62, 0.062493, , 
64.65, 0.062478, , 
64.68, 0.062541, , 
64.71, 0.062525, , 
64.74, 0.062474, , 
64.77, 0.062487, , 
64.80, 0.062544, , 
64.83, 0.062522, , 
64.86, 0.062481, , 
64.89, 0.062493, , 
64.92, 0.062554, , 
64.95, 0.062557, , 
64.98, 0.062493, , 
65.01, 0.062522, , 
65.04, 0.062512, , 
65.07, 0.062487, , 
65.10, 0.062408, , 
65.13, 0.062313, , 
65.16, 0.062237, , 
65.19, 0.062148, , 
65.22, 0.062056, , 
65.25, 0.062030, , 
65.28, 0.062081, , 
65.31, 0.062068, , 
65.34, 0.062008, , 
65.37, 0.062053, , 
65.40, 0.062002, , 
65.43, 0.061821, , 
65.46, 0.061694, , 
65.49, 0.061637, , 
65.52, 0.061599, , 
65.55, 0.061545, , 
65.58, 0.061501, , 
65.61, 0.061545, , 
65.64, 0.061586, , 
65.67, 0.061570, , 
65.70, 0.061529, , 
65.73, 0.061520, , 
65.76, 0.061551, , 
65.79, 0.061532, , 
65.82, 0.061542, , 
65.85, 0.061561, , 
65.88, 0.061545, , 
65.91, 0.061542, , 
65.94, 0.061517, , 
65.97, 0.061551, , 
66.00, 0.061580, , 
66.03, 0.061551, , 
66.06, 0.061548, , 
66.09, 0.061532, , 
66.12, 0.061583, , 
66.15, 0.061574, , 
66.18, 0.061542, , 
66.21, 0.061570, , 
66.24, 0.061558, , 
66.27, 0.061542, , 
66.30, 0.061513, , 
66.33, 0.061513, , 
66.36, 0.061431, , 
66.39, 0.061241, , 
66.42, 0.061114, , 
66.45, 0.061142, , 
66.48, 0.061126, , 
66.51, 0.061050, , 
66.54, 0.061028, , 
66.57, 0.061044, , 
66.60, 0.061085, , 
66.63, 0.061053, , 
66.66, 0.061015, , 
66.69, 0.061041, , 
66.72, 0.061053, , 
66.75, 0.061028, , 
66.78, 0.061063, , 
66.81, 0.061072, , 
66.84, 0.060987, , 
66.87, 0.060816, , 
66.90, 0.060771, , 
66.93, 0.060835, , 
66.96, 0.060917, , 
66.99, 0.060961, , 
67.02, 0.061028, , 
67.05, 0.061085, , 
67.08, 0.061069, , 
67.11, 0.061069, , 
67.14, 0.061091, , 
67.17, 0.061107, , 
67.19, 0.061091, 21, 0.585
67.20, 0.061076, , 
67.23, 0.061072, , 
67.26, 0.061072, , 
67.29, 0.061072, , 
67.32, 0.061082, , 
67.35, 0.061063, , 
67.38, 0.061069, , 
67.41, 0.061152, , 
67.44, 0.061130, , 
67.47, 0.061079, , 
67.50, 0.061060, , 
67.53, 0.061079, , 
67.56, 0.061012, , 
67.59, 0.060850, , 
67.62, 0.060739, , 
67.65, 0.060689, , 
67.68, 0.060625, , 
67.71, 0.060590, , 
67.74, 0.060625, , 
67.77, 0.060635, , 
67.80, 0.060609, , 
67.83, 0.060616, , 
67.86, 0.060644, , 
67.89, 0.060619, , 
67.92, 0.060619, , 
67.95, 0.060565, , 
67.98, 0.060403, , 
68.01, 0.060314, , 
68.04, 0.060213, , 
68.07, 0.060184, , 
68.10, 0.060181, , 
68.13, 0.060172, , 
68.16, 0.060023, , 
68.19, 0.059813, , 
68.22, 0.059759, , 
68.25, 0.059715, , 
68.28, 0.059648, , 
68.32, 0.059610, , 
68.34, 0.059597, , 
68.37, 0.059493, , 
68.40, 0.059302, , 
68.43, 0.059195, , 
68.46, 0.059144, , 
68.49, 0.059131, , 
68.52, 0.059131, , 
68.55, 0.059103, , 
68.58, 0.059119, , 
68.61, 0.059169, , 
68.64, 0.059122, , 
68.67, 0.059125, , 
68.70, 0.059172, , 
68.73, 0.059147, , 
68.76, 0.059093, , 
68.79, 0.059109, , 
68.82, 0.059160, , 
68.85, 0.059153, , 
68.88, 0.059115, , 
68.91, 0.059096, , 
68.94, 0.059055, , 
68.97, 0.058906, , 
69.00, 0.058798, , 
69.03, 0.058709, , 
69.06, 0.058706, , 
69.09, 0.058690, , 
69.12, 0.058633, , 
69.15, 0.058598, , 
69.18, 0.058643, , 
69.21, 0.058633, , 
69.24, 0.058592, , 
69.27, 0.058630, , 
69.30, 0.058589, , 
69.33, 0.058440, , 
69.36, 0.058284, , 
69.39, 0.058211, , 
69.42, 0.058234, , 
69.45, 0.058189, , 
69.48, 0.058110, , 
69.51, 0.058116, , 
69.54, 0.058129, , 
69.57, 0.058142, , 
69.61, 0.058129, , 
69.63, 0.058154, , 
69.66, 0.058189, , 
69.69, 0.058157, , 
69.72, 0.058157, , 
69.75, 0.058183, , 
69.78, 0.058173, , 
69.81, 0.058164, , 
69.84, 0.058113, , 
69.87, 0.058104, , 
69.91, 0.058027, , 
69.93, 0.057945, , 
69.96, 0.057764, , 
69.99, 0.057723, , 
70.02, 0.057701, , 
70.05, 0.057682, , 
70.08, 0.057653, , 
70.11, 0.057710, , 
70.14, 0.057697, , 
70.17, 0.057640, , 
70.20, 0.057488, , 
70.23, 0.057383, , 
70.26, 0.057311, , 
70.29, 0.057244, , 
70.32, 0.057190, , 
70.35, 0.057203, , 
70.38, 0.057231, , 
70.39, 0.057231, 22, 0.585
70.41, 0.057215, , 
70.44, 0.057133, , 
70.47, 0.057035, , 
70.50, 0.056924, , 
70.53, 0.056803, , 
70.56, 0.056717, , 
70.59, 0.056692, , 
70.62, 0.056724, , 
70.65, 0.056676, , 
70.68, 0.056654, , 
70.71, 0.056708, , 
70.74, 0.056724, , 
70.77, 0.056686, , 
70.80, 0.056673, , 
70.83, 0.056625, , 
70.86, 0.056549, , 
70.89, 0.056384, , 
70.92, 0.056270, , 
70.95, 0.056232, , 
70.98, 0.056219, , 
71.01, 0.056178, , 
71.04, 0.056156, , 
71.07, 0.056219, , 
71.10, 0.056165, , 
71.13, 0.056102, , 
71.17, 0.056118, , 
71.19, 0.056124, , 
71.22, 0.056045, , 
71.25, 0.055842, , 
71.28, 0.055750, , 
71.31, 0.055671, , 
71.34, 0.055661, , 
71.37, 0.055671, , 
71.40, 0.055642, , 
71.43, 0.055680, , 
71.46, 0.055690, , 
71.49, 0.055658, , 
71.52, 0.055680, , 
71.55, 0.055636, , 
71.58, 0.055626, , 
71.61, 0.055588, , 
71.64, 0.055490, , 
71.67, 0.055398, , 
71.70, 0.055217, , 
71.73, 0.055141, , 
71.76, 0.055122, , 
71.79, 0.055150, , 
71.82, 0.055109, , 
71.85, 0.055093, , 
71.88, 0.055103, , 
71.91, 0.055157, , 
71.94, 0.055135, , 
71.97, 0.055150, , 
72.00, 0.055185, , 
72.03, 0.055112, , 
72.06, 0.055100, , 
72.09, 0.055017, , 
72.12, 0.054919, , 
72.15, 0.054760, , 
72.18, 0.054662, , 
72.21, 0.054643, , 
72.24, 0.054668, , 
72.27, 0.054643, , 
72.30, 0.054643, , 
72.33, 0.054640, , 
72.36, 0.054656, , 
72.39, 0.054662, , 
72.42, 0.054646, , 
72.45, 0.054649, , 
72.48, 0.054668, , 
72.51, 0.054690, , 
72.54, 0.054646, , 
72.57, 0.054659, , 
72.60, 0.054665, , 
72.63, 0.054684, , 
72.66, 0.054656, , 
72.69, 0.054690, , 
72.72, 0.054668, , 
72.75, 0.054643, , 
72.78, 0.054510, , 
72.81, 0.054386, , 
72.84, 0.054269, , 
72.87, 0.054221, , 
72.90, 0.054161, , 
72.93, 0.054151, , 
72.96, 0.054196, , 
72.99, 0.054145, , 
73.02, 0.054139, , 
73.05, 0.054139, , 
73.08, 0.054151, , 
73.11, 0.054040, , 
73.14, 0.053882, , 
73.17, 0.053793, , 
73.20, 0.053729, , 
73.23, 0.053717, , 
73.26, 0.053695, , 
73.29, 0.053688, , 
73.32, 0.053691, , 
73.35, 0.053663, , 
73.38, 0.053609, , 
73.41, 0.053625, , 
73.44, 0.053637, , 
73.47, 0.053511, , 
73.50, 0.053361, , 
73.53, 0.053298, , 
73.56, 0.053235, , 
73.59, 0.053203, 23, 0.586
73.60, 0.053184, , 
73.62, 0.053139, , 
73.65, 0.053171, , 
73.68, 0.053250, , 
73.71, 0.053181, , 
73.74, 0.053127, , 
73.77, 0.053168, , 
73.80, 0.053197, , 
73.83, 0.053073, , 
73.86, 0.052898, , 
73.89, 0.052803, , 
73.92, 0.052743, , 
73.95, 0.052651, , 
73.98, 0.052638, , 
74.01, 0.052635, , 
74.04, 0.052610, , 
74.07, 0.052480, , 
74.10, 0.052327, , 
74.13, 0.052283, , 
74.16, 0.052273, , 
74.19, 0.052194, , 
74.22, 0.052166, , 
74.25, 0.052156, , 
74.28, 0.052172, , 
74.31, 0.052175, , 
74.34, 0.052140, , 
74.37, 0.052169, , 
74.40, 0.052191, , 
74.43, 0.052159, , 
74.46, 0.052178, , 
74.49, 0.052169, , 
74.52, 0.052178, , 
74.55, 0.052156, , 
74.58, 0.052169, , 
74.61, 0.052169, , 
74.64, 0.052118, , 
74.67, 0.052055, , 
74.70, 0.052004, , 
74.73, 0.051893, , 
74.76, 0.051775, , 
74.79, 0.051709, , 
74.82, 0.051706, , 
74.85, 0.051699, , 
74.88, 0.051645, , 
74.91, 0.051493, , 
74.94, 0.051417, , 
74.97, 0.051360, , 
75.01, 0.051258, , 
75.03, 0.051195, , 
75.06, 0.051189, , 
75.09, 0.051135, , 
75.12, 0.050983, , 
75.15, 0.050862, , 
75.18, 0.050786, , 
75.21, 0.050760, , 
75.24, 0.050694, , 
75.27, 0.050668, , 
75.30, 0.050694, , 
75.33, 0.050684, , 
75.36, 0.050665, , 
75.39, 0.050570, , 
75.42, 0.050488, , 
75.45, 0.050393, , 
75.48, 0.050282, , 
75.51, 0.050190, , 
75.54, 0.050212, , 
75.57, 0.050193, , 
75.60, 0.050180, , 
75.63, 0.050190, , 
75.66, 0.050190, , 
75.69, 0.050202, , 
75.72, 0.050193, , 
75.75, 0.050167, , 
75.78, 0.050136, , 
75.81, 0.050009, , 
75.84, 0.049847, , 
75.87, 0.049761, , 
75.90, 0.049736, , 
75.93, 0.049717, , 
75.96, 0.049663, , 
75.99, 0.049641, , 
76.02, 0.049672, , 
76.05, 0.049603, , 
76.08, 0.049409, , 
76.12, 0.049282, , 
76.14, 0.049219, , 
76.17, 0.049197, , 
76.20, 0.049194, , 
76.23, 0.049175, , 
76.26, 0.049219, , 
76.29, 0.049238, , 
76.32, 0.049203, , 
76.35, 0.049127, , 
76.38, 0.049051, , 
76.41, 0.048933, , 
76.44, 0.048797, , 
76.47, 0.048715, , 
76.50, 0.048737, , 
76.53, 0.048699, , 
76.56, 0.048680, , 
76.59, 0.048673, , 
76.62, 0.048683, , 
76.65, 0.048721, , 
76.68, 0.048696, , 
76.71, 0.048696, , 
76.74, 0.048673, , 
76.77, 0.048553, , 
76.78, 0.048502, 24, 0.584
76.80, 0.048458, , 
76.83, 0.048391, , 
76.86, 0.048343, , 
76.89, 0.048255, , 
76.92, 0.048217, , 
76.95, 0.048220, , 
76.98, 0.048179, , 
77.01, 0.048153, , 
77.04, 0.048198, , 
77.07, 0.048194, , 
77.10, 0.048213, , 
77.13, 0.048204, , 
77.16, 0.048175, , 
77.19, 0.048185, , 
77.22, 0.048198, , 
77.25, 0.048175, , 
77.28, 0.048140, , 
77.31, 0.048172, , 
77.34, 0.048188, , 
77.37, 0.048144, , 
77.40, 0.048159, , 
77.43, 0.048172, , 
77.46, 0.048198, , 
77.49, 0.048159, , 
77.52, 0.048093, , 
77.55, 0.047960, , 
77.58, 0.047880, , 
77.61, 0.047807, , 
77.64, 0.047731, , 
77.67, 0.047715, , 
77.70, 0.047703, , 
77.73, 0.047649, , 
77.76, 0.047665, , 
77.79, 0.047687, , 
77.82, 0.047715, , 
77.85, 0.047681, , 
77.88, 0.047658, , 
77.91, 0.047655, , 
77.94, 0.047668, , 
77.97, 0.047674, , 
78.00, 0.047661, , 
78.03, 0.047661, , 
78.06, 0.047671, , 
78.09, 0.047620, , 
78.12, 0.047655, , 
78.15, 0.047687, , 
78.18, 0.047687, , 
78.21, 0.047649, , 
78.24, 0.047642, , 
78.27, 0.047687, , 
78.30, 0.047665, , 
78.34, 0.047668, , 
78.36, 0.047671, , 
78.39, 0.047715, , 
78.42, 0.047687, , 
78.45, 0.047642, , 
78.48, 0.047658, , 
78.51, 0.047687, , 
78.54, 0.047668, , 
78.57, 0.047642, , 
78.60, 0.047614, , 
78.63, 0.047674, , 
78.66, 0.047661, , 
78.69, 0.047627, , 
78.72, 0.047646, , 
78.75, 0.047655, , 
78.78, 0.047652, , 
78.81, 0.047642, , 
78.84, 0.047655, , 
78.87, 0.047671, , 
78.90, 0.047608, , 
78.93, 0.047557, , 
78.96, 0.047579, , 
78.99, 0.047611, , 
79.02, 0.047617, , 
79.05, 0.047614, , 
79.08, 0.047623, , 
79.11, 0.047677, , 
79.14, 0.047620, , 
79.17, 0.047563, , 
79.20, 0.047598, , 
79.23, 0.047617, , 
79.26, 0.047604, , 
79.29, 0.047614, , 
79.32, 0.047630, , 
79.35, 0.047646, , 
79.38, 0.047627, , 
79.41, 0.047579, , 
79.44, 0.047620, , 
79.47, 0.047642, , 
79.50, 0.047623, , 
79.53, 0.047582, , 
79.56, 0.047623, , 
79.59, 0.047627, , 
79.62, 0.047579, , 
79.65, 0.047563, , 
79.68, 0.047614, , 
79.71, 0.047595, , 
79.74, 0.047550, , 
79.78, 0.047458, , 
79.80, 0.047351, , 
79.83, 0.047271, , 
79.86, 0.047186, , 
79.89, 0.047116, , 
79.92, 0.047202, , 
79.95, 0.047211, , 
79.98, 0.047160, , 
79.99, 0.047135, 25, 0.586
80.01, 0.047132, , 
80.04, 0.047176, , 
80.07, 0.047163, , 
80.10, 0.047113, , 
80.13, 0.047113, , 
80.16, 0.047141, , 
80.19, 0.047125, , 
80.22, 0.047072, , 
80.25, 0.047122, , 
80.28, 0.047125, , 
80.31, 0.047113, , 
80.34, 0.047084, , 
80.37, 0.047097, , 
80.40, 0.047122, , 
80.43, 0.047110, , 
80.46, 0.047084, , 
80.49, 0.047106, , 
80.52, 0.047129, , 
80.55, 0.047100, , 
80.58, 0.047125, , 
80.61, 0.047154, , 
80.64, 0.047157, , 
80.67, 0.047132, , 
80.70, 0.047049, , 
80.73, 0.047097, , 
80.76, 0.047100, , 
80.79, 0.047075, , 
80.82, 0.047078, , 
80.85, 0.047113, , 
80.88, 0.047141, , 
80.91, 0.047091, , 
80.94, 0.047059, , 
80.97, 0.047106, , 
81.00, 0.047116, , 
81.03, 0.047148, , 
81.06, 0.047151, , 
81.09, 0.047129, , 
81.12, 0.047189, , 
81.15, 0.047135, , 
81.18, 0.047148, , 
81.21, 0.047278, , 
81.24, 0.047382, , 
81.27, 0.047471, , 
81.30, 0.047474, , 
81.33, 0.047487, , 
81.37, 0.047344, , 
81.39, 0.047262, , 
81.42, 0.047259, , 
81.45, 0.047389, , 
81.48, 0.047462, , 
81.51, 0.047522, , 
81.54, 0.047544, , 
81.58, 0.047585, , 
81.60, 0.047595, , 
81.63, 0.047608, , 
81.66, 0.047566, , 
81.69, 0.047541, , 
81.72, 0.047439, , 
81.75, 0.047255, , 
81.78, 0.047227, , 
81.81, 0.047176, , 
81.84, 0.047148, , 
81.87, 0.047122, , 
81.90, 0.047110, , 
81.93, 0.047122, , 
81.96, 0.047144, , 
81.99, 0.047160, , 
82.02, 0.047179, , 
82.05, 0.047189, , 
82.08, 0.047135, , 
82.11, 0.047091, , 
82.14, 0.047138, , 
82.17, 0.047186, , 
82.20, 0.047160, , 
82.23, 0.047138, , 
82.26, 0.047132, , 
82.29, 0.047211, , 
82.32, 0.047167, , 
82.35, 0.047141, , 
82.38, 0.047154, , 
82.41, 0.047163, , 
82.44, 0.047129, , 
82.47, 0.047129, , 
82.50, 0.047129, , 
82.53, 0.047081, , 
82.56, 0.046913, , 
82.59, 0.046789, , 
82.62, 0.046729, , 
82.65, 0.046681, , 
82.68, 0.046646, , 
82.71, 0.046653, , 
82.74, 0.046653, , 
82.77, 0.046646, , 
82.80, 0.046631, , 
82.83, 0.046666, , 
82.86, 0.046691, , 
82.89, 0.046694, , 
82.92, 0.046624, , 
82.95, 0.046605, , 
82.98, 0.046650, , 
83.01, 0.046627, , 
83.04, 0.046646, , 
83.07, 0.046659, , 
83.10, 0.046656, , 
83.13, 0.046646, , 
83.16, 0.046621, , 
83.19, 0.046637, 26, 0.586
83.19, 0.046637, , 
83.22, 0.046716, , 
83.25, 0.046707, , 
83.28, 0.046688, , 
83.31, 0.046713, , 
83.34, 0.046713, , 
83.37, 0.046691, , 
83.40, 0.046656, , 
83.43, 0.046681, , 
83.46, 0.046691, , 
83.49, 0.046694, , 
83.52, 0.046662, , 
83.55, 0.046672, , 
83.59, 0.046751, , 
83.61, 0.046713, , 
83.64, 0.046666, , 
83.67, 0.046691, , 
83.70, 0.046710, , 
83.73, 0.046672, , 
83.76, 0.046631, , 
83.79, 0.046662, , 
83.82, 0.046732, , 
83.85, 0.046666, , 
83.88, 0.046634, , 
83.91, 0.046719, , 
83.94, 0.046719, , 
83.97, 0.046688, , 
84.00, 0.046675, , 
84.03, 0.046707, , 
84.06, 0.046726, , 
84.09, 0.046710, , 
84.12, 0.046780, , 
84.15, 0.046957, , 
84.18, 0.047084, , 
84.21, 0.047113, , 
84.24, 0.047167, , 
84.27, 0.047154, , 
84.30, 0.047160, , 
84.33, 0.047170, , 
84.36, 0.047192, , 
84.39, 0.047198, , 
84.42, 0.047211, , 
84.45, 0.047173, , 
84.48, 0.047202, , 
84.51, 0.047211, , 
84.54, 0.047211, , 
84.57, 0.047186, , 
84.60, 0.047110, , 
84.63, 0.046983, , 
84.66, 0.046888, , 
84.69, 0.046824, , 
84.72, 0.046796, , 
84.75, 0.046780, , 
84.78, 0.046764, , 
84.81, 0.046745, , 
84.84, 0.046745, , 
84.87, 0.046761, , 
84.90, 0.046738, , 
84.93, 0.046742, , 
84.96, 0.046770, , 
84.99, 0.046805, , 
85.02, 0.046761, , 
85.05, 0.046761, , 
85.08, 0.046811, , 
85.11, 0.046846, , 
85.14, 0.046783, , 
85.17, 0.046754, , 
85.20, 0.046796, , 
85.23, 0.046815, , 
85.26, 0.046770, , 
85.30, 0.046777, , 
85.32, 0.046821, , 
85.35, 0.046853, , 
85.38, 0.046811, , 
85.41, 0.046799, , 
85.44, 0.046773, , 
85.47, 0.046789, , 
85.51, 0.046729, , 
85.53, 0.046764, , 
85.56, 0.046799, , 
85.59, 0.046799, , 
85.62, 0.046751, , 
85.65, 0.046777, , 
85.68, 0.046811, , 
85.72, 0.046780, , 
85.74, 0.046777, , 
85.77, 0.046770, , 
85.80, 0.046773, , 
85.83, 0.046770, , 
85.86, 0.046767, , 
85.89, 0.046780, , 
85.92, 0.046792, , 
85.95, 0.046751, , 
85.98, 0.046748, , 
86.01, 0.046767, , 
86.04, 0.046818, , 
86.08, 0.046761, , 
86.10, 0.046726, , 
86.13, 0.046751, , 
86.16, 0.046780, , 
86.19, 0.046754, , 
86.22, 0.046764, , 
86.25, 0.046783, , 
86.28, 0.046735, , 
86.31, 0.046672, , 
86.34, 0.046681, , 
86.37, 0.046716, , 
86.40, 0.046704, , 
86.43, 0.046694, , 
86.46, 0.046691, , 
86.49, 0.046732, , 
86.52, 0.046697, , 
86.55, 0.046662, , 
86.58, 0.046672, , 
86.61, 0.046704, , 
86.64, 0.046700, , 
86.67, 0.046669, , 
86.70, 0.046646, , 
86.73, 0.046624, , 
86.76, 0.046646, , 
86.79, 0.046634, , 
86.82, 0.046621, , 
86.85, 0.046678, , 
86.88, 0.046681, , 
86.91, 0.046637, , 
86.94, 0.046650, , 
86.97, 0.046666, , 
87.00, 0.046605, , 
87.03, 0.046574, , 
87.06, 0.046608, , 
87.09, 0.046634, , 
87.12, 0.046631, , 
87.15, 0.046602, , 
87.18, 0.046631, , 
87.21, 0.046627, , 
87.24, 0.046672, , 
87.27, 0.046656, , 
87.30, 0.046666, , 
87.33, 0.046697, , 
87.36, 0.046650, , 
87.39, 0.046612, , 
87.42, 0.046627, , 
87.45, 0.046675, , 
87.48, 0.046637, , 
87.51, 0.046637, , 
87.54, 0.046707, , 
87.57, 0.046704, , 
87.60, 0.046650, , 
87.63, 0.046608, , 
87.66, 0.046634, , 
87.69, 0.046646, , 
87.72, 0.046599, , 
87.75, 0.046599, , 
87.78, 0.046637, , 
87.81, 0.046669, , 
87.84, 0.046637, , 
87.87, 0.046599, , 
87.90, 0.046643, , 
87.93, 0.046666, , 
87.97, 0.046580, , 
87.99, 0.046583, , 
88.02, 0.046646, , 
88.05, 0.046669, , 
88.08, 0.046624, , 
88.11, 0.046640, , 
88.14, 0.046656, , 
88.17, 0.046627, , 
88.20, 0.046615, , 
88.23, 0.046631, , 
88.26, 0.046659, , 
88.29, 0.046666, , 
88.32, 0.046656, , 
88.35, 0.046669, , 
88.38, 0.046688, , 
88.41, 0.046697, , 
88.44, 0.046697, , 
88.47, 0.046681, , 
88.50, 0.046685, , 
88.53, 0.046681, , 
88.56, 0.046688, , 
88.59, 0.046707, , 
88.62, 0.046719, , 
88.65, 0.046723, , 
88.68, 0.046681, , 
88.71, 0.046694, , 
88.74, 0.046688, , 
88.77, 0.046637, , 
88.80, 0.046675, , 
88.83, 0.046719, , 
88.86, 0.046694, , 
88.89, 0.046666, , 
88.92, 0.046627, , 
88.95, 0.046662, , 
88.98, 0.046719, , 
89.01, 0.046723, , 
89.04, 0.046694, , 
89.08, 0.046732, , 
89.10, 0.046700, , 
89.13, 0.046678, , 
89.16, 0.046697, , 
89.19, 0.046700, , 
89.22, 0.046710, , 
89.25, 0.046675, , 
89.28, 0.046656, , 
89.31, 0.046672, , 
89.34, 0.046697, , 
89.37, 0.046659, , 
89.40, 0.046678, , 
89.43, 0.046726, , 
89.46, 0.046726, , 
89.49, 0.046697, , 
89.52, 0.046640, , 
89.55, 0.046691, , 
89.58, 0.046688, , 
89.61, 0.046681, , 
89.64, 0.046653, , 
89.67, 0.046662, , 
89.70, 0.046704, , 
89.73, 0.046688, , 
89.76, 0.046678, , 
89.79, 0.046707, , 
89.82, 0.046678, , 
89.85, 0.046707, , 
89.88, 0.046745, , 
89.91, 0.046751, , 
89.94, 0.046704, , 
89.97, 0.046681, , 
90.00, 0.046694, , 
90.03, 0.046716, , 
90.06, 0.046694, , 
90.09, 0.046697, , 
90.12, 0.046716, , 
90.15, 0.046719, , 
90.18, 0.046662, , 
90.21, 0.046662, , 
90.24, 0.046685, , 
90.27, 0.046707, , 
90.30, 0.046646, , 
90.33, 0.046653, , 
90.36, 0.046681, , 
90.39, 0.046662, , 
90.42, 0.046662, , 
90.45, 0.046627, , 
90.48, 0.046662, , 
90.51, 0.046694, , 
90.54, 0.046662, , 
90.57, 0.046612, , 
90.60, 0.046656, , 
90.63, 0.046612, , 
90.66, 0.046608, , 
90.69, 0.046615, , 
90.72, 0.046688, , 
90.75, 0.046685, , 
90.78, 0.046666, , 
90.81, 0.046669, , 
90.84, 0.046700, , 
90.87, 0.046697, , 
90.90, 0.046675, , 
90.93, 0.046678, , 
90.96, 0.046700, , 
90.99, 0.046675, , 
91.02, 0.046653, , 
91.05, 0.046685, , 
91.08, 0.046675, , 
91.11, 0.046691, , 
91.14, 0.046669, , 
91.17, 0.046669, , 
91.20, 0.046669, , 
91.23, 0.046653, , 
91.26, 0.046640, , 
91.29, 0.046659, , 
91.32, 0.046650, , 
91.35, 0.046656, , 
91.38, 0.046631, , 
91.41, 0.046646, , 
91.44, 0.046694, , 
91.47, 0.046685, , 
91.50, 0.046659, , 
91.53, 0.046700, , 
91.56, 0.046719, , 
91.59, 0.046672, , 
91.62, 0.046659, , 
91.65, 0.046710, , 
91.69, 0.046713, , 
91.71, 0.046691, , 
91.74, 0.046681, , 
91.77, 0.046700, , 
91.80, 0.046713, , 
91.83, 0.046678, , 
91.86, 0.046650, , 
91.89, 0.046697, , 
91.92, 0.046716, , 
91.95, 0.046681, , 
91.98, 0.046685, , 
92.01, 0.046761, , 
92.04, 0.046726, , 
92.07, 0.046716, , 
92.10, 0.046732, , 
92.13, 0.046735, , 
92.16, 0.046716, , 
92.19, 0.046666, , 
92.22, 0.046659, , 
92.25, 0.046697, , 
92.28, 0.046726, , 
92.31, 0.046666, , 
92.34, 0.046675, , 
92.37, 0.046707, , 
92.40, 0.046729, , 
92.43, 0.046710, , 
92.46, 0.046757, , 
92.49, 0.046777, , 
92.52, 0.046704, , 
92.55, 0.046653, , 
92.58, 0.046659, , 
92.61, 0.046697, , 
92.64, 0.046694, , 
92.67, 0.046685, , 
92.70, 0.046685, , 
92.73, 0.046653, , 
92.76, 0.046666, , 
92.79, 0.046621, , 
92.82, 0.046627, , 
92.85, 0.046643, , 
92.88, 0.046618, , 
92.91, 0.046621, , 
92.94, 0.046666, , 
92.97, 0.046697, , 
93.00, 0.046662, , 
93.03, 0.046659, , 
93.06, 0.046685, , 
93.09, 0.046757, , 
93.12, 0.046745, , 
93.16, 0.046694, , 
93.18, 0.046742, , 
93.21, 0.046719, , 
93.24, 0.046704, , 
93.27, 0.046653, , 
93.30, 0.046691, , 
93.33, 0.046700, , 
93.36, 0.046694, , 
93.39, 0.046691, , 
93.42, 0.046697, , 
93.45, 0.046716, , 
93.48, 0.046694, , 
93.51, 0.046716, , 
93.54, 0.046751, , 
93.57, 0.046735, , 
93.60, 0.046707, , 
93.63, 0.046723, , 
93.66, 0.046723, , 
93.69, 0.046710, , 
93.72, 0.046681, , 
93.75, 0.046685, , 
93.78, 0.046694, , 
93.81, 0.046694, , 
93.84, 0.046713, , 
93.87, 0.046678, , 
93.90, 0.046729, , 
93.93, 0.046732, , 
93.96, 0.046650, , 
93.99, 0.046634, , 
94.02, 0.046719, , 
94.05, 0.046745, , 
94.08, 0.046704, , 
94.11, 0.046685, , 
94.14, 0.046729, , 
94.17, 0.046704, , 
94.20, 0.046675, , 
94.23, 0.046694, , 
94.26, 0.046681, , 
94.29, 0.046666, , 
94.32, 0.046675, , 
94.35, 0.046700, , 
94.38, 0.046669, , 
94.41, 0.046656, , 
94.44, 0.046653, , 
94.47, 0.046672, , 
94.50, 0.046681, , 
94.53, 0.046662, , 
94.56, 0.046666, , 
94.59, 0.046672, , 
94.62, 0.046700, , 
94.65, 0.046659, , 
94.68, 0.046678, , 
94.71, 0.046697, , 
94.74, 0.046681, , 
94.77, 0.046624, , 
94.80, 0.046624, , 
94.83, 0.046666, , 
94.86, 0.046637, , 
94.89, 0.046640, , 
94.92, 0.046631, , 
94.95, 0.046685, , 
94.99, 0.046697, , 
95.01, 0.046659, , 
95.04, 0.046653, , 
95.07, 0.046700, , 
95.10, 0.046697, , 
95.13, 0.046681, , 
95.16, 0.046688, , 
95.19, 0.046675, , 
95.22, 0.046646, , 
95.25, 0.046637, , 
95.28, 0.046656, , 
95.31, 0.046691, , 
95.34, 0.046691, , 
95.37, 0.046688, , 
95.40, 0.046666, , 
95.43, 0.046685, , 
95.46, 0.046656, , 
95.49, 0.046631, , 
95.52, 0.046653, , 
95.55, 0.046681, , 
95.58, 0.046650, , 
95.61, 0.046634, , 
95.64, 0.046650, , 
95.67, 0.046678, , 
95.70, 0.046716, , 
95.73, 0.046646, , 
95.76, 0.046637, , 
95.79, 0.046672, , 
95.82, 0.046685, , 
95.85, 0.046637, , 
95.88, 0.046637, , 
95.91, 0.046685, , 
95.94, 0.046675, , 
95.97, 0.046646, , 
96.00, 0.046612, , 
