Gradient Profiler Text Data File: 20240506_MV_I_40.csv
Date: 2024-05-06
Time: 17:19:43

User: jared
Experiment name: 
UV Unit: EM-1
Rotor Manufacturer: Beckman
Rotor Model: SW28.1
Speed: 28 rpm
Gradient: sucrose 10.0% to 50.0% w/v
Time: 4
w2t:  x 10^0
Sample Volume: 18 ml
Number of Tubes: 6
Volume per mm: 0.183 ml/mm

Absorbance Units Full Scale (AUFS): 2.00
Event Mark-triggered gradient; (with distance; auto start and stop)
Delay: No Delay
UV Wavelength: 254 nm
Samples / sec: 10 Hz
EM1 Speed: 0.30 mm/sec
Distance: 3.20 mm
Number: 30
Dead Volume: 0.000000 ml; Distance due to Dead Volume: 0.00 mm
Total Distance: 96.00 mm

Data Columns:
Distance(mm), Absorbance, Fraction Number, Fraction Volume(ml)
0.00, 0.097769, 0, 0.000
0.03, 0.097791, , 
0.06, 0.097794, , 
0.09, 0.097794, , 
0.12, 0.097819, , 
0.15, 0.097816, , 
0.18, 0.097791, , 
0.21, 0.097791, , 
0.24, 0.097841, , 
0.27, 0.097851, , 
0.30, 0.097734, , 
0.33, 0.097607, , 
0.36, 0.097515, , 
0.39, 0.097445, , 
0.42, 0.097350, , 
0.45, 0.097337, , 
0.48, 0.097382, , 
0.51, 0.097382, , 
0.54, 0.097337, , 
0.57, 0.097350, , 
0.60, 0.097597, , 
0.63, 0.098910, , 
0.66, 0.105283, , 
0.69, 0.120454, , 
0.72, 0.148935, , 
0.75, 0.189948, , 
0.78, 0.239297, , 
0.81, 0.302948, , 
0.84, 0.361302, , 
0.87, 0.433591, , 
0.90, 0.498581, , 
0.93, 0.554058, , 
0.96, 0.633093, , 
0.99, 0.701397, , 
1.02, 0.781600, , 
1.05, 0.850833, , 
1.08, 0.920467, , 
1.11, 1.002201, , 
1.14, 1.060419, , 
1.17, 1.128749, , 
1.20, 1.202189, , 
1.23, 1.254399, , 
1.26, 1.299307, , 
1.29, 1.326509, , 
1.33, 1.349991, , 
1.35, 1.363107, , 
1.38, 1.375440, , 
1.41, 1.385967, , 
1.44, 1.392628, , 
1.47, 1.398052, , 
1.50, 1.403768, , 
1.54, 1.408380, , 
1.56, 1.412561, , 
1.59, 1.416389, , 
1.62, 1.420082, , 
1.65, 1.424627, , 
1.68, 1.429004, , 
1.71, 1.433705, , 
1.74, 1.438685, , 
1.77, 1.444474, , 
1.80, 1.449168, , 
1.83, 1.454421, , 
1.86, 1.458928, , 
1.89, 1.462788, , 
1.92, 1.468235, , 
1.95, 1.472650, , 
1.98, 1.477151, , 
2.01, 1.480393, , 
2.04, 1.482924, , 
2.08, 1.485166, , 
2.10, 1.486600, , 
2.13, 1.488573, , 
2.16, 1.490308, , 
2.19, 1.491926, , 
2.22, 1.493607, , 
2.25, 1.494762, , 
2.28, 1.495792, , 
2.31, 1.496449, , 
2.34, 1.497255, , 
2.37, 1.498470, , 
2.40, 1.499703, , 
2.43, 1.501074, , 
2.46, 1.502514, , 
2.49, 1.504274, , 
2.52, 1.505993, , 
2.55, 1.508556, , 
2.58, 1.511252, , 
2.61, 1.513717, , 
2.64, 1.517197, , 
2.67, 1.519877, , 
2.70, 1.522424, , 
2.73, 1.524064, , 
2.76, 1.525298, , 
2.79, 1.526291, , 
2.82, 1.527328, , 
2.85, 1.528121, , 
2.88, 1.528625, , 
2.91, 1.528609, , 
2.95, 1.528149, , 
2.97, 1.527249, , 
3.00, 1.525983, , 
3.03, 1.524502, , 
3.06, 1.522646, , 
3.09, 1.520946, , 
3.12, 1.518627, , 
3.15, 1.516686, , 
3.18, 1.514142, , 
3.19, 1.513219, 1, 0.584
3.21, 1.510742, , 
3.24, 1.507392, , 
3.27, 1.503158, , 
3.30, 1.499272, , 
3.33, 1.495057, , 
3.36, 1.490416, , 
3.39, 1.485306, , 
3.42, 1.478886, , 
3.45, 1.472967, , 
3.48, 1.466557, , 
3.51, 1.458503, , 
3.54, 1.451116, , 
3.57, 1.443310, , 
3.60, 1.435050, , 
3.63, 1.426343, , 
3.66, 1.415641, , 
3.69, 1.405932, , 
3.72, 1.394065, , 
3.75, 1.383433, , 
3.78, 1.374260, , 
3.81, 1.361042, , 
3.84, 1.349455, , 
3.87, 1.335670, , 
3.90, 1.323604, , 
3.93, 1.311246, , 
3.96, 1.296449, , 
3.99, 1.285750, , 
4.02, 1.270677, , 
4.05, 1.257545, , 
4.08, 1.244248, , 
4.11, 1.228547, , 
4.14, 1.214991, , 
4.17, 1.198931, , 
4.20, 1.187373, , 
4.23, 1.173502, , 
4.26, 1.157315, , 
4.29, 1.143425, , 
4.32, 1.127312, , 
4.35, 1.113485, , 
4.38, 1.099716, , 
4.41, 1.085909, , 
4.44, 1.072054, , 
4.47, 1.056035, , 
4.50, 1.042437, , 
4.53, 1.028830, , 
4.56, 1.013043, , 
4.59, 1.001963, , 
4.62, 0.986760, , 
4.65, 0.973904, , 
4.68, 0.961245, , 
4.71, 0.946731, , 
4.74, 0.934506, , 
4.77, 0.920413, , 
4.80, 0.910459, , 
4.83, 0.898682, , 
4.86, 0.885116, , 
4.89, 0.873567, , 
4.92, 0.860298, , 
4.95, 0.849216, , 
4.98, 0.838304, , 
5.01, 0.827504, , 
5.04, 0.816741, , 
5.07, 0.804387, , 
5.10, 0.793942, , 
5.13, 0.783595, , 
5.16, 0.771652, , 
5.19, 0.761601, , 
5.22, 0.751577, , 
5.25, 0.741681, , 
5.28, 0.731873, , 
5.31, 0.720632, , 
5.34, 0.711110, , 
5.37, 0.700128, , 
5.40, 0.690828, , 
5.43, 0.683168, , 
5.46, 0.672422, , 
5.49, 0.663229, , 
5.52, 0.652730, , 
5.55, 0.644001, , 
5.58, 0.635469, , 
5.61, 0.625655, , 
5.64, 0.618797, , 
5.67, 0.609253, , 
5.70, 0.601209, , 
5.73, 0.593234, , 
5.76, 0.584159, , 
5.79, 0.576534, , 
5.83, 0.567840, , 
5.85, 0.561740, , 
5.88, 0.554664, , 
5.91, 0.546521, , 
5.94, 0.539587, , 
5.97, 0.532650, , 
6.00, 0.524724, , 
6.03, 0.518078, , 
6.06, 0.511436, , 
6.09, 0.504820, , 
6.12, 0.497232, , 
6.15, 0.490797, , 
6.18, 0.484443, , 
6.21, 0.477148, , 
6.25, 0.470940, , 
6.27, 0.465865, , 
6.30, 0.458785, , 
6.33, 0.452829, , 
6.36, 0.445920, , 
6.39, 0.441016, 2, 0.585
6.39, 0.440011, , 
6.42, 0.434105, , 
6.45, 0.428354, , 
6.48, 0.422794, , 
6.51, 0.416446, , 
6.54, 0.411105, , 
6.57, 0.405833, , 
6.60, 0.399943, , 
6.63, 0.395007, , 
6.66, 0.390081, , 
6.69, 0.385276, , 
6.72, 0.380585, , 
6.75, 0.375167, , 
6.78, 0.370536, , 
6.81, 0.365312, , 
6.84, 0.361001, , 
6.87, 0.357474, , 
6.90, 0.352516, , 
6.93, 0.348389, , 
6.96, 0.343717, , 
6.99, 0.339762, , 
7.02, 0.335803, , 
7.05, 0.331204, , 
7.08, 0.327994, , 
7.11, 0.323636, , 
7.14, 0.319937, , 
7.17, 0.316302, , 
7.20, 0.312163, , 
7.23, 0.308636, , 
7.26, 0.304484, , 
7.29, 0.301556, , 
7.32, 0.298130, , 
7.35, 0.294181, , 
7.38, 0.290832, , 
7.41, 0.287013, , 
7.44, 0.283910, , 
7.47, 0.280761, , 
7.50, 0.277709, , 
7.53, 0.274715, , 
7.56, 0.271337, , 
7.59, 0.268488, , 
7.62, 0.265675, , 
7.65, 0.262557, , 
7.68, 0.259978, , 
7.71, 0.257444, , 
7.74, 0.254938, , 
7.77, 0.252553, , 
7.80, 0.249717, , 
7.83, 0.247332, , 
7.86, 0.245067, , 
7.89, 0.242574, , 
7.92, 0.240855, , 
7.95, 0.238444, , 
7.98, 0.236423, , 
8.01, 0.234463, , 
8.04, 0.232154, , 
8.07, 0.230152, , 
8.10, 0.227831, , 
8.13, 0.226238, , 
8.16, 0.224291, , 
8.19, 0.221985, , 
8.22, 0.220050, , 
8.25, 0.217861, , 
8.28, 0.216047, , 
8.31, 0.214232, , 
8.34, 0.212459, , 
8.37, 0.210664, , 
8.40, 0.208561, , 
8.43, 0.206807, , 
8.46, 0.205085, , 
8.49, 0.203083, , 
8.52, 0.201402, , 
8.55, 0.199772, , 
8.58, 0.198157, , 
8.61, 0.196682, , 
8.64, 0.194995, , 
8.67, 0.193561, , 
8.70, 0.191858, , 
8.73, 0.190452, , 
8.76, 0.189292, , 
8.79, 0.187614, , 
8.82, 0.186294, , 
8.85, 0.184956, , 
8.88, 0.183769, , 
8.91, 0.182481, , 
8.94, 0.180987, , 
8.97, 0.179966, , 
9.00, 0.178583, , 
9.03, 0.177359, , 
9.06, 0.176115, , 
9.09, 0.174815, , 
9.12, 0.173660, , 
9.16, 0.172201, , 
9.18, 0.171250, , 
9.21, 0.170146, , 
9.24, 0.168775, , 
9.27, 0.167545, , 
9.30, 0.166225, , 
9.33, 0.165131, , 
9.36, 0.164018, , 
9.39, 0.162968, , 
9.42, 0.161918, , 
9.45, 0.160770, , 
9.48, 0.159764, , 
9.51, 0.158765, , 
9.54, 0.157724, , 
9.57, 0.157014, , 
9.59, 0.156411, 3, 0.586
9.60, 0.155958, , 
9.63, 0.155051, , 
9.66, 0.154153, , 
9.69, 0.153166, , 
9.72, 0.152370, , 
9.75, 0.151507, , 
9.78, 0.150905, , 
9.81, 0.150197, , 
9.84, 0.149328, , 
9.87, 0.148615, , 
9.90, 0.147847, , 
9.93, 0.147143, , 
9.96, 0.146344, , 
9.99, 0.145639, , 
10.02, 0.144964, , 
10.05, 0.144193, , 
10.08, 0.143501, , 
10.11, 0.142845, , 
10.14, 0.142103, , 
10.17, 0.141424, , 
10.20, 0.140732, , 
10.23, 0.140076, , 
10.26, 0.139435, , 
10.29, 0.138677, , 
10.32, 0.138039, , 
10.35, 0.137516, , 
10.38, 0.137031, , 
10.41, 0.136361, , 
10.44, 0.135743, , 
10.47, 0.135109, , 
10.50, 0.134722, , 
10.53, 0.134239, , 
10.56, 0.133669, , 
10.59, 0.133205, , 
10.62, 0.132641, , 
10.65, 0.132067, , 
10.68, 0.131585, , 
10.71, 0.131175, , 
10.74, 0.130842, , 
10.77, 0.130408, , 
10.80, 0.129986, , 
10.83, 0.129580, , 
10.86, 0.129126, , 
10.89, 0.128679, , 
10.92, 0.128168, , 
10.95, 0.127750, , 
10.98, 0.127340, , 
11.01, 0.126827, , 
11.04, 0.126367, , 
11.07, 0.125897, , 
11.10, 0.125460, , 
11.13, 0.125069, , 
11.16, 0.124556, , 
11.19, 0.124111, , 
11.22, 0.123671, , 
11.25, 0.123338, , 
11.28, 0.123001, , 
11.31, 0.122646, , 
11.34, 0.122316, , 
11.37, 0.121878, , 
11.40, 0.121580, , 
11.43, 0.121295, , 
11.46, 0.120882, , 
11.49, 0.120495, , 
11.52, 0.120131, , 
11.55, 0.119899, , 
11.58, 0.119630, , 
11.61, 0.119262, , 
11.64, 0.118967, , 
11.67, 0.118738, , 
11.70, 0.118488, , 
11.73, 0.118247, , 
11.76, 0.117996, , 
11.79, 0.117730, , 
11.82, 0.117450, , 
11.85, 0.117187, , 
11.88, 0.116886, , 
11.91, 0.116607, , 
11.94, 0.116277, , 
11.97, 0.115982, , 
12.00, 0.115693, , 
12.03, 0.115516, , 
12.06, 0.115363, , 
12.09, 0.115033, , 
12.12, 0.114811, , 
12.15, 0.114558, , 
12.18, 0.114351, , 
12.21, 0.114152, , 
12.25, 0.113888, , 
12.27, 0.113771, , 
12.30, 0.113558, , 
12.33, 0.113425, , 
12.36, 0.113422, , 
12.39, 0.113330, , 
12.42, 0.113165, , 
12.45, 0.113029, , 
12.48, 0.112949, , 
12.51, 0.112924, , 
12.54, 0.112880, , 
12.57, 0.112902, , 
12.60, 0.112921, , 
12.63, 0.113007, , 
12.66, 0.113108, , 
12.69, 0.113165, , 
12.72, 0.113254, , 
12.75, 0.113321, , 
12.78, 0.113340, 4, 0.584
12.79, 0.113333, , 
12.81, 0.113362, , 
12.84, 0.113527, , 
12.87, 0.113660, , 
12.90, 0.113730, , 
12.93, 0.113765, , 
12.96, 0.113812, , 
12.99, 0.113920, , 
13.02, 0.114022, , 
13.05, 0.114152, , 
13.08, 0.114202, , 
13.11, 0.114231, , 
13.14, 0.114310, , 
13.17, 0.114437, , 
13.20, 0.114608, , 
13.23, 0.114732, , 
13.26, 0.114900, , 
13.29, 0.115011, , 
13.32, 0.115151, , 
13.35, 0.115325, , 
13.38, 0.115443, , 
13.41, 0.115550, , 
13.44, 0.115766, , 
13.47, 0.115909, , 
13.50, 0.116033, , 
13.53, 0.116131, , 
13.56, 0.116261, , 
13.59, 0.116378, , 
13.62, 0.116461, , 
13.65, 0.116584, , 
13.68, 0.116664, , 
13.71, 0.116711, , 
13.74, 0.116692, , 
13.77, 0.116702, , 
13.80, 0.116715, , 
13.83, 0.116724, , 
13.86, 0.116702, , 
13.89, 0.116756, , 
13.92, 0.116746, , 
13.95, 0.116610, , 
13.98, 0.116442, , 
14.01, 0.116362, , 
14.04, 0.116274, , 
14.07, 0.116159, , 
14.10, 0.116010, , 
14.13, 0.115839, , 
14.16, 0.115690, , 
14.19, 0.115424, , 
14.22, 0.115173, , 
14.25, 0.114970, , 
14.28, 0.114767, , 
14.31, 0.114532, , 
14.34, 0.114297, , 
14.37, 0.114085, , 
14.40, 0.113891, , 
14.43, 0.113596, , 
14.46, 0.113387, , 
14.49, 0.113156, , 
14.52, 0.112946, , 
14.55, 0.112765, , 
14.58, 0.112515, , 
14.61, 0.112220, , 
14.64, 0.111903, , 
14.67, 0.111633, , 
14.70, 0.111348, , 
14.73, 0.110954, , 
14.76, 0.110666, , 
14.79, 0.110275, , 
14.82, 0.109958, , 
14.85, 0.109682, , 
14.88, 0.109248, , 
14.91, 0.108823, , 
14.95, 0.108388, , 
14.97, 0.108144, , 
15.00, 0.107808, , 
15.03, 0.107380, , 
15.06, 0.107015, , 
15.09, 0.106580, , 
15.12, 0.106231, , 
15.16, 0.105911, , 
15.18, 0.105625, , 
15.21, 0.105337, , 
15.24, 0.105070, , 
15.27, 0.104687, , 
15.30, 0.104341, , 
15.33, 0.103970, , 
15.36, 0.103649, , 
15.39, 0.103345, , 
15.42, 0.103021, , 
15.45, 0.102736, , 
15.48, 0.102387, , 
15.51, 0.102184, , 
15.54, 0.101949, , 
15.57, 0.101619, , 
15.60, 0.101350, , 
15.63, 0.101042, , 
15.66, 0.100757, , 
15.69, 0.100442, , 
15.72, 0.100170, , 
15.75, 0.099875, , 
15.78, 0.099662, , 
15.81, 0.099364, , 
15.84, 0.099034, , 
15.87, 0.098771, , 
15.90, 0.098489, , 
15.93, 0.098279, , 
15.96, 0.098000, , 
15.99, 0.097765, 5, 0.587
16.00, 0.097730, , 
16.02, 0.097569, , 
16.05, 0.097302, , 
16.08, 0.097112, , 
16.11, 0.096830, , 
16.14, 0.096662, , 
16.17, 0.096443, , 
16.20, 0.096119, , 
16.23, 0.095976, , 
16.26, 0.095830, , 
16.29, 0.095697, , 
16.32, 0.095520, , 
16.35, 0.095393, , 
16.38, 0.095218, , 
16.41, 0.095053, , 
16.44, 0.094939, , 
16.47, 0.094873, , 
16.50, 0.094866, , 
16.53, 0.094717, , 
16.56, 0.094565, , 
16.59, 0.094473, , 
16.62, 0.094362, , 
16.65, 0.094153, , 
16.68, 0.094013, , 
16.71, 0.093950, , 
16.74, 0.093873, , 
16.77, 0.093718, , 
16.80, 0.093524, , 
16.83, 0.093448, , 
16.86, 0.093337, , 
16.89, 0.093188, , 
16.92, 0.093065, , 
16.95, 0.092944, , 
16.98, 0.092868, , 
17.01, 0.092646, , 
17.04, 0.092506, , 
17.07, 0.092430, , 
17.10, 0.092376, , 
17.13, 0.092348, , 
17.16, 0.092306, , 
17.19, 0.092221, , 
17.22, 0.092088, , 
17.25, 0.091919, , 
17.28, 0.091875, , 
17.31, 0.091869, , 
17.34, 0.091780, , 
17.37, 0.091618, , 
17.40, 0.091472, , 
17.43, 0.091434, , 
17.46, 0.091402, , 
17.49, 0.091326, , 
17.53, 0.091212, , 
17.55, 0.091060, , 
17.58, 0.090977, , 
17.61, 0.090790, , 
17.64, 0.090622, , 
17.67, 0.090511, , 
17.70, 0.090353, , 
17.73, 0.090162, , 
17.76, 0.090007, , 
17.79, 0.089918, , 
17.82, 0.089734, , 
17.85, 0.089522, , 
17.88, 0.089341, , 
17.91, 0.089125, , 
17.94, 0.089043, , 
17.97, 0.088916, , 
18.00, 0.088786, , 
18.03, 0.088627, , 
18.06, 0.088516, , 
18.09, 0.088357, , 
18.12, 0.088173, , 
18.15, 0.088066, , 
18.18, 0.087964, , 
18.21, 0.087920, , 
18.24, 0.087875, , 
18.27, 0.087774, , 
18.30, 0.087577, , 
18.33, 0.087495, , 
18.36, 0.087476, , 
18.39, 0.087457, , 
18.42, 0.087317, , 
18.45, 0.087130, , 
18.48, 0.087051, , 
18.51, 0.086990, , 
18.54, 0.086889, , 
18.57, 0.086759, , 
18.60, 0.086597, , 
18.63, 0.086486, , 
18.66, 0.086394, , 
18.69, 0.086378, , 
18.72, 0.086337, , 
18.76, 0.086181, , 
18.78, 0.086036, , 
18.81, 0.085969, , 
18.84, 0.085953, , 
18.87, 0.085937, , 
18.90, 0.085886, , 
18.93, 0.085896, , 
18.96, 0.085931, , 
18.99, 0.085947, , 
19.02, 0.085912, , 
19.05, 0.085867, , 
19.08, 0.085906, , 
19.11, 0.085934, , 
19.14, 0.085994, , 
19.17, 0.086105, , 
19.19, 0.086232, 6, 0.586
19.20, 0.086283, , 
19.23, 0.086346, , 
19.26, 0.086416, , 
19.29, 0.086578, , 
19.32, 0.086797, , 
19.35, 0.087000, , 
19.38, 0.087203, , 
19.41, 0.087472, , 
19.44, 0.087809, , 
19.47, 0.088021, , 
19.50, 0.088262, , 
19.53, 0.088545, , 
19.56, 0.088960, , 
19.59, 0.089280, , 
19.62, 0.089712, , 
19.65, 0.090219, , 
19.68, 0.090657, , 
19.71, 0.091158, , 
19.74, 0.091688, , 
19.77, 0.092278, , 
19.80, 0.092827, , 
19.83, 0.093369, , 
19.86, 0.094092, , 
19.89, 0.094717, , 
19.92, 0.095434, , 
19.95, 0.096240, , 
19.98, 0.096950, , 
20.01, 0.097581, , 
20.04, 0.098454, , 
20.07, 0.099228, , 
20.10, 0.100071, , 
20.13, 0.100833, , 
20.16, 0.101740, , 
20.19, 0.102485, , 
20.22, 0.103164, , 
20.25, 0.104179, , 
20.28, 0.104994, , 
20.31, 0.105749, , 
20.34, 0.106628, , 
20.37, 0.107430, , 
20.40, 0.108109, , 
20.43, 0.108889, , 
20.46, 0.109571, , 
20.49, 0.110288, , 
20.52, 0.110942, , 
20.55, 0.111551, , 
20.58, 0.112185, , 
20.61, 0.112705, , 
20.64, 0.113137, , 
20.67, 0.113650, , 
20.70, 0.114072, , 
20.73, 0.114580, , 
20.76, 0.114941, , 
20.79, 0.115259, , 
20.82, 0.115646, , 
20.85, 0.115909, , 
20.88, 0.116102, , 
20.91, 0.116267, , 
20.94, 0.116432, , 
20.97, 0.116581, , 
21.00, 0.116661, , 
21.03, 0.116718, , 
21.06, 0.116743, , 
21.09, 0.116775, , 
21.13, 0.116711, , 
21.15, 0.116607, , 
21.18, 0.116489, , 
21.21, 0.116426, , 
21.24, 0.116274, , 
21.27, 0.116014, , 
21.30, 0.115887, , 
21.33, 0.115677, , 
21.36, 0.115446, , 
21.39, 0.115214, , 
21.42, 0.115005, , 
21.45, 0.114818, , 
21.48, 0.114507, , 
21.51, 0.114221, , 
21.54, 0.114028, , 
21.57, 0.113730, , 
21.60, 0.113397, , 
21.63, 0.113051, , 
21.66, 0.112791, , 
21.69, 0.112537, , 
21.72, 0.112153, , 
21.75, 0.111934, , 
21.78, 0.111643, , 
21.81, 0.111357, , 
21.84, 0.111081, , 
21.87, 0.110780, , 
21.90, 0.110504, , 
21.93, 0.110180, , 
21.96, 0.109939, , 
21.99, 0.109616, , 
22.02, 0.109232, , 
22.05, 0.108985, , 
22.08, 0.108607, , 
22.11, 0.108322, , 
22.14, 0.108074, , 
22.17, 0.107773, , 
22.20, 0.107452, , 
22.23, 0.107157, , 
22.26, 0.106891, , 
22.29, 0.106567, , 
22.32, 0.106101, , 
22.36, 0.105816, , 
22.38, 0.105508, , 
22.39, 0.105416, 7, 0.586
22.41, 0.105207, , 
22.44, 0.104823, , 
22.47, 0.104404, , 
22.50, 0.104014, , 
22.53, 0.103516, , 
22.56, 0.103246, , 
22.59, 0.102945, , 
22.62, 0.102584, , 
22.65, 0.102197, , 
22.68, 0.101784, , 
22.71, 0.101505, , 
22.74, 0.101201, , 
22.77, 0.100833, , 
22.80, 0.100420, , 
22.83, 0.100002, , 
22.86, 0.099700, , 
22.89, 0.099402, , 
22.92, 0.098996, , 
22.95, 0.098745, , 
22.98, 0.098463, , 
23.01, 0.098146, , 
23.04, 0.097800, , 
23.07, 0.097426, , 
23.10, 0.097121, , 
23.13, 0.096763, , 
23.16, 0.096360, , 
23.19, 0.096091, , 
23.22, 0.095748, , 
23.25, 0.095434, , 
23.28, 0.095041, , 
23.31, 0.094714, , 
23.34, 0.094381, , 
23.37, 0.093956, , 
23.40, 0.093642, , 
23.43, 0.093433, , 
23.46, 0.093096, , 
23.49, 0.092789, , 
23.52, 0.092440, , 
23.55, 0.092154, , 
23.58, 0.091888, , 
23.62, 0.091491, , 
23.64, 0.091241, , 
23.67, 0.090993, , 
23.70, 0.090746, , 
23.73, 0.090508, , 
23.76, 0.090362, , 
23.79, 0.090216, , 
23.82, 0.089997, , 
23.85, 0.089766, , 
23.88, 0.089572, , 
23.91, 0.089483, , 
23.94, 0.089312, , 
23.97, 0.089103, , 
24.00, 0.089011, , 
24.03, 0.088843, , 
24.06, 0.088646, , 
24.09, 0.088481, , 
24.12, 0.088446, , 
24.15, 0.088459, , 
24.18, 0.088319, , 
24.21, 0.088186, , 
24.24, 0.088066, , 
24.27, 0.087986, , 
24.30, 0.087897, , 
24.33, 0.087831, , 
24.36, 0.087856, , 
24.39, 0.087929, , 
24.42, 0.087875, , 
24.45, 0.087850, , 
24.48, 0.087904, , 
24.51, 0.087917, , 
24.54, 0.087875, , 
24.57, 0.087917, , 
24.60, 0.088028, , 
24.63, 0.088183, , 
24.66, 0.088265, , 
24.69, 0.088456, , 
24.72, 0.088652, , 
24.75, 0.088852, , 
24.78, 0.089039, , 
24.81, 0.089249, , 
24.84, 0.089572, , 
24.87, 0.089918, , 
24.90, 0.090254, , 
24.93, 0.090733, , 
24.96, 0.091228, , 
24.99, 0.091637, , 
25.02, 0.092065, , 
25.05, 0.092576, , 
25.08, 0.093404, , 
25.11, 0.094156, , 
25.14, 0.095136, , 
25.17, 0.095989, , 
25.20, 0.096715, , 
25.23, 0.098006, , 
25.26, 0.099259, , 
25.29, 0.100877, , 
25.32, 0.102428, , 
25.35, 0.104144, , 
25.38, 0.106069, , 
25.41, 0.108217, , 
25.44, 0.111049, , 
25.47, 0.113749, , 
25.50, 0.116673, , 
25.53, 0.120403, , 
25.56, 0.123997, , 
25.59, 0.127848, 8, 0.586
25.60, 0.128536, , 
25.62, 0.132098, , 
25.65, 0.136818, , 
25.68, 0.142858, , 
25.71, 0.148415, , 
25.74, 0.155450, , 
25.77, 0.161988, , 
25.80, 0.167786, , 
25.83, 0.176398, , 
25.86, 0.184305, , 
25.89, 0.194132, , 
25.92, 0.203093, , 
25.95, 0.212501, , 
25.98, 0.223932, , 
26.01, 0.232588, , 
26.04, 0.243329, , 
26.07, 0.256292, , 
26.10, 0.267797, , 
26.13, 0.281623, , 
26.16, 0.293712, , 
26.19, 0.308103, , 
26.22, 0.318564, , 
26.25, 0.331369, , 
26.28, 0.346474, , 
26.31, 0.359364, , 
26.34, 0.373632, , 
26.37, 0.387566, , 
26.40, 0.400511, , 
26.43, 0.413246, , 
26.46, 0.425835, , 
26.49, 0.440306, , 
26.52, 0.452391, , 
26.55, 0.464178, , 
26.58, 0.477522, , 
26.61, 0.488522, , 
26.64, 0.497448, , 
26.67, 0.509489, , 
26.70, 0.519461, , 
26.73, 0.530642, , 
26.76, 0.539692, , 
26.79, 0.549623, , 
26.82, 0.557690, , 
26.85, 0.564129, , 
26.88, 0.572537, , 
26.91, 0.579252, , 
26.94, 0.585466, , 
26.97, 0.592096, , 
27.00, 0.597339, , 
27.03, 0.603001, , 
27.06, 0.606728, , 
27.09, 0.610804, , 
27.12, 0.615038, , 
27.15, 0.618331, , 
27.18, 0.621712, , 
27.21, 0.624224, , 
27.24, 0.626349, , 
27.27, 0.628103, , 
27.30, 0.629680, , 
27.33, 0.631148, , 
27.36, 0.632049, , 
27.39, 0.632627, , 
27.42, 0.632998, , 
27.45, 0.633061, , 
27.48, 0.632842, , 
27.51, 0.632500, , 
27.54, 0.631945, , 
27.57, 0.631056, , 
27.60, 0.630019, , 
27.63, 0.628693, , 
27.66, 0.627681, , 
27.69, 0.626219, , 
27.72, 0.624164, , 
27.75, 0.622261, , 
27.78, 0.619926, , 
27.81, 0.617779, , 
27.84, 0.615514, , 
27.87, 0.613116, , 
27.90, 0.610645, , 
27.93, 0.607552, , 
27.96, 0.604799, , 
27.99, 0.602036, , 
28.02, 0.598750, , 
28.05, 0.595804, , 
28.08, 0.592752, , 
28.11, 0.589656, , 
28.14, 0.586497, , 
28.17, 0.582640, , 
28.20, 0.579306, , 
28.23, 0.575338, , 
28.26, 0.571890, , 
28.29, 0.568947, , 
28.32, 0.564741, , 
28.35, 0.561103, , 
28.38, 0.556827, , 
28.41, 0.553135, , 
28.44, 0.549373, , 
28.47, 0.544970, , 
28.50, 0.541751, , 
28.53, 0.537167, , 
28.56, 0.533180, , 
28.59, 0.529193, , 
28.62, 0.524498, , 
28.65, 0.520353, , 
28.68, 0.516248, , 
28.71, 0.511446, , 
28.74, 0.507322, , 
28.77, 0.503088, , 
28.79, 0.500268, 9, 0.585
28.80, 0.498879, , 
28.83, 0.493978, , 
28.86, 0.490457, , 
28.89, 0.485468, , 
28.92, 0.481062, , 
28.95, 0.476742, , 
28.98, 0.471727, , 
29.01, 0.467302, , 
29.04, 0.462189, , 
29.07, 0.458605, , 
29.10, 0.454396, , 
29.13, 0.449431, , 
29.16, 0.445203, , 
29.19, 0.440299, , 
29.22, 0.436106, , 
29.25, 0.431922, , 
29.28, 0.427729, , 
29.31, 0.423640, , 
29.34, 0.418927, , 
29.37, 0.414905, , 
29.40, 0.410927, , 
29.43, 0.406449, , 
29.47, 0.402604, , 
29.49, 0.398804, , 
29.52, 0.395026, , 
29.55, 0.391331, , 
29.58, 0.387017, , 
29.61, 0.383357, , 
29.64, 0.379240, , 
29.68, 0.375700, , 
29.70, 0.372785, , 
29.73, 0.368696, , 
29.76, 0.365283, , 
29.79, 0.361391, , 
29.82, 0.358124, , 
29.85, 0.354873, , 
29.88, 0.351672, , 
29.91, 0.348567, , 
29.94, 0.344910, , 
29.97, 0.341757, , 
30.00, 0.338706, , 
30.03, 0.335185, , 
30.06, 0.332111, , 
30.09, 0.328984, , 
30.12, 0.325964, , 
30.15, 0.323014, , 
30.18, 0.319610, , 
30.21, 0.316753, , 
30.24, 0.313511, , 
30.27, 0.310716, , 
30.30, 0.308407, , 
30.33, 0.305261, , 
30.36, 0.302530, , 
30.39, 0.299367, , 
30.42, 0.296665, , 
30.45, 0.294089, , 
30.48, 0.291168, , 
30.51, 0.289008, , 
30.54, 0.285988, , 
30.57, 0.283406, , 
30.60, 0.280916, , 
30.63, 0.278017, , 
30.66, 0.275498, , 
30.69, 0.272618, , 
30.72, 0.270588, , 
30.75, 0.268159, , 
30.78, 0.265389, , 
30.81, 0.263064, , 
30.84, 0.260298, , 
30.87, 0.257923, , 
30.90, 0.255506, , 
30.93, 0.253114, , 
30.96, 0.250770, , 
30.99, 0.247976, , 
31.02, 0.245660, , 
31.05, 0.243392, , 
31.08, 0.240744, , 
31.11, 0.238403, , 
31.14, 0.236052, , 
31.17, 0.233806, , 
31.20, 0.231634, , 
31.23, 0.229131, , 
31.26, 0.227015, , 
31.29, 0.224621, , 
31.32, 0.222905, , 
31.35, 0.220859, , 
31.38, 0.218477, , 
31.41, 0.216507, , 
31.44, 0.214217, , 
31.47, 0.212231, , 
31.50, 0.210239, , 
31.53, 0.208272, , 
31.56, 0.206344, , 
31.59, 0.204051, , 
31.62, 0.202116, , 
31.65, 0.200251, , 
31.68, 0.198148, , 
31.71, 0.196333, , 
31.74, 0.194433, , 
31.77, 0.192594, , 
31.80, 0.190763, , 
31.83, 0.188625, , 
31.86, 0.186814, , 
31.89, 0.184762, , 
31.92, 0.183017, , 
31.95, 0.181549, , 
31.98, 0.179497, , 
31.99, 0.178903, 10, 0.586
32.01, 0.177777, , 
32.04, 0.175830, , 
32.07, 0.174165, , 
32.10, 0.172515, , 
32.13, 0.170752, , 
32.16, 0.169429, , 
32.19, 0.167583, , 
32.22, 0.166098, , 
32.25, 0.164741, , 
32.28, 0.163095, , 
32.31, 0.161607, , 
32.34, 0.159957, , 
32.37, 0.158803, , 
32.40, 0.157433, , 
32.43, 0.155843, , 
32.46, 0.154489, , 
32.49, 0.153043, , 
32.52, 0.151825, , 
32.55, 0.150588, , 
32.58, 0.149379, , 
32.61, 0.148183, , 
32.64, 0.146756, , 
32.67, 0.145557, , 
32.70, 0.144409, , 
32.73, 0.143016, , 
32.76, 0.141846, , 
32.79, 0.140659, , 
32.82, 0.139457, , 
32.85, 0.138347, , 
32.88, 0.137088, , 
32.91, 0.135994, , 
32.94, 0.134779, , 
32.98, 0.133729, , 
33.00, 0.132815, , 
33.03, 0.131575, , 
33.06, 0.130550, , 
33.09, 0.129526, , 
33.12, 0.128336, , 
33.15, 0.127353, , 
33.19, 0.126170, , 
33.21, 0.125307, , 
33.24, 0.124270, , 
33.27, 0.123169, , 
33.30, 0.122297, , 
33.33, 0.121273, , 
33.36, 0.120375, , 
33.39, 0.119471, , 
33.42, 0.118618, , 
33.45, 0.117726, , 
33.48, 0.116673, , 
33.51, 0.115801, , 
33.54, 0.114979, , 
33.57, 0.113996, , 
33.60, 0.113311, , 
33.63, 0.112429, , 
33.66, 0.111693, , 
33.69, 0.110881, , 
33.72, 0.109869, , 
33.75, 0.109042, , 
33.78, 0.108268, , 
33.81, 0.107640, , 
33.84, 0.106809, , 
33.87, 0.105882, , 
33.90, 0.105137, , 
33.93, 0.104277, , 
33.96, 0.103567, , 
33.99, 0.102907, , 
34.02, 0.102260, , 
34.05, 0.101616, , 
34.08, 0.100833, , 
34.11, 0.100230, , 
34.14, 0.099735, , 
34.17, 0.099171, , 
34.20, 0.098647, , 
34.23, 0.098083, , 
34.26, 0.097556, , 
34.29, 0.097045, , 
34.32, 0.096424, , 
34.35, 0.095945, , 
34.38, 0.095485, , 
34.41, 0.095018, , 
34.44, 0.094625, , 
34.47, 0.094105, , 
34.50, 0.093683, , 
34.53, 0.093163, , 
34.56, 0.092709, , 
34.59, 0.092265, , 
34.62, 0.091780, , 
34.65, 0.091399, , 
34.68, 0.090857, , 
34.71, 0.090432, , 
34.74, 0.090023, , 
34.77, 0.089550, , 
34.80, 0.089195, , 
34.84, 0.088878, , 
34.86, 0.088586, , 
34.89, 0.088167, , 
34.92, 0.087672, , 
34.95, 0.087384, , 
34.98, 0.087044, , 
35.01, 0.086689, , 
35.04, 0.086267, , 
35.07, 0.085982, , 
35.10, 0.085671, , 
35.13, 0.085338, , 
35.16, 0.085109, , 
35.19, 0.084938, 11, 0.585
35.20, 0.084906, , 
35.22, 0.084672, , 
35.25, 0.084440, , 
35.28, 0.084221, , 
35.31, 0.084161, , 
35.34, 0.084025, , 
35.37, 0.083736, , 
35.40, 0.083574, , 
35.43, 0.083450, , 
35.46, 0.083352, , 
35.49, 0.083152, , 
35.52, 0.083035, , 
35.55, 0.082978, , 
35.58, 0.082962, , 
35.61, 0.082826, , 
35.64, 0.082632, , 
35.67, 0.082594, , 
35.70, 0.082540, , 
35.73, 0.082461, , 
35.76, 0.082429, , 
35.79, 0.082359, , 
35.82, 0.082198, , 
35.85, 0.082052, , 
35.88, 0.081979, , 
35.91, 0.081985, , 
35.94, 0.081995, , 
35.97, 0.081925, , 
36.00, 0.081896, , 
36.03, 0.081922, , 
36.06, 0.081947, , 
36.09, 0.081918, , 
36.12, 0.081896, , 
36.15, 0.081947, , 
36.18, 0.081928, , 
36.21, 0.081934, , 
36.24, 0.081925, , 
36.27, 0.081934, , 
36.30, 0.081944, , 
36.33, 0.081912, , 
36.36, 0.081925, , 
36.39, 0.081985, , 
36.42, 0.082042, , 
36.45, 0.082156, , 
36.48, 0.082293, , 
36.51, 0.082369, , 
36.54, 0.082378, , 
36.57, 0.082375, , 
36.60, 0.082391, , 
36.63, 0.082413, , 
36.66, 0.082410, , 
36.69, 0.082372, , 
36.72, 0.082258, , 
36.76, 0.082134, , 
36.78, 0.082086, , 
36.81, 0.081995, , 
36.84, 0.081947, , 
36.87, 0.081934, , 
36.90, 0.081922, , 
36.93, 0.081915, , 
36.96, 0.081906, , 
36.99, 0.081893, , 
37.02, 0.081903, , 
37.05, 0.081887, , 
37.08, 0.081934, , 
37.11, 0.081950, , 
37.14, 0.081915, , 
37.17, 0.081899, , 
37.20, 0.081893, , 
37.23, 0.081925, , 
37.26, 0.081918, , 
37.29, 0.081893, , 
37.32, 0.081941, , 
37.35, 0.081966, , 
37.38, 0.081918, , 
37.41, 0.081871, , 
37.44, 0.081887, , 
37.47, 0.081826, , 
37.50, 0.081611, , 
37.53, 0.081516, , 
37.56, 0.081465, , 
37.59, 0.081449, , 
37.62, 0.081354, , 
37.65, 0.081259, , 
37.68, 0.081154, , 
37.71, 0.081052, , 
37.74, 0.080954, , 
37.77, 0.080922, , 
37.80, 0.080859, , 
37.83, 0.080700, , 
37.86, 0.080545, , 
37.89, 0.080478, , 
37.92, 0.080424, , 
37.95, 0.080263, , 
37.98, 0.080088, , 
38.01, 0.079990, , 
38.04, 0.079980, , 
38.07, 0.079911, , 
38.10, 0.079774, , 
38.13, 0.079657, , 
38.16, 0.079555, , 
38.20, 0.079403, , 
38.22, 0.079244, , 
38.25, 0.079118, , 
38.28, 0.079095, , 
38.31, 0.078937, , 
38.34, 0.078765, , 
38.37, 0.078642, , 
38.39, 0.078604, 12, 0.585
38.40, 0.078572, , 
38.43, 0.078388, , 
38.46, 0.078191, , 
38.49, 0.077982, , 
38.52, 0.077827, , 
38.55, 0.077551, , 
38.58, 0.077335, , 
38.61, 0.077176, , 
38.64, 0.077094, , 
38.67, 0.076891, , 
38.70, 0.076526, , 
38.73, 0.076314, , 
38.76, 0.076025, , 
38.79, 0.075809, , 
38.82, 0.075594, , 
38.85, 0.075391, , 
38.88, 0.075207, , 
38.91, 0.074962, , 
38.94, 0.074693, , 
38.97, 0.074487, , 
39.00, 0.074328, , 
39.03, 0.074049, , 
39.06, 0.073789, , 
39.09, 0.073605, , 
39.12, 0.073392, , 
39.15, 0.073154, , 
39.18, 0.072869, , 
39.21, 0.072691, , 
39.24, 0.072425, , 
39.27, 0.072158, , 
39.30, 0.071946, , 
39.33, 0.071714, , 
39.36, 0.071467, , 
39.39, 0.071080, , 
39.42, 0.070845, , 
39.45, 0.070591, , 
39.48, 0.070198, , 
39.51, 0.069935, , 
39.54, 0.069665, , 
39.57, 0.069440, , 
39.60, 0.069196, , 
39.63, 0.068812, , 
39.66, 0.068530, , 
39.69, 0.068222, , 
39.72, 0.068035, , 
39.75, 0.067816, , 
39.78, 0.067550, , 
39.81, 0.067356, , 
39.84, 0.067061, , 
39.87, 0.066833, , 
39.90, 0.066626, , 
39.93, 0.066420, , 
39.96, 0.066163, , 
39.99, 0.065881, , 
40.02, 0.065770, , 
40.05, 0.065627, , 
40.08, 0.065370, , 
40.11, 0.065218, , 
40.14, 0.065047, , 
40.17, 0.064834, , 
40.20, 0.064606, , 
40.23, 0.064374, , 
40.26, 0.064229, , 
40.29, 0.064079, , 
40.32, 0.063873, , 
40.35, 0.063769, , 
40.38, 0.063591, , 
40.41, 0.063467, , 
40.44, 0.063226, , 
40.47, 0.062988, , 
40.50, 0.062842, , 
40.54, 0.062693, , 
40.56, 0.062506, , 
40.59, 0.062265, , 
40.62, 0.062103, , 
40.65, 0.061938, , 
40.68, 0.061742, , 
40.71, 0.061574, , 
40.75, 0.061431, , 
40.77, 0.061345, , 
40.80, 0.061225, , 
40.83, 0.061117, , 
40.86, 0.060993, , 
40.89, 0.060812, , 
40.92, 0.060727, , 
40.95, 0.060692, , 
40.98, 0.060581, , 
41.01, 0.060422, , 
41.04, 0.060305, , 
41.07, 0.060238, , 
41.10, 0.060184, , 
41.13, 0.060127, , 
41.17, 0.059969, , 
41.19, 0.059823, , 
41.22, 0.059753, , 
41.25, 0.059756, , 
41.28, 0.059658, , 
41.31, 0.059601, , 
41.34, 0.059537, , 
41.37, 0.059448, , 
41.40, 0.059306, , 
41.43, 0.059201, , 
41.46, 0.059195, , 
41.49, 0.059172, , 
41.52, 0.059138, , 
41.55, 0.059119, , 
41.58, 0.058992, , 
41.59, 0.058941, 13, 0.586
41.61, 0.058855, , 
41.64, 0.058795, , 
41.67, 0.058754, , 
41.70, 0.058763, , 
41.73, 0.058703, , 
41.76, 0.058630, , 
41.79, 0.058655, , 
41.82, 0.058690, , 
41.85, 0.058684, , 
41.88, 0.058640, , 
41.91, 0.058655, , 
41.94, 0.058674, , 
41.97, 0.058646, , 
42.00, 0.058627, , 
42.03, 0.058621, , 
42.06, 0.058674, , 
42.09, 0.058646, , 
42.12, 0.058621, , 
42.15, 0.058649, , 
42.18, 0.058684, , 
42.21, 0.058643, , 
42.24, 0.058630, , 
42.27, 0.058659, , 
42.30, 0.058706, , 
42.33, 0.058713, , 
42.36, 0.058846, , 
42.39, 0.058988, , 
42.42, 0.059122, , 
42.45, 0.059099, , 
42.48, 0.059109, , 
42.51, 0.059131, , 
42.54, 0.059150, , 
42.57, 0.059207, , 
42.61, 0.059350, , 
42.63, 0.059474, , 
42.66, 0.059569, , 
42.69, 0.059588, , 
42.72, 0.059629, , 
42.75, 0.059747, , 
42.78, 0.059927, , 
42.82, 0.059972, , 
42.84, 0.060035, , 
42.87, 0.060184, , 
42.90, 0.060286, , 
42.93, 0.060438, , 
42.96, 0.060565, , 
42.99, 0.060724, , 
43.02, 0.060901, , 
43.05, 0.061006, , 
43.08, 0.061174, , 
43.11, 0.061367, , 
43.14, 0.061504, , 
43.17, 0.061666, , 
43.20, 0.061834, , 
43.23, 0.061932, , 
43.26, 0.062072, , 
43.29, 0.062249, , 
43.32, 0.062443, , 
43.35, 0.062541, , 
43.38, 0.062639, , 
43.41, 0.062776, , 
43.44, 0.062934, , 
43.47, 0.063144, , 
43.50, 0.063299, , 
43.53, 0.063467, , 
43.56, 0.063619, , 
43.59, 0.063857, , 
43.62, 0.064083, , 
43.65, 0.064190, , 
43.68, 0.064390, , 
43.71, 0.064600, , 
43.74, 0.064742, , 
43.77, 0.064930, , 
43.80, 0.065133, , 
43.83, 0.065358, , 
43.86, 0.065459, , 
43.89, 0.065596, , 
43.92, 0.065818, , 
43.95, 0.066005, , 
43.98, 0.066148, , 
44.01, 0.066274, , 
44.04, 0.066484, , 
44.07, 0.066725, , 
44.10, 0.066874, , 
44.13, 0.066937, , 
44.16, 0.067026, , 
44.19, 0.067178, , 
44.22, 0.067350, , 
44.26, 0.067439, , 
44.28, 0.067635, , 
44.31, 0.067813, , 
44.34, 0.067936, , 
44.37, 0.068006, , 
44.40, 0.068184, , 
44.43, 0.068339, , 
44.47, 0.068374, , 
44.49, 0.068425, , 
44.52, 0.068644, , 
44.55, 0.068825, , 
44.58, 0.068875, , 
44.61, 0.068980, , 
44.64, 0.069135, , 
44.67, 0.069266, , 
44.70, 0.069345, , 
44.73, 0.069450, , 
44.76, 0.069497, , 
44.79, 0.069494, 14, 0.584
44.79, 0.069503, , 
44.82, 0.069576, , 
44.85, 0.069713, , 
44.88, 0.069840, , 
44.91, 0.069954, , 
44.94, 0.069992, , 
44.97, 0.070008, , 
45.00, 0.070039, , 
45.03, 0.070039, , 
45.06, 0.069998, , 
45.09, 0.070008, , 
45.12, 0.070011, , 
45.15, 0.070001, , 
45.18, 0.069979, , 
45.21, 0.070027, , 
45.24, 0.070068, , 
45.27, 0.070036, , 
45.30, 0.069919, , 
45.33, 0.069722, , 
45.36, 0.069684, , 
45.39, 0.069624, , 
45.42, 0.069554, , 
45.45, 0.069472, , 
45.48, 0.069319, , 
45.51, 0.069218, , 
45.54, 0.069129, , 
45.57, 0.069056, , 
45.60, 0.068939, , 
45.63, 0.068812, , 
45.66, 0.068625, , 
45.69, 0.068495, , 
45.72, 0.068403, , 
45.75, 0.068247, , 
45.78, 0.068022, , 
45.81, 0.067825, , 
45.84, 0.067708, , 
45.87, 0.067445, , 
45.90, 0.067267, , 
45.93, 0.067156, , 
45.96, 0.066982, , 
45.99, 0.066810, , 
46.02, 0.066569, , 
46.05, 0.066382, , 
46.08, 0.066182, , 
46.11, 0.065894, , 
46.14, 0.065637, , 
46.17, 0.065434, , 
46.20, 0.065244, , 
46.23, 0.065021, , 
46.26, 0.064774, , 
46.29, 0.064565, , 
46.32, 0.064362, , 
46.35, 0.064083, , 
46.38, 0.063886, , 
46.41, 0.063677, , 
46.44, 0.063477, , 
46.47, 0.063239, , 
46.50, 0.063045, , 
46.53, 0.062880, , 
46.56, 0.062722, , 
46.59, 0.062528, , 
46.62, 0.062309, , 
46.65, 0.062189, , 
46.68, 0.062040, , 
46.71, 0.061824, , 
46.74, 0.061656, , 
46.77, 0.061548, , 
46.80, 0.061390, , 
46.83, 0.061139, , 
46.86, 0.060914, , 
46.89, 0.060806, , 
46.92, 0.060695, , 
46.95, 0.060568, , 
46.99, 0.060416, , 
47.01, 0.060273, , 
47.04, 0.060216, , 
47.07, 0.060029, , 
47.10, 0.059851, , 
47.13, 0.059734, , 
47.16, 0.059642, , 
47.19, 0.059566, , 
47.22, 0.059445, , 
47.25, 0.059296, , 
47.28, 0.059185, , 
47.31, 0.059119, , 
47.34, 0.059106, , 
47.37, 0.059014, , 
47.40, 0.058858, , 
47.43, 0.058709, , 
47.46, 0.058659, , 
47.49, 0.058652, , 
47.52, 0.058643, , 
47.55, 0.058579, , 
47.58, 0.058595, , 
47.61, 0.058617, , 
47.64, 0.058614, , 
47.67, 0.058605, , 
47.70, 0.058633, , 
47.73, 0.058649, , 
47.76, 0.058601, , 
47.79, 0.058605, , 
47.82, 0.058617, , 
47.85, 0.058621, , 
47.88, 0.058649, , 
47.91, 0.058605, , 
47.94, 0.058640, , 
47.97, 0.058678, , 
47.98, 0.058687, 15, 0.584
48.00, 0.058706, , 
48.03, 0.058763, , 
48.06, 0.058950, , 
48.09, 0.059068, , 
48.12, 0.059090, , 
48.15, 0.059103, , 
48.18, 0.059141, , 
48.21, 0.059166, , 
48.24, 0.059141, , 
48.27, 0.059115, , 
48.30, 0.059125, , 
48.33, 0.059169, , 
48.36, 0.059112, , 
48.39, 0.059074, , 
48.42, 0.059141, , 
48.45, 0.059261, , 
48.48, 0.059398, , 
48.51, 0.059502, , 
48.54, 0.059559, , 
48.57, 0.059591, , 
48.60, 0.059683, , 
48.64, 0.059810, , 
48.66, 0.059981, , 
48.69, 0.060051, , 
48.72, 0.060095, , 
48.75, 0.060245, , 
48.78, 0.060409, , 
48.81, 0.060552, , 
48.85, 0.060676, , 
48.87, 0.060781, , 
48.90, 0.060968, , 
48.93, 0.061072, , 
48.96, 0.061126, , 
48.99, 0.061234, , 
49.02, 0.061431, , 
49.05, 0.061564, , 
49.08, 0.061650, , 
49.11, 0.061859, , 
49.14, 0.061973, , 
49.17, 0.062065, , 
49.20, 0.062186, , 
49.23, 0.062306, , 
49.26, 0.062421, , 
49.29, 0.062570, , 
49.32, 0.062709, , 
49.35, 0.062890, , 
49.38, 0.063064, , 
49.41, 0.063198, , 
49.44, 0.063321, , 
49.47, 0.063474, , 
49.50, 0.063683, , 
49.53, 0.063794, , 
49.56, 0.063911, , 
49.59, 0.064108, , 
49.62, 0.064308, , 
49.65, 0.064444, , 
49.68, 0.064562, , 
49.71, 0.064730, , 
49.74, 0.064888, , 
49.77, 0.065002, , 
49.80, 0.065161, , 
49.83, 0.065345, , 
49.86, 0.065497, , 
49.89, 0.065529, , 
49.92, 0.065640, , 
49.95, 0.065805, , 
49.98, 0.065897, , 
50.01, 0.065970, , 
50.04, 0.066081, , 
50.07, 0.066220, , 
50.10, 0.066395, , 
50.13, 0.066446, , 
50.16, 0.066471, , 
50.19, 0.066554, , 
50.22, 0.066687, , 
50.25, 0.066782, , 
50.28, 0.066912, , 
50.31, 0.066991, , 
50.34, 0.067055, , 
50.37, 0.067055, , 
50.40, 0.067118, , 
50.43, 0.067236, , 
50.46, 0.067366, , 
50.49, 0.067407, , 
50.52, 0.067454, , 
50.55, 0.067515, , 
50.58, 0.067537, , 
50.61, 0.067537, , 
50.64, 0.067521, , 
50.67, 0.067502, , 
50.70, 0.067527, , 
50.73, 0.067518, , 
50.76, 0.067477, , 
50.79, 0.067518, , 
50.82, 0.067550, , 
50.85, 0.067505, , 
50.88, 0.067537, , 
50.91, 0.067553, , 
50.94, 0.067556, , 
50.97, 0.067508, , 
51.00, 0.067404, , 
51.03, 0.067302, , 
51.06, 0.067191, , 
51.09, 0.067096, , 
51.12, 0.067039, , 
51.16, 0.067010, , 
51.18, 0.066918, , 
51.19, 0.066861, 16, 0.588
51.21, 0.066744, , 
51.24, 0.066623, , 
51.27, 0.066592, , 
51.30, 0.066500, , 
51.33, 0.066287, , 
51.37, 0.066214, , 
51.39, 0.066135, , 
51.42, 0.066014, , 
51.45, 0.065878, , 
51.48, 0.065732, , 
51.51, 0.065681, , 
51.54, 0.065589, , 
51.57, 0.065447, , 
51.60, 0.065310, , 
51.63, 0.065218, , 
51.66, 0.065050, , 
51.69, 0.064857, , 
51.72, 0.064711, , 
51.75, 0.064596, , 
51.78, 0.064387, , 
51.81, 0.064165, , 
51.84, 0.064000, , 
51.87, 0.063845, , 
51.90, 0.063683, , 
51.93, 0.063458, , 
51.96, 0.063325, , 
51.99, 0.063207, , 
52.02, 0.063023, , 
52.05, 0.062871, , 
52.08, 0.062709, , 
52.11, 0.062589, , 
52.14, 0.062446, , 
52.17, 0.062265, , 
52.20, 0.062186, , 
52.23, 0.062106, , 
52.26, 0.061983, , 
52.29, 0.061853, , 
52.32, 0.061716, , 
52.35, 0.061723, , 
52.38, 0.061672, , 
52.41, 0.061621, , 
52.44, 0.061608, , 
52.47, 0.061558, , 
52.50, 0.061402, , 
52.53, 0.061263, , 
52.56, 0.061206, , 
52.59, 0.061196, , 
52.62, 0.061152, , 
52.65, 0.061139, , 
52.68, 0.061126, , 
52.71, 0.061145, , 
52.74, 0.061161, , 
52.77, 0.061088, , 
52.80, 0.061126, , 
52.83, 0.061139, , 
52.86, 0.061123, , 
52.89, 0.061145, , 
52.92, 0.061149, , 
52.95, 0.061117, , 
52.98, 0.061110, , 
53.01, 0.061123, , 
53.04, 0.061139, , 
53.07, 0.061152, , 
53.10, 0.061126, , 
53.13, 0.061085, , 
53.16, 0.061136, , 
53.19, 0.061244, , 
53.22, 0.061313, , 
53.25, 0.061456, , 
53.28, 0.061548, , 
53.31, 0.061615, , 
53.34, 0.061608, , 
53.37, 0.061586, , 
53.40, 0.061618, , 
53.43, 0.061742, , 
53.46, 0.061872, , 
53.49, 0.062034, , 
53.52, 0.062091, , 
53.55, 0.062110, , 
53.58, 0.062122, , 
53.61, 0.062154, , 
53.64, 0.062281, , 
53.67, 0.062433, , 
53.70, 0.062509, , 
53.73, 0.062557, , 
53.76, 0.062589, , 
53.79, 0.062665, , 
53.82, 0.062715, , 
53.85, 0.062814, , 
53.88, 0.062995, , 
53.91, 0.063068, , 
53.94, 0.063042, , 
53.97, 0.063058, , 
54.00, 0.063150, , 
54.03, 0.063283, , 
54.06, 0.063344, , 
54.09, 0.063426, , 
54.12, 0.063518, , 
54.15, 0.063585, , 
54.18, 0.063686, , 
54.21, 0.063797, , 
54.25, 0.063927, , 
54.27, 0.063987, , 
54.30, 0.064079, , 
54.33, 0.064244, , 
54.36, 0.064378, , 
54.39, 0.064444, 17, 0.585
54.39, 0.064454, , 
54.42, 0.064562, , 
54.45, 0.064688, , 
54.48, 0.064888, , 
54.51, 0.064949, , 
54.54, 0.064993, , 
54.57, 0.065012, , 
54.60, 0.065098, , 
54.63, 0.065221, , 
54.66, 0.065323, , 
54.69, 0.065427, , 
54.72, 0.065504, , 
54.75, 0.065481, , 
54.78, 0.065488, , 
54.81, 0.065577, , 
54.84, 0.065707, , 
54.87, 0.065767, , 
54.90, 0.065834, , 
54.93, 0.065913, , 
54.96, 0.065995, , 
54.99, 0.066008, , 
55.02, 0.065989, , 
55.05, 0.065986, , 
55.08, 0.066017, , 
55.11, 0.066024, , 
55.14, 0.066002, , 
55.17, 0.066037, , 
55.20, 0.066024, , 
55.23, 0.065979, , 
55.26, 0.065989, , 
55.29, 0.066024, , 
55.32, 0.066030, , 
55.35, 0.065995, , 
55.38, 0.065951, , 
55.41, 0.065979, , 
55.44, 0.066033, , 
55.47, 0.066008, , 
55.50, 0.065976, , 
55.53, 0.066027, , 
55.56, 0.066027, , 
55.59, 0.065992, , 
55.62, 0.066017, , 
55.65, 0.066040, , 
55.68, 0.066046, , 
55.71, 0.066030, , 
55.74, 0.066030, , 
55.77, 0.066059, , 
55.80, 0.066037, , 
55.83, 0.065948, , 
55.86, 0.065834, , 
55.90, 0.065707, , 
55.92, 0.065631, , 
55.95, 0.065596, , 
55.98, 0.065523, , 
56.01, 0.065564, , 
56.04, 0.065545, , 
56.07, 0.065431, , 
56.11, 0.065259, , 
56.13, 0.065186, , 
56.16, 0.065139, , 
56.19, 0.065069, , 
56.22, 0.065009, , 
56.25, 0.065028, , 
56.28, 0.065053, , 
56.31, 0.064961, , 
56.34, 0.064752, , 
56.37, 0.064707, , 
56.40, 0.064654, , 
56.43, 0.064590, , 
56.46, 0.064536, , 
56.49, 0.064577, , 
56.52, 0.064565, , 
56.55, 0.064387, , 
56.58, 0.064219, , 
56.61, 0.064181, , 
56.64, 0.064124, , 
56.67, 0.064064, , 
56.70, 0.063962, , 
56.73, 0.063842, , 
56.76, 0.063753, , 
56.79, 0.063626, , 
56.82, 0.063604, , 
56.85, 0.063616, , 
56.88, 0.063610, , 
56.91, 0.063489, , 
56.94, 0.063369, , 
56.97, 0.063283, , 
57.00, 0.063207, , 
57.03, 0.063144, , 
57.06, 0.063112, , 
57.09, 0.063131, , 
57.12, 0.063102, , 
57.15, 0.063074, , 
57.18, 0.063083, , 
57.21, 0.063096, , 
57.24, 0.063077, , 
57.27, 0.063061, , 
57.30, 0.063074, , 
57.33, 0.063055, , 
57.36, 0.063039, , 
57.39, 0.063042, , 
57.42, 0.063074, , 
57.45, 0.063109, , 
57.48, 0.063083, , 
57.51, 0.063004, , 
57.54, 0.063049, , 
57.57, 0.063068, , 
57.59, 0.063071, 18, 0.585
57.60, 0.063074, , 
57.63, 0.063052, , 
57.66, 0.063090, , 
57.69, 0.063093, , 
57.72, 0.063071, , 
57.76, 0.063061, , 
57.78, 0.063163, , 
57.81, 0.063309, , 
57.84, 0.063420, , 
57.87, 0.063448, , 
57.90, 0.063512, , 
57.93, 0.063518, , 
57.96, 0.063518, , 
57.99, 0.063553, , 
58.02, 0.063715, , 
58.05, 0.063870, , 
58.08, 0.063965, , 
58.11, 0.063968, , 
58.14, 0.064035, , 
58.17, 0.064124, , 
58.20, 0.064222, , 
58.23, 0.064368, , 
58.26, 0.064501, , 
58.29, 0.064574, , 
58.32, 0.064609, , 
58.35, 0.064635, , 
58.38, 0.064755, , 
58.41, 0.064891, , 
58.44, 0.064952, , 
58.47, 0.065056, , 
58.50, 0.065129, , 
58.53, 0.065123, , 
58.56, 0.065139, , 
58.59, 0.065174, , 
58.62, 0.065364, , 
58.65, 0.065510, , 
58.68, 0.065551, , 
58.71, 0.065608, , 
58.74, 0.065688, , 
58.77, 0.065703, , 
58.80, 0.065669, , 
58.83, 0.065722, , 
58.86, 0.065821, , 
58.89, 0.065900, , 
58.92, 0.066033, , 
58.95, 0.066148, , 
58.99, 0.066189, , 
59.01, 0.066195, , 
59.04, 0.066236, , 
59.07, 0.066249, , 
59.10, 0.066255, , 
59.13, 0.066240, , 
59.16, 0.066211, , 
59.19, 0.066230, , 
59.22, 0.066271, , 
59.25, 0.066262, , 
59.28, 0.066233, , 
59.31, 0.066249, , 
59.34, 0.066303, , 
59.37, 0.066249, , 
59.41, 0.066262, , 
59.43, 0.066268, , 
59.46, 0.066265, , 
59.49, 0.066233, , 
59.52, 0.066236, , 
59.55, 0.066246, , 
59.58, 0.066236, , 
59.61, 0.066246, , 
59.64, 0.066224, , 
59.67, 0.066246, , 
59.70, 0.066255, , 
59.73, 0.066217, , 
59.76, 0.066179, , 
59.79, 0.066090, , 
59.82, 0.065929, , 
59.85, 0.065786, , 
59.88, 0.065719, , 
59.91, 0.065726, , 
59.94, 0.065726, , 
59.97, 0.065662, , 
60.00, 0.065656, , 
60.03, 0.065694, , 
60.06, 0.065665, , 
60.09, 0.065608, , 
60.12, 0.065472, , 
60.15, 0.065339, , 
60.18, 0.065205, , 
60.21, 0.065161, , 
60.24, 0.065139, , 
60.27, 0.065152, , 
60.30, 0.065161, , 
60.33, 0.065094, , 
60.36, 0.065120, , 
60.39, 0.065120, , 
60.42, 0.065098, , 
60.45, 0.065098, , 
60.48, 0.065110, , 
60.51, 0.065104, , 
60.54, 0.065098, , 
60.57, 0.065072, , 
60.60, 0.064974, , 
60.64, 0.064860, , 
60.66, 0.064758, , 
60.69, 0.064669, , 
60.72, 0.064644, , 
60.75, 0.064638, , 
60.78, 0.064615, 19, 0.585
60.79, 0.064612, , 
60.81, 0.064581, , 
60.84, 0.064600, , 
60.87, 0.064635, , 
60.90, 0.064635, , 
60.93, 0.064590, , 
60.96, 0.064603, , 
60.99, 0.064612, , 
61.02, 0.064669, , 
61.05, 0.064726, , 
61.08, 0.064860, , 
61.11, 0.064996, , 
61.14, 0.065037, , 
61.17, 0.064999, , 
61.20, 0.065021, , 
61.23, 0.065075, , 
61.26, 0.065047, , 
61.29, 0.065060, , 
61.32, 0.065174, , 
61.35, 0.065304, , 
61.38, 0.065427, , 
61.41, 0.065475, , 
61.44, 0.065519, , 
61.47, 0.065545, , 
61.50, 0.065532, , 
61.53, 0.065507, , 
61.56, 0.065554, , 
61.59, 0.065710, , 
61.62, 0.065872, , 
61.65, 0.065932, , 
61.68, 0.066008, , 
61.71, 0.066033, , 
61.74, 0.066005, , 
61.77, 0.066014, , 
61.80, 0.066040, , 
61.83, 0.066046, , 
61.86, 0.066052, , 
61.89, 0.066071, , 
61.92, 0.066211, , 
61.95, 0.066312, , 
61.98, 0.066433, , 
62.01, 0.066503, , 
62.04, 0.066522, , 
62.07, 0.066519, , 
62.10, 0.066525, , 
62.13, 0.066515, , 
62.16, 0.066576, , 
62.19, 0.066639, , 
62.22, 0.066753, , 
62.25, 0.066909, , 
62.28, 0.067013, , 
62.31, 0.067026, , 
62.34, 0.067023, , 
62.37, 0.067042, , 
62.40, 0.067093, , 
62.43, 0.067096, , 
62.46, 0.067102, , 
62.49, 0.067096, , 
62.52, 0.067134, , 
62.55, 0.067102, , 
62.58, 0.067083, , 
62.61, 0.067061, , 
62.64, 0.066963, , 
62.67, 0.066801, , 
62.70, 0.066703, , 
62.73, 0.066655, , 
62.76, 0.066636, , 
62.79, 0.066611, , 
62.82, 0.066582, , 
62.85, 0.066614, , 
62.88, 0.066614, , 
62.91, 0.066601, , 
62.94, 0.066598, , 
62.97, 0.066607, , 
63.00, 0.066630, , 
63.03, 0.066595, , 
63.06, 0.066547, , 
63.09, 0.066443, , 
63.12, 0.066328, , 
63.15, 0.066233, , 
63.18, 0.066170, , 
63.21, 0.066141, , 
63.24, 0.066122, , 
63.27, 0.066062, , 
63.30, 0.066071, , 
63.33, 0.066100, , 
63.36, 0.066094, , 
63.39, 0.066062, , 
63.42, 0.066043, , 
63.45, 0.066103, , 
63.48, 0.066109, , 
63.51, 0.066094, , 
63.54, 0.066071, , 
63.57, 0.066081, , 
63.60, 0.066106, , 
63.63, 0.066081, , 
63.66, 0.066100, , 
63.69, 0.066113, , 
63.72, 0.066135, , 
63.75, 0.066109, , 
63.78, 0.066116, , 
63.81, 0.066144, , 
63.84, 0.066138, , 
63.87, 0.066100, , 
63.90, 0.066167, , 
63.93, 0.066176, , 
63.96, 0.066157, , 
63.99, 0.066141, 20, 0.587
64.00, 0.066151, , 
64.02, 0.066157, , 
64.05, 0.066192, , 
64.08, 0.066201, , 
64.11, 0.066167, , 
64.14, 0.066167, , 
64.17, 0.066186, , 
64.20, 0.066176, , 
64.23, 0.066132, , 
64.26, 0.066128, , 
64.29, 0.066160, , 
64.32, 0.066154, , 
64.35, 0.066132, , 
64.38, 0.066128, , 
64.41, 0.066176, , 
64.44, 0.066144, , 
64.47, 0.066116, , 
64.50, 0.066116, , 
64.53, 0.066167, , 
64.56, 0.066148, , 
64.59, 0.066122, , 
64.62, 0.066138, , 
64.65, 0.066170, , 
64.68, 0.066157, , 
64.71, 0.066109, , 
64.74, 0.066157, , 
64.77, 0.066271, , 
64.80, 0.066404, , 
64.84, 0.066496, , 
64.86, 0.066560, , 
64.89, 0.066595, , 
64.92, 0.066585, , 
64.95, 0.066582, , 
64.98, 0.066585, , 
65.01, 0.066620, , 
65.05, 0.066579, , 
65.07, 0.066582, , 
65.10, 0.066607, , 
65.13, 0.066614, , 
65.16, 0.066642, , 
65.19, 0.066623, , 
65.22, 0.066642, , 
65.25, 0.066642, , 
65.28, 0.066630, , 
65.31, 0.066601, , 
65.34, 0.066563, , 
65.37, 0.066420, , 
65.40, 0.066243, , 
65.43, 0.066189, , 
65.46, 0.066167, , 
65.49, 0.066154, , 
65.52, 0.066094, , 
65.55, 0.066065, , 
65.58, 0.066138, , 
65.61, 0.066132, , 
65.64, 0.066109, , 
65.67, 0.066122, , 
65.70, 0.066125, , 
65.73, 0.066122, , 
65.76, 0.066109, , 
65.79, 0.066106, , 
65.82, 0.066100, , 
65.85, 0.066125, , 
65.88, 0.066157, , 
65.91, 0.066113, , 
65.94, 0.066071, , 
65.97, 0.065929, , 
66.00, 0.065738, , 
66.03, 0.065681, , 
66.06, 0.065662, , 
66.09, 0.065675, , 
66.12, 0.065650, , 
66.15, 0.065627, , 
66.18, 0.065662, , 
66.21, 0.065672, , 
66.24, 0.065602, , 
66.27, 0.065599, , 
66.30, 0.065646, , 
66.33, 0.065640, , 
66.36, 0.065634, , 
66.39, 0.065611, , 
66.42, 0.065656, , 
66.45, 0.065653, , 
66.49, 0.065605, , 
66.51, 0.065611, , 
66.54, 0.065678, , 
66.57, 0.065735, , 
66.60, 0.065881, , 
66.63, 0.065992, , 
66.66, 0.066087, , 
66.69, 0.066122, , 
66.72, 0.066106, , 
66.75, 0.066122, , 
66.78, 0.066122, , 
66.81, 0.066148, , 
66.84, 0.066170, , 
66.87, 0.066144, , 
66.90, 0.066144, , 
66.93, 0.066135, , 
66.96, 0.066094, , 
66.99, 0.066116, , 
67.02, 0.066214, , 
67.05, 0.066351, , 
67.08, 0.066408, , 
67.11, 0.066474, , 
67.14, 0.066642, , 
67.17, 0.066626, , 
67.19, 0.066595, 21, 0.585
67.20, 0.066592, , 
67.23, 0.066585, , 
67.26, 0.066490, , 
67.29, 0.066312, , 
67.32, 0.066201, , 
67.35, 0.066125, , 
67.38, 0.066148, , 
67.41, 0.066135, , 
67.44, 0.066084, , 
67.47, 0.066103, , 
67.50, 0.066122, , 
67.53, 0.066075, , 
67.56, 0.066068, , 
67.59, 0.066065, , 
67.62, 0.066106, , 
67.65, 0.066052, , 
67.68, 0.066021, , 
67.71, 0.066078, , 
67.74, 0.066090, , 
67.77, 0.066052, , 
67.80, 0.066017, , 
67.83, 0.066106, , 
67.86, 0.066125, , 
67.89, 0.066084, , 
67.93, 0.066081, , 
67.95, 0.066075, , 
67.98, 0.066084, , 
68.01, 0.066084, , 
68.04, 0.066046, , 
68.07, 0.066071, , 
68.10, 0.066094, , 
68.13, 0.066068, , 
68.16, 0.066033, , 
68.19, 0.066078, , 
68.22, 0.066109, , 
68.25, 0.066087, , 
68.28, 0.066024, , 
68.31, 0.065925, , 
68.34, 0.065821, , 
68.37, 0.065738, , 
68.40, 0.065615, , 
68.43, 0.065608, , 
68.46, 0.065599, , 
68.49, 0.065564, , 
68.52, 0.065561, , 
68.55, 0.065573, , 
68.58, 0.065567, , 
68.61, 0.065519, , 
68.64, 0.065529, , 
68.67, 0.065561, , 
68.70, 0.065558, , 
68.73, 0.065513, , 
68.76, 0.065539, , 
68.79, 0.065602, , 
68.82, 0.065583, , 
68.85, 0.065497, , 
68.88, 0.065523, , 
68.91, 0.065583, , 
68.94, 0.065580, , 
68.97, 0.065567, , 
69.00, 0.065551, , 
69.03, 0.065548, , 
69.06, 0.065564, , 
69.09, 0.065564, , 
69.12, 0.065551, , 
69.16, 0.065567, , 
69.18, 0.065478, , 
69.21, 0.065323, , 
69.24, 0.065202, , 
69.27, 0.065145, , 
69.30, 0.065113, , 
69.33, 0.065085, , 
69.36, 0.065072, , 
69.39, 0.065069, , 
69.42, 0.065066, , 
69.45, 0.065072, , 
69.48, 0.065094, , 
69.51, 0.065050, , 
69.54, 0.065053, , 
69.57, 0.065056, , 
69.60, 0.065091, , 
69.64, 0.065075, , 
69.66, 0.065056, , 
69.69, 0.065072, , 
69.72, 0.065091, , 
69.75, 0.065129, , 
69.78, 0.065075, , 
69.81, 0.065104, , 
69.84, 0.065091, , 
69.87, 0.065085, , 
69.90, 0.065072, , 
69.93, 0.065047, , 
69.96, 0.065063, , 
69.99, 0.065091, , 
70.02, 0.065037, , 
70.05, 0.065091, , 
70.08, 0.065123, , 
70.11, 0.065085, , 
70.14, 0.065015, , 
70.17, 0.065044, , 
70.20, 0.065088, , 
70.23, 0.065129, , 
70.26, 0.065056, , 
70.29, 0.065018, , 
70.32, 0.064974, , 
70.35, 0.064882, , 
70.38, 0.064704, , 
70.39, 0.064682, 22, 0.585
70.41, 0.064650, , 
70.44, 0.064669, , 
70.47, 0.064638, , 
70.50, 0.064622, , 
70.53, 0.064707, , 
70.56, 0.064841, , 
70.59, 0.064831, , 
70.62, 0.064761, , 
70.65, 0.064676, , 
70.68, 0.064660, , 
70.71, 0.064638, , 
70.74, 0.064606, , 
70.77, 0.064596, , 
70.80, 0.064584, , 
70.83, 0.064571, , 
70.86, 0.064543, , 
70.89, 0.064555, , 
70.92, 0.064581, , 
70.95, 0.064584, , 
70.98, 0.064549, , 
71.01, 0.064562, , 
71.04, 0.064558, , 
71.07, 0.064577, , 
71.10, 0.064562, , 
71.13, 0.064574, , 
71.16, 0.064549, , 
71.19, 0.064409, , 
71.22, 0.064267, , 
71.25, 0.064209, , 
71.28, 0.064159, , 
71.31, 0.064140, , 
71.34, 0.064124, , 
71.37, 0.064086, , 
71.40, 0.064092, , 
71.43, 0.064026, , 
71.46, 0.063838, , 
71.49, 0.063772, , 
71.52, 0.063715, , 
71.55, 0.063658, , 
71.58, 0.063626, , 
71.61, 0.063626, , 
71.64, 0.063626, , 
71.67, 0.063604, , 
71.70, 0.063588, , 
71.73, 0.063581, , 
71.76, 0.063572, , 
71.79, 0.063566, , 
71.82, 0.063547, , 
71.85, 0.063569, , 
71.88, 0.063458, , 
71.91, 0.063242, , 
71.94, 0.063166, , 
71.97, 0.063182, , 
72.00, 0.063141, , 
72.03, 0.063080, , 
72.06, 0.063099, , 
72.09, 0.063125, , 
72.13, 0.063122, , 
72.15, 0.063071, , 
72.18, 0.063090, , 
72.21, 0.063122, , 
72.24, 0.063141, , 
72.27, 0.063077, , 
72.30, 0.062938, , 
72.33, 0.062849, , 
72.36, 0.062738, , 
72.39, 0.062665, , 
72.42, 0.062655, , 
72.45, 0.062681, , 
72.48, 0.062655, , 
72.51, 0.062595, , 
72.54, 0.062617, , 
72.57, 0.062614, , 
72.60, 0.062595, , 
72.63, 0.062566, , 
72.66, 0.062579, , 
72.69, 0.062624, , 
72.72, 0.062627, , 
72.75, 0.062595, , 
72.78, 0.062614, , 
72.81, 0.062636, , 
72.84, 0.062598, , 
72.87, 0.062585, , 
72.90, 0.062576, , 
72.93, 0.062608, , 
72.96, 0.062560, , 
72.99, 0.062551, , 
73.02, 0.062573, , 
73.05, 0.062617, , 
73.08, 0.062585, , 
73.11, 0.062576, , 
73.14, 0.062620, , 
73.17, 0.062582, , 
73.20, 0.062370, , 
73.23, 0.062259, , 
73.26, 0.062173, , 
73.29, 0.062145, , 
73.32, 0.062151, , 
73.35, 0.062110, , 
73.38, 0.062116, , 
73.41, 0.062100, , 
73.44, 0.062091, , 
73.47, 0.062065, , 
73.50, 0.061862, , 
73.53, 0.061742, , 
73.56, 0.061653, , 
73.59, 0.061624, 23, 0.585
73.59, 0.061628, , 
73.62, 0.061643, , 
73.65, 0.061653, , 
73.68, 0.061593, , 
73.71, 0.061577, , 
73.74, 0.061618, , 
73.77, 0.061602, , 
73.80, 0.061596, , 
73.84, 0.061640, , 
73.86, 0.061612, , 
73.89, 0.061529, , 
73.92, 0.061456, , 
73.95, 0.061266, , 
73.98, 0.061193, , 
74.01, 0.061133, , 
74.04, 0.061110, , 
74.07, 0.061104, , 
74.10, 0.061101, , 
74.13, 0.061085, , 
74.16, 0.061044, , 
74.19, 0.061003, , 
74.22, 0.060917, , 
74.25, 0.060765, , 
74.28, 0.060695, , 
74.31, 0.060641, , 
74.34, 0.060590, , 
74.37, 0.060581, , 
74.40, 0.060587, , 
74.43, 0.060587, , 
74.46, 0.060581, , 
74.49, 0.060581, , 
74.52, 0.060559, , 
74.55, 0.060409, , 
74.58, 0.060257, , 
74.61, 0.060159, , 
74.64, 0.060118, , 
74.67, 0.060115, , 
74.70, 0.060130, , 
74.73, 0.060073, , 
74.76, 0.059978, , 
74.79, 0.059883, , 
74.82, 0.059781, , 
74.86, 0.059680, , 
74.88, 0.059632, , 
74.91, 0.059610, , 
74.94, 0.059601, , 
74.97, 0.059559, , 
75.00, 0.059509, , 
75.03, 0.059407, , 
75.06, 0.059280, , 
75.09, 0.059195, , 
75.12, 0.059166, , 
75.15, 0.059115, , 
75.18, 0.059103, , 
75.21, 0.059096, , 
75.24, 0.059131, , 
75.27, 0.059141, , 
75.30, 0.059119, , 
75.33, 0.059090, , 
75.36, 0.059109, , 
75.39, 0.059087, , 
75.42, 0.058985, , 
75.45, 0.058874, , 
75.48, 0.058760, , 
75.51, 0.058690, , 
75.54, 0.058614, , 
75.57, 0.058586, , 
75.60, 0.058605, , 
75.63, 0.058655, , 
75.66, 0.058649, , 
75.69, 0.058636, , 
75.72, 0.058617, , 
75.75, 0.058627, , 
75.78, 0.058608, , 
75.81, 0.058471, , 
75.84, 0.058379, , 
75.87, 0.058262, , 
75.90, 0.058199, , 
75.93, 0.058135, , 
75.96, 0.058148, , 
75.99, 0.058132, , 
76.02, 0.058132, , 
76.05, 0.058065, , 
76.09, 0.058015, , 
76.11, 0.057859, , 
76.14, 0.057732, , 
76.17, 0.057682, , 
76.20, 0.057678, , 
76.23, 0.057669, , 
76.26, 0.057615, , 
76.30, 0.057644, , 
76.32, 0.057672, , 
76.35, 0.057637, , 
76.38, 0.057612, , 
76.41, 0.057586, , 
76.44, 0.057469, , 
76.47, 0.057326, , 
76.50, 0.057222, , 
76.53, 0.057177, , 
76.56, 0.057146, , 
76.59, 0.057114, , 
76.62, 0.057117, , 
76.65, 0.057127, , 
76.68, 0.057152, , 
76.71, 0.057155, , 
76.74, 0.057079, , 
76.77, 0.056987, , 
76.78, 0.056946, 24, 0.585
76.80, 0.056873, , 
76.83, 0.056778, , 
76.86, 0.056746, , 
76.89, 0.056692, , 
76.92, 0.056676, , 
76.95, 0.056613, , 
76.98, 0.056575, , 
77.01, 0.056568, , 
77.04, 0.056457, , 
77.07, 0.056286, , 
77.10, 0.056197, , 
77.13, 0.056184, , 
77.16, 0.056150, , 
77.19, 0.056108, , 
77.22, 0.056118, , 
77.25, 0.056181, , 
77.28, 0.056184, , 
77.32, 0.056150, , 
77.34, 0.056054, , 
77.37, 0.055912, , 
77.40, 0.055785, , 
77.43, 0.055715, , 
77.46, 0.055690, , 
77.49, 0.055664, , 
77.53, 0.055639, , 
77.55, 0.055601, , 
77.58, 0.055620, , 
77.61, 0.055518, , 
77.64, 0.055420, , 
77.67, 0.055252, , 
77.70, 0.055173, , 
77.73, 0.055179, , 
77.76, 0.055154, , 
77.79, 0.055135, , 
77.82, 0.055087, , 
77.85, 0.054966, , 
77.88, 0.054833, , 
77.91, 0.054719, , 
77.94, 0.054684, , 
77.97, 0.054665, , 
78.00, 0.054646, , 
78.03, 0.054583, , 
78.06, 0.054497, , 
78.09, 0.054430, , 
78.12, 0.054256, , 
78.15, 0.054151, , 
78.18, 0.054110, , 
78.21, 0.054116, , 
78.24, 0.054113, , 
78.27, 0.054107, , 
78.30, 0.054101, , 
78.33, 0.054107, , 
78.36, 0.054088, , 
78.39, 0.054066, , 
78.42, 0.054050, , 
78.45, 0.053942, , 
78.48, 0.053793, , 
78.51, 0.053672, , 
78.54, 0.053637, , 
78.57, 0.053606, , 
78.60, 0.053634, , 
78.63, 0.053637, , 
78.66, 0.053663, , 
78.69, 0.053644, , 
78.72, 0.053558, , 
78.76, 0.053571, , 
78.78, 0.053637, , 
78.81, 0.053577, , 
78.84, 0.053568, , 
78.87, 0.053571, , 
78.90, 0.053422, , 
78.93, 0.053289, , 
78.96, 0.053181, , 
78.99, 0.053133, , 
79.02, 0.053108, , 
79.05, 0.053095, , 
79.08, 0.053079, , 
79.11, 0.053085, , 
79.14, 0.053082, , 
79.17, 0.053073, , 
79.20, 0.053070, , 
79.23, 0.053089, , 
79.26, 0.053098, , 
79.29, 0.053108, , 
79.32, 0.053101, , 
79.35, 0.053120, , 
79.38, 0.053139, , 
79.41, 0.053098, , 
79.44, 0.053060, , 
79.47, 0.053057, , 
79.50, 0.053035, , 
79.53, 0.052889, , 
79.56, 0.052752, , 
79.59, 0.052676, , 
79.62, 0.052641, , 
79.65, 0.052597, , 
79.68, 0.052553, , 
79.71, 0.052588, , 
79.74, 0.052622, , 
79.77, 0.052600, , 
79.80, 0.052549, , 
79.83, 0.052594, , 
79.86, 0.052600, , 
79.89, 0.052578, , 
79.92, 0.052597, , 
79.95, 0.052635, , 
79.99, 0.052600, 25, 0.586
79.99, 0.052600, , 
80.01, 0.052565, , 
80.04, 0.052549, , 
80.07, 0.052492, , 
80.10, 0.052350, , 
80.13, 0.052204, , 
80.16, 0.052166, , 
80.19, 0.052216, , 
80.22, 0.052172, , 
80.25, 0.052086, , 
80.28, 0.052093, , 
80.31, 0.052112, , 
80.34, 0.052077, , 
80.37, 0.051972, , 
80.40, 0.051810, , 
80.43, 0.051756, , 
80.46, 0.051712, , 
80.49, 0.051661, , 
80.52, 0.051645, , 
80.55, 0.051671, , 
80.58, 0.051633, , 
80.61, 0.051569, , 
80.64, 0.051442, , 
80.67, 0.051373, , 
80.70, 0.051224, , 
80.73, 0.051147, , 
80.76, 0.051135, , 
80.79, 0.051135, , 
80.82, 0.051103, , 
80.85, 0.051103, , 
80.88, 0.051154, , 
80.91, 0.051160, , 
80.94, 0.051141, , 
80.97, 0.051097, , 
81.00, 0.051084, , 
81.03, 0.051132, , 
81.06, 0.051074, , 
81.09, 0.050951, , 
81.12, 0.050868, , 
81.15, 0.050764, , 
81.18, 0.050646, , 
81.21, 0.050602, , 
81.24, 0.050621, , 
81.27, 0.050605, , 
81.30, 0.050630, , 
81.33, 0.050640, , 
81.36, 0.050659, , 
81.39, 0.050656, , 
81.43, 0.050551, , 
81.45, 0.050557, , 
81.48, 0.050599, , 
81.51, 0.050513, , 
81.54, 0.050326, , 
81.57, 0.050266, , 
81.60, 0.050186, , 
81.63, 0.050167, , 
81.66, 0.050056, , 
81.69, 0.050117, , 
81.72, 0.050158, , 
81.75, 0.050132, , 
81.78, 0.050132, , 
81.81, 0.050132, , 
81.84, 0.050132, , 
81.87, 0.050113, , 
81.90, 0.050075, , 
81.93, 0.050117, , 
81.96, 0.050136, , 
81.99, 0.050120, , 
82.02, 0.050098, , 
82.05, 0.050072, , 
82.08, 0.049917, , 
82.11, 0.049812, , 
82.14, 0.049669, , 
82.17, 0.049644, , 
82.20, 0.049666, , 
82.23, 0.049634, , 
82.26, 0.049619, , 
82.29, 0.049631, , 
82.32, 0.049628, , 
82.35, 0.049596, , 
82.38, 0.049523, , 
82.41, 0.049428, , 
82.44, 0.049349, , 
82.47, 0.049197, , 
82.50, 0.049089, , 
82.53, 0.049140, , 
82.56, 0.049121, , 
82.59, 0.049117, , 
82.62, 0.049143, , 
82.65, 0.049140, , 
82.68, 0.049127, , 
82.71, 0.049136, , 
82.74, 0.049152, , 
82.77, 0.049184, , 
82.80, 0.049159, , 
82.83, 0.049108, , 
82.86, 0.049038, , 
82.89, 0.048956, , 
82.92, 0.048781, , 
82.95, 0.048689, , 
82.98, 0.048680, , 
83.01, 0.048721, , 
83.04, 0.048689, , 
83.07, 0.048670, , 
83.10, 0.048664, , 
83.13, 0.048715, , 
83.16, 0.048734, , 
83.18, 0.048708, 26, 0.585
83.19, 0.048727, , 
83.22, 0.048718, , 
83.25, 0.048743, , 
83.28, 0.048746, , 
83.31, 0.048696, , 
83.34, 0.048724, , 
83.37, 0.048753, , 
83.40, 0.048768, , 
83.43, 0.048791, , 
83.46, 0.048826, , 
83.49, 0.048819, , 
83.52, 0.048800, , 
83.55, 0.048737, , 
83.58, 0.048654, , 
83.61, 0.048474, , 
83.64, 0.048410, , 
83.67, 0.048359, , 
83.70, 0.048318, , 
83.73, 0.048302, , 
83.76, 0.048299, , 
83.79, 0.048229, , 
83.82, 0.048153, , 
83.85, 0.047953, , 
83.89, 0.047868, , 
83.91, 0.047839, , 
83.94, 0.047820, , 
83.97, 0.047801, , 
84.00, 0.047766, , 
84.03, 0.047814, , 
84.06, 0.047874, , 
84.09, 0.047858, , 
84.12, 0.047823, , 
84.15, 0.047833, , 
84.18, 0.047817, , 
84.21, 0.047804, , 
84.24, 0.047757, , 
84.27, 0.047792, , 
84.30, 0.047858, , 
84.33, 0.047804, , 
84.36, 0.047807, , 
84.39, 0.047826, , 
84.42, 0.047830, , 
84.45, 0.047785, , 
84.48, 0.047757, , 
84.51, 0.047795, , 
84.54, 0.047801, , 
84.57, 0.047826, , 
84.60, 0.047804, , 
84.63, 0.047833, , 
84.66, 0.047864, , 
84.69, 0.047801, , 
84.72, 0.047779, , 
84.75, 0.047801, , 
84.78, 0.047811, , 
84.81, 0.047750, , 
84.84, 0.047728, , 
84.87, 0.047747, , 
84.90, 0.047757, , 
84.93, 0.047712, , 
84.96, 0.047661, , 
84.99, 0.047741, , 
85.02, 0.047753, , 
85.05, 0.047722, , 
85.08, 0.047690, , 
85.11, 0.047731, , 
85.14, 0.047684, , 
85.17, 0.047630, , 
85.20, 0.047652, , 
85.23, 0.047684, , 
85.26, 0.047655, , 
85.29, 0.047665, , 
85.32, 0.047652, , 
85.35, 0.047630, , 
85.38, 0.047617, , 
85.41, 0.047601, , 
85.44, 0.047608, , 
85.47, 0.047608, , 
85.50, 0.047608, , 
85.53, 0.047579, , 
85.56, 0.047595, , 
85.59, 0.047627, , 
85.62, 0.047614, , 
85.65, 0.047601, , 
85.68, 0.047646, , 
85.71, 0.047639, , 
85.74, 0.047601, , 
85.77, 0.047570, , 
85.80, 0.047497, , 
85.83, 0.047363, , 
85.86, 0.047227, , 
85.89, 0.047106, , 
85.92, 0.047122, , 
85.95, 0.047160, , 
85.98, 0.047103, , 
86.01, 0.047075, , 
86.04, 0.047135, , 
86.07, 0.047151, , 
86.10, 0.047068, , 
86.13, 0.047078, , 
86.16, 0.047100, , 
86.19, 0.047103, , 
86.22, 0.047091, , 
86.25, 0.047072, , 
86.28, 0.047100, , 
86.31, 0.047087, , 
86.35, 0.047094, , 
86.37, 0.047119, , 
86.40, 0.047084, , 
86.43, 0.047081, , 
86.46, 0.047081, , 
86.49, 0.047103, , 
86.52, 0.047144, , 
86.55, 0.047138, , 
86.58, 0.047125, , 
86.61, 0.047100, , 
86.64, 0.047125, , 
86.67, 0.047122, , 
86.70, 0.047091, , 
86.73, 0.047087, , 
86.76, 0.047116, , 
86.79, 0.047122, , 
86.82, 0.047094, , 
86.85, 0.047144, , 
86.88, 0.047148, , 
86.91, 0.047125, , 
86.94, 0.047091, , 
86.97, 0.047094, , 
87.00, 0.047160, , 
87.03, 0.047144, , 
87.06, 0.047110, , 
87.09, 0.047148, , 
87.12, 0.047173, , 
87.15, 0.047135, , 
87.18, 0.047119, , 
87.21, 0.047138, , 
87.24, 0.047113, , 
87.27, 0.047091, , 
87.30, 0.047138, , 
87.33, 0.047141, , 
87.36, 0.047129, , 
87.39, 0.047110, , 
87.42, 0.047094, , 
87.45, 0.047094, , 
87.48, 0.047125, , 
87.51, 0.047113, , 
87.54, 0.047138, , 
87.57, 0.047129, , 
87.60, 0.047129, , 
87.63, 0.047094, , 
87.66, 0.047100, , 
87.69, 0.047141, , 
87.72, 0.047113, , 
87.75, 0.047059, , 
87.78, 0.047125, , 
87.81, 0.047221, , 
87.84, 0.047411, , 
87.87, 0.047497, , 
87.90, 0.047557, , 
87.93, 0.047595, , 
87.96, 0.047592, , 
87.99, 0.047582, , 
88.02, 0.047582, , 
88.05, 0.047642, , 
88.08, 0.047623, , 
88.11, 0.047604, , 
88.14, 0.047589, , 
88.17, 0.047582, , 
88.20, 0.047617, , 
88.23, 0.047579, , 
88.26, 0.047585, , 
88.29, 0.047614, , 
88.32, 0.047627, , 
88.35, 0.047608, , 
88.38, 0.047636, , 
88.41, 0.047655, , 
88.44, 0.047617, , 
88.47, 0.047560, , 
88.50, 0.047608, , 
88.53, 0.047661, , 
88.56, 0.047579, , 
88.59, 0.047566, , 
88.62, 0.047630, , 
88.65, 0.047614, , 
88.68, 0.047576, , 
88.71, 0.047589, , 
88.74, 0.047608, , 
88.77, 0.047627, , 
88.81, 0.047573, , 
88.83, 0.047538, , 
88.86, 0.047566, , 
88.89, 0.047563, , 
88.92, 0.047554, , 
88.95, 0.047576, , 
88.98, 0.047589, , 
89.01, 0.047617, , 
89.04, 0.047589, , 
89.07, 0.047550, , 
89.10, 0.047589, , 
89.13, 0.047598, , 
89.16, 0.047528, , 
89.19, 0.047544, , 
89.22, 0.047585, , 
89.25, 0.047570, , 
89.28, 0.047528, , 
89.31, 0.047557, , 
89.34, 0.047582, , 
89.37, 0.047627, , 
89.40, 0.047570, , 
89.43, 0.047541, , 
89.46, 0.047658, , 
89.49, 0.047779, , 
89.52, 0.047893, , 
89.55, 0.048007, , 
89.58, 0.048080, , 
89.61, 0.048061, , 
89.64, 0.048055, , 
89.67, 0.048087, , 
89.70, 0.048106, , 
89.73, 0.048083, , 
89.76, 0.048026, , 
89.79, 0.048077, , 
89.82, 0.048102, , 
89.85, 0.048087, , 
89.88, 0.048055, , 
89.91, 0.048020, , 
89.94, 0.047956, , 
89.97, 0.047887, , 
90.00, 0.047674, , 
90.03, 0.047646, , 
90.06, 0.047661, , 
90.09, 0.047598, , 
90.12, 0.047550, , 
90.15, 0.047592, , 
90.18, 0.047582, , 
90.21, 0.047516, , 
90.25, 0.047522, , 
90.27, 0.047541, , 
90.30, 0.047582, , 
90.33, 0.047566, , 
90.36, 0.047547, , 
90.39, 0.047579, , 
90.42, 0.047573, , 
90.45, 0.047554, , 
90.48, 0.047538, , 
90.51, 0.047573, , 
90.54, 0.047585, , 
90.57, 0.047535, , 
90.60, 0.047595, , 
90.63, 0.047598, , 
90.66, 0.047604, , 
90.69, 0.047604, , 
90.72, 0.047579, , 
90.75, 0.047595, , 
90.78, 0.047595, , 
90.81, 0.047608, , 
90.84, 0.047633, , 
90.87, 0.047627, , 
90.90, 0.047633, , 
90.93, 0.047646, , 
90.96, 0.047630, , 
90.99, 0.047681, , 
91.02, 0.047703, , 
91.05, 0.047693, , 
91.08, 0.047668, , 
91.11, 0.047668, , 
91.14, 0.047681, , 
91.17, 0.047661, , 
91.20, 0.047677, , 
91.23, 0.047703, , 
91.26, 0.047738, , 
91.29, 0.047687, , 
91.32, 0.047690, , 
91.35, 0.047722, , 
91.38, 0.047731, , 
91.41, 0.047722, , 
91.44, 0.047731, , 
91.47, 0.047747, , 
91.50, 0.047719, , 
91.53, 0.047712, , 
91.56, 0.047706, , 
91.59, 0.047674, , 
91.62, 0.047531, , 
91.65, 0.047379, , 
91.68, 0.047363, , 
91.71, 0.047309, , 
91.74, 0.047300, , 
91.77, 0.047246, , 
91.80, 0.047265, , 
91.83, 0.047294, , 
91.86, 0.047268, , 
91.89, 0.047230, , 
91.92, 0.047246, , 
91.95, 0.047278, , 
91.98, 0.047246, , 
92.01, 0.047227, , 
92.04, 0.047255, , 
92.07, 0.047255, , 
92.10, 0.047249, , 
92.13, 0.047221, , 
92.16, 0.047205, , 
92.19, 0.047297, , 
92.22, 0.047306, , 
92.25, 0.047205, , 
92.28, 0.047217, , 
92.31, 0.047259, , 
92.34, 0.047221, , 
92.37, 0.047224, , 
92.40, 0.047297, , 
92.43, 0.047325, , 
92.46, 0.047265, , 
92.49, 0.047243, , 
92.52, 0.047294, , 
92.55, 0.047284, , 
92.58, 0.047259, , 
92.61, 0.047221, , 
92.64, 0.047224, , 
92.67, 0.047236, , 
92.71, 0.047221, , 
92.73, 0.047243, , 
92.76, 0.047262, , 
92.79, 0.047252, , 
92.82, 0.047205, , 
92.85, 0.047230, , 
92.88, 0.047249, , 
92.91, 0.047246, , 
92.94, 0.047217, , 
92.97, 0.047205, , 
93.00, 0.047221, , 
93.03, 0.047208, , 
93.06, 0.047195, , 
93.09, 0.047183, , 
93.12, 0.047236, , 
93.15, 0.047249, , 
93.18, 0.047167, , 
93.21, 0.047167, , 
93.24, 0.047195, , 
93.27, 0.047113, , 
93.30, 0.046878, , 
93.33, 0.046796, , 
93.36, 0.046783, , 
93.39, 0.046748, , 
93.42, 0.046669, , 
93.45, 0.046669, , 
93.48, 0.046707, , 
93.51, 0.046688, , 
93.54, 0.046659, , 
93.57, 0.046624, , 
93.60, 0.046653, , 
93.63, 0.046627, , 
93.66, 0.046618, , 
93.69, 0.046618, , 
93.72, 0.046621, , 
93.75, 0.046589, , 
93.78, 0.046532, , 
93.81, 0.046529, , 
93.84, 0.046580, , 
93.87, 0.046593, , 
93.90, 0.046554, , 
93.94, 0.046548, , 
93.96, 0.046570, , 
93.99, 0.046564, , 
94.02, 0.046542, , 
94.05, 0.046558, , 
94.08, 0.046574, , 
94.11, 0.046532, , 
94.14, 0.046545, , 
94.17, 0.046561, , 
94.20, 0.046589, , 
94.23, 0.046554, , 
94.26, 0.046558, , 
94.29, 0.046554, , 
94.32, 0.046577, , 
94.35, 0.046548, , 
94.38, 0.046529, , 
94.41, 0.046545, , 
94.44, 0.046561, , 
94.47, 0.046545, , 
94.50, 0.046513, , 
94.53, 0.046570, , 
94.56, 0.046580, , 
94.59, 0.046551, , 
94.62, 0.046542, , 
94.65, 0.046570, , 
94.68, 0.046564, , 
94.71, 0.046526, , 
94.74, 0.046510, , 
94.77, 0.046542, , 
94.80, 0.046532, , 
94.83, 0.046510, , 
94.86, 0.046532, , 
94.89, 0.046523, , 
94.92, 0.046532, , 
94.95, 0.046513, , 
94.98, 0.046507, , 
95.01, 0.046558, , 
95.04, 0.046548, , 
95.07, 0.046513, , 
95.10, 0.046526, , 
95.13, 0.046574, , 
95.16, 0.046567, , 
95.19, 0.046523, , 
95.22, 0.046504, , 
95.25, 0.046545, , 
95.28, 0.046529, , 
95.31, 0.046510, , 
95.34, 0.046491, , 
95.38, 0.046516, , 
95.40, 0.046554, , 
95.43, 0.046532, , 
95.46, 0.046542, , 
95.49, 0.046574, , 
95.52, 0.046551, , 
95.55, 0.046520, , 
95.58, 0.046548, , 
95.61, 0.046583, , 
95.64, 0.046564, , 
95.67, 0.046564, , 
95.70, 0.046567, , 
95.73, 0.046570, , 
95.76, 0.046545, , 
95.79, 0.046554, , 
95.82, 0.046596, , 
95.85, 0.046834, , 
95.88, 0.046929, , 
95.91, 0.046986, , 
95.94, 0.047043, , 
95.97, 0.047052, , 
96.00, 0.047065, , 
