Gradient Profiler Text Data File: 20240506_MV_A_40.csv
Date: 2024-05-06
Time: 17:34:15

User: jared
Experiment name: 
UV Unit: EM-1
Rotor Manufacturer: Beckman
Rotor Model: SW28.1
Speed: 28 rpm
Gradient: sucrose 10.0% to 50.0% w/v
Time: 4
w2t:  x 10^0
Sample Volume: 18 ml
Number of Tubes: 6
Volume per mm: 0.183 ml/mm

Absorbance Units Full Scale (AUFS): 2.00
Event Mark-triggered gradient; (with distance; auto start and stop)
Delay: No Delay
UV Wavelength: 254 nm
Samples / sec: 10 Hz
EM1 Speed: 0.30 mm/sec
Distance: 3.20 mm
Number: 30
Dead Volume: 0.000000 ml; Distance due to Dead Volume: 0.00 mm
Total Distance: 96.00 mm

Data Columns:
Distance(mm), Absorbance, Fraction Number, Fraction Volume(ml)
0.00, 0.099345, 0, 0.000
0.03, 0.099316, , 
0.06, 0.099329, , 
0.09, 0.099370, , 
0.12, 0.099307, , 
0.15, 0.099288, , 
0.18, 0.099310, , 
0.21, 0.099386, , 
0.24, 0.099500, , 
0.27, 0.099605, , 
0.30, 0.099726, , 
0.33, 0.099964, , 
0.36, 0.100109, , 
0.39, 0.100186, , 
0.42, 0.100328, , 
0.45, 0.100626, , 
0.48, 0.100928, , 
0.51, 0.101153, , 
0.54, 0.101486, , 
0.58, 0.101784, , 
0.60, 0.102009, , 
0.63, 0.102923, , 
0.66, 0.106257, , 
0.69, 0.118431, , 
0.72, 0.141443, , 
0.75, 0.177333, , 
0.78, 0.223409, , 
0.81, 0.276012, , 
0.84, 0.342008, , 
0.87, 0.400831, , 
0.90, 0.460765, , 
0.93, 0.531546, , 
0.96, 0.592686, , 
0.99, 0.654265, , 
1.02, 0.716159, , 
1.05, 0.778158, , 
1.08, 0.850589, , 
1.11, 0.912772, , 
1.14, 0.985200, , 
1.17, 1.046114, , 
1.20, 1.094032, , 
1.23, 1.151844, , 
1.26, 1.188521, , 
1.29, 1.216310, , 
1.32, 1.230603, , 
1.35, 1.239516, , 
1.38, 1.246183, , 
1.41, 1.249647, , 
1.44, 1.253485, , 
1.47, 1.256337, , 
1.50, 1.258928, , 
1.53, 1.261662, , 
1.56, 1.263800, , 
1.59, 1.266220, , 
1.62, 1.267959, , 
1.65, 1.270112, , 
1.68, 1.272793, , 
1.71, 1.275267, , 
1.74, 1.278274, , 
1.77, 1.280821, , 
1.80, 1.283530, , 
1.83, 1.286321, , 
1.86, 1.289024, , 
1.89, 1.292062, , 
1.92, 1.294546, , 
1.95, 1.296877, , 
1.98, 1.299326, , 
2.02, 1.301242, , 
2.04, 1.302945, , 
2.07, 1.304417, , 
2.10, 1.305702, , 
2.13, 1.306980, , 
2.16, 1.308106, , 
2.19, 1.309349, , 
2.22, 1.310244, , 
2.25, 1.311284, , 
2.28, 1.312382, , 
2.31, 1.313200, , 
2.34, 1.313958, , 
2.37, 1.314539, , 
2.40, 1.315135, , 
2.43, 1.315871, , 
2.46, 1.316670, , 
2.49, 1.317530, , 
2.52, 1.318599, , 
2.55, 1.319553, , 
2.58, 1.320759, , 
2.61, 1.321916, , 
2.64, 1.323154, , 
2.67, 1.324245, , 
2.70, 1.325076, , 
2.73, 1.325669, , 
2.76, 1.325821, , 
2.79, 1.325742, , 
2.82, 1.325415, , 
2.85, 1.325006, , 
2.88, 1.324245, , 
2.91, 1.323306, , 
2.94, 1.322018, , 
2.97, 1.320153, , 
3.00, 1.318294, , 
3.03, 1.315722, , 
3.06, 1.313622, , 
3.09, 1.310843, , 
3.12, 1.307253, , 
3.15, 1.303751, , 
3.18, 1.299155, , 
3.19, 1.298470, 1, 0.584
3.21, 1.294923, , 
3.24, 1.290435, , 
3.27, 1.285506, , 
3.30, 1.280231, , 
3.33, 1.273560, , 
3.36, 1.267388, , 
3.39, 1.260803, , 
3.42, 1.252626, , 
3.45, 1.245368, , 
3.48, 1.237724, , 
3.51, 1.229680, , 
3.54, 1.221204, , 
3.57, 1.210911, , 
3.60, 1.201713, , 
3.63, 1.190554, , 
3.66, 1.180654, , 
3.69, 1.172220, , 
3.72, 1.160088, , 
3.75, 1.149281, , 
3.78, 1.136422, , 
3.81, 1.125250, , 
3.84, 1.113907, , 
3.87, 1.100363, , 
3.90, 1.090600, , 
3.93, 1.076739, , 
3.96, 1.064704, , 
3.99, 1.052584, , 
4.02, 1.038368, , 
4.05, 1.026267, , 
4.09, 1.012076, , 
4.11, 1.001830, , 
4.14, 0.989476, , 
4.17, 0.975126, , 
4.20, 0.962755, , 
4.23, 0.948199, , 
4.26, 0.935749, , 
4.30, 0.923395, , 
4.32, 0.911214, , 
4.35, 0.899037, , 
4.38, 0.884932, , 
4.41, 0.872954, , 
4.44, 0.861025, , 
4.47, 0.847192, , 
4.50, 0.837400, , 
4.53, 0.823786, , 
4.56, 0.812247, , 
4.59, 0.800948, , 
4.62, 0.788026, , 
4.65, 0.777111, , 
4.68, 0.764684, , 
4.71, 0.756100, , 
4.74, 0.746010, , 
4.77, 0.734509, , 
4.80, 0.724927, , 
4.83, 0.713961, , 
4.86, 0.704756, , 
4.89, 0.695691, , 
4.92, 0.686889, , 
4.95, 0.678344, , 
4.98, 0.668729, , 
5.01, 0.660574, , 
5.04, 0.652419, , 
5.07, 0.643015, , 
5.10, 0.635085, , 
5.13, 0.627218, , 
5.16, 0.619314, , 
5.19, 0.611444, , 
5.22, 0.602420, , 
5.25, 0.594684, , 
5.28, 0.585622, , 
5.31, 0.578022, , 
5.34, 0.571846, , 
5.37, 0.563187, , 
5.40, 0.555685, , 
5.43, 0.546934, , 
5.46, 0.539435, , 
5.49, 0.532003, , 
5.52, 0.523455, , 
5.55, 0.517625, , 
5.58, 0.509682, , 
5.61, 0.502945, , 
5.64, 0.496319, , 
5.67, 0.488760, , 
5.70, 0.482458, , 
5.73, 0.476225, , 
5.76, 0.470055, , 
5.79, 0.464079, , 
5.82, 0.457307, , 
5.85, 0.451528, , 
5.88, 0.444908, , 
5.91, 0.439411, , 
5.95, 0.434051, , 
5.97, 0.428785, , 
6.00, 0.423574, , 
6.03, 0.417553, , 
6.06, 0.412320, , 
6.09, 0.407048, , 
6.12, 0.401009, , 
6.15, 0.396749, , 
6.18, 0.390881, , 
6.21, 0.385790, , 
6.24, 0.380661, , 
6.27, 0.374780, , 
6.30, 0.369822, , 
6.33, 0.364163, , 
6.36, 0.360243, , 
6.39, 0.355618, 2, 0.586
6.40, 0.354851, , 
6.42, 0.350207, , 
6.45, 0.345459, , 
6.48, 0.339981, , 
6.51, 0.335426, , 
6.54, 0.331007, , 
6.57, 0.326706, , 
6.60, 0.322564, , 
6.63, 0.317898, , 
6.66, 0.313961, , 
6.69, 0.310009, , 
6.72, 0.305518, , 
6.75, 0.301819, , 
6.78, 0.298184, , 
6.81, 0.294581, , 
6.84, 0.291066, , 
6.87, 0.287079, , 
6.90, 0.283787, , 
6.93, 0.280085, , 
6.96, 0.277043, , 
6.99, 0.274579, , 
7.02, 0.271070, , 
7.05, 0.267997, , 
7.08, 0.265066, , 
7.11, 0.261697, , 
7.14, 0.258824, , 
7.18, 0.255569, , 
7.20, 0.253323, , 
7.23, 0.250228, , 
7.26, 0.247566, , 
7.29, 0.244962, , 
7.32, 0.242079, , 
7.35, 0.239583, , 
7.38, 0.237051, , 
7.41, 0.234549, , 
7.44, 0.232075, , 
7.47, 0.229182, , 
7.50, 0.226676, , 
7.53, 0.223831, , 
7.56, 0.221620, , 
7.59, 0.219752, , 
7.62, 0.217227, , 
7.65, 0.215146, , 
7.68, 0.213119, , 
7.71, 0.210797, , 
7.74, 0.208793, , 
7.77, 0.206544, , 
7.80, 0.204974, , 
7.83, 0.203118, , 
7.86, 0.201034, , 
7.89, 0.199356, , 
7.92, 0.197567, , 
7.95, 0.196057, , 
7.98, 0.194433, , 
8.01, 0.192828, , 
8.04, 0.191337, , 
8.07, 0.189618, , 
8.10, 0.188070, , 
8.13, 0.186481, , 
8.16, 0.184692, , 
8.19, 0.183205, , 
8.22, 0.181666, , 
8.25, 0.180185, , 
8.28, 0.178780, , 
8.31, 0.177159, , 
8.34, 0.175684, , 
8.37, 0.173987, , 
8.41, 0.172617, , 
8.43, 0.171443, , 
8.46, 0.169787, , 
8.49, 0.168455, , 
8.52, 0.166967, , 
8.55, 0.165657, , 
8.58, 0.164278, , 
8.61, 0.162977, , 
8.64, 0.161689, , 
8.67, 0.160224, , 
8.70, 0.159060, , 
8.73, 0.157870, , 
8.76, 0.156478, , 
8.79, 0.155355, , 
8.82, 0.154254, , 
8.85, 0.153208, , 
8.88, 0.152208, , 
8.91, 0.151016, , 
8.94, 0.150010, , 
8.97, 0.148894, , 
9.00, 0.147872, , 
9.03, 0.147022, , 
9.06, 0.145899, , 
9.09, 0.145002, , 
9.12, 0.143996, , 
9.15, 0.143092, , 
9.18, 0.142179, , 
9.21, 0.141243, , 
9.24, 0.140612, , 
9.27, 0.139705, , 
9.30, 0.138890, , 
9.33, 0.138084, , 
9.36, 0.137202, , 
9.39, 0.136460, , 
9.42, 0.135657, , 
9.45, 0.135105, , 
9.48, 0.134379, , 
9.51, 0.133583, , 
9.54, 0.132929, , 
9.57, 0.132254, , 
9.59, 0.131981, 3, 0.585
9.60, 0.131718, , 
9.63, 0.131163, , 
9.66, 0.130557, , 
9.69, 0.130011, , 
9.72, 0.129339, , 
9.75, 0.128812, , 
9.78, 0.128298, , 
9.81, 0.127791, , 
9.85, 0.127337, , 
9.87, 0.126874, , 
9.90, 0.126424, , 
9.93, 0.126018, , 
9.96, 0.125501, , 
9.99, 0.125012, , 
10.02, 0.124527, , 
10.05, 0.124181, , 
10.08, 0.123747, , 
10.11, 0.123233, , 
10.14, 0.122792, , 
10.17, 0.122291, , 
10.20, 0.121783, , 
10.23, 0.121396, , 
10.26, 0.121114, , 
10.29, 0.120813, , 
10.32, 0.120375, , 
10.35, 0.120055, , 
10.38, 0.119706, , 
10.41, 0.119376, , 
10.44, 0.119043, , 
10.47, 0.118656, , 
10.50, 0.118278, , 
10.53, 0.117910, , 
10.56, 0.117400, , 
10.59, 0.116937, , 
10.62, 0.116496, , 
10.65, 0.116175, , 
10.68, 0.115893, , 
10.71, 0.115471, , 
10.74, 0.115144, , 
10.77, 0.114757, , 
10.80, 0.114450, , 
10.83, 0.114104, , 
10.86, 0.113685, , 
10.89, 0.113381, , 
10.92, 0.112962, , 
10.95, 0.112420, , 
10.98, 0.112023, , 
11.01, 0.111535, , 
11.04, 0.111062, , 
11.08, 0.110542, , 
11.10, 0.110291, , 
11.13, 0.110019, , 
11.16, 0.109651, , 
11.19, 0.109260, , 
11.22, 0.108931, , 
11.25, 0.108588, , 
11.28, 0.108252, , 
11.31, 0.107931, , 
11.34, 0.107617, , 
11.37, 0.107348, , 
11.40, 0.107056, , 
11.43, 0.106831, , 
11.46, 0.106634, , 
11.49, 0.106441, , 
11.52, 0.106295, , 
11.55, 0.106089, , 
11.58, 0.105955, , 
11.61, 0.105724, , 
11.64, 0.105505, , 
11.67, 0.105356, , 
11.70, 0.105162, , 
11.73, 0.105010, , 
11.76, 0.104874, , 
11.79, 0.104744, , 
11.82, 0.104623, , 
11.85, 0.104436, , 
11.88, 0.104287, , 
11.91, 0.104106, , 
11.94, 0.104027, , 
11.97, 0.103932, , 
12.00, 0.103821, , 
12.03, 0.103789, , 
12.06, 0.103833, , 
12.09, 0.103808, , 
12.12, 0.103802, , 
12.15, 0.103805, , 
12.18, 0.103824, , 
12.21, 0.103906, , 
12.24, 0.104052, , 
12.27, 0.104189, , 
12.30, 0.104325, , 
12.33, 0.104468, , 
12.36, 0.104680, , 
12.39, 0.104893, , 
12.42, 0.105102, , 
12.45, 0.105327, , 
12.48, 0.105524, , 
12.51, 0.105743, , 
12.54, 0.106050, , 
12.57, 0.106269, , 
12.60, 0.106447, , 
12.63, 0.106672, , 
12.66, 0.106907, , 
12.69, 0.107157, , 
12.72, 0.107341, , 
12.75, 0.107640, , 
12.78, 0.107881, , 
12.79, 0.107909, 4, 0.585
12.81, 0.108042, , 
12.84, 0.108271, , 
12.87, 0.108490, , 
12.90, 0.108712, , 
12.93, 0.108801, , 
12.96, 0.108934, , 
12.99, 0.109143, , 
13.02, 0.109229, , 
13.05, 0.109283, , 
13.08, 0.109454, , 
13.11, 0.109628, , 
13.14, 0.109746, , 
13.17, 0.109793, , 
13.21, 0.109908, , 
13.23, 0.110079, , 
13.26, 0.110190, , 
13.29, 0.110234, , 
13.32, 0.110275, , 
13.35, 0.110298, , 
13.38, 0.110329, , 
13.41, 0.110263, , 
13.44, 0.110133, , 
13.47, 0.110041, , 
13.50, 0.109971, , 
13.53, 0.109854, , 
13.56, 0.109692, , 
13.59, 0.109590, , 
13.63, 0.109479, , 
13.65, 0.109286, , 
13.68, 0.109073, , 
13.71, 0.108912, , 
13.74, 0.108686, , 
13.77, 0.108467, , 
13.80, 0.108198, , 
13.83, 0.108027, , 
13.86, 0.107792, , 
13.89, 0.107443, , 
13.92, 0.107097, , 
13.95, 0.106745, , 
13.98, 0.106460, , 
14.01, 0.106111, , 
14.04, 0.105733, , 
14.07, 0.105368, , 
14.10, 0.104902, , 
14.13, 0.104591, , 
14.16, 0.104268, , 
14.19, 0.103903, , 
14.22, 0.103513, , 
14.25, 0.103056, , 
14.28, 0.102688, , 
14.31, 0.102466, , 
14.34, 0.102092, , 
14.37, 0.101689, , 
14.40, 0.101302, , 
14.43, 0.100912, , 
14.46, 0.100588, , 
14.49, 0.100179, , 
14.52, 0.099884, , 
14.55, 0.099494, , 
14.58, 0.099044, , 
14.61, 0.098698, , 
14.64, 0.098374, , 
14.67, 0.098067, , 
14.71, 0.097689, , 
14.73, 0.097245, , 
14.76, 0.096842, , 
14.79, 0.096478, , 
14.82, 0.096125, , 
14.85, 0.095821, , 
14.88, 0.095405, , 
14.92, 0.095018, , 
14.94, 0.094638, , 
14.97, 0.094257, , 
15.00, 0.093934, , 
15.03, 0.093591, , 
15.06, 0.093274, , 
15.09, 0.092954, , 
15.12, 0.092703, , 
15.15, 0.092576, , 
15.18, 0.092243, , 
15.21, 0.091945, , 
15.24, 0.091669, , 
15.27, 0.091377, , 
15.30, 0.091139, , 
15.33, 0.090993, , 
15.36, 0.090825, , 
15.39, 0.090651, , 
15.42, 0.090426, , 
15.45, 0.090267, , 
15.48, 0.090086, , 
15.51, 0.089921, , 
15.54, 0.089756, , 
15.57, 0.089506, , 
15.60, 0.089306, , 
15.63, 0.089157, , 
15.66, 0.088982, , 
15.69, 0.088801, , 
15.72, 0.088643, , 
15.75, 0.088510, , 
15.78, 0.088361, , 
15.81, 0.088135, , 
15.85, 0.088031, , 
15.87, 0.087866, , 
15.90, 0.087628, , 
15.93, 0.087507, , 
15.96, 0.087482, , 
15.99, 0.087323, , 
16.00, 0.087285, 5, 0.588
16.02, 0.087139, , 
16.05, 0.087057, , 
16.08, 0.087025, , 
16.11, 0.086940, , 
16.14, 0.086752, , 
16.17, 0.086622, , 
16.20, 0.086534, , 
16.23, 0.086470, , 
16.26, 0.086394, , 
16.29, 0.086292, , 
16.32, 0.086181, , 
16.35, 0.086093, , 
16.38, 0.086013, , 
16.41, 0.085985, , 
16.44, 0.085985, , 
16.47, 0.085950, , 
16.50, 0.085893, , 
16.53, 0.085753, , 
16.56, 0.085607, , 
16.59, 0.085528, , 
16.62, 0.085474, , 
16.65, 0.085408, , 
16.69, 0.085262, , 
16.71, 0.085170, , 
16.74, 0.085014, , 
16.77, 0.084862, , 
16.80, 0.084738, , 
16.83, 0.084605, , 
16.86, 0.084513, , 
16.89, 0.084450, , 
16.92, 0.084326, , 
16.95, 0.084145, , 
16.98, 0.083958, , 
17.01, 0.083809, , 
17.04, 0.083704, , 
17.07, 0.083584, , 
17.10, 0.083387, , 
17.13, 0.083244, , 
17.16, 0.083162, , 
17.19, 0.082975, , 
17.22, 0.082800, , 
17.25, 0.082610, , 
17.28, 0.082467, , 
17.31, 0.082353, , 
17.34, 0.082140, , 
17.37, 0.082061, , 
17.40, 0.082017, , 
17.43, 0.081868, , 
17.46, 0.081715, , 
17.49, 0.081614, , 
17.52, 0.081509, , 
17.55, 0.081300, , 
17.58, 0.081167, , 
17.61, 0.081049, , 
17.64, 0.080868, , 
17.67, 0.080650, , 
17.70, 0.080399, , 
17.73, 0.080282, , 
17.76, 0.080142, , 
17.79, 0.079926, , 
17.82, 0.079752, , 
17.85, 0.079654, , 
17.88, 0.079590, , 
17.91, 0.079479, , 
17.94, 0.079311, , 
17.97, 0.079219, , 
18.00, 0.079121, , 
18.03, 0.079003, , 
18.06, 0.078877, , 
18.09, 0.078702, , 
18.12, 0.078632, , 
18.15, 0.078521, , 
18.18, 0.078518, , 
18.21, 0.078540, , 
18.24, 0.078502, , 
18.27, 0.078467, , 
18.30, 0.078493, , 
18.33, 0.078474, , 
18.36, 0.078467, , 
18.39, 0.078413, , 
18.42, 0.078423, , 
18.45, 0.078470, , 
18.49, 0.078458, , 
18.51, 0.078401, , 
18.54, 0.078423, , 
18.57, 0.078448, , 
18.60, 0.078426, , 
18.63, 0.078407, , 
18.66, 0.078423, , 
18.69, 0.078461, , 
18.72, 0.078464, , 
18.75, 0.078597, , 
18.78, 0.078762, , 
18.82, 0.078896, , 
18.84, 0.078991, , 
18.87, 0.079156, , 
18.90, 0.079321, , 
18.93, 0.079460, , 
18.96, 0.079609, , 
18.99, 0.079796, , 
19.02, 0.080117, , 
19.05, 0.080393, , 
19.08, 0.080799, , 
19.11, 0.081056, , 
19.14, 0.081366, , 
19.17, 0.081814, , 
19.19, 0.082080, 6, 0.585
19.20, 0.082182, , 
19.23, 0.082562, , 
19.26, 0.082997, , 
19.29, 0.083425, , 
19.32, 0.084006, , 
19.35, 0.084567, , 
19.38, 0.085185, , 
19.41, 0.085744, , 
19.44, 0.086159, , 
19.47, 0.086790, , 
19.50, 0.087406, , 
19.53, 0.088075, , 
19.56, 0.088592, , 
19.59, 0.089169, , 
19.62, 0.089829, , 
19.65, 0.090245, , 
19.68, 0.090847, , 
19.71, 0.091396, , 
19.74, 0.092002, , 
19.77, 0.092649, , 
19.80, 0.093125, , 
19.83, 0.093715, , 
19.86, 0.094172, , 
19.89, 0.094755, , 
19.92, 0.095326, , 
19.95, 0.095792, , 
19.98, 0.096290, , 
20.01, 0.096608, , 
20.04, 0.096918, , 
20.07, 0.097321, , 
20.10, 0.097708, , 
20.13, 0.098038, , 
20.16, 0.098248, , 
20.19, 0.098527, , 
20.22, 0.098812, , 
20.25, 0.098977, , 
20.28, 0.099088, , 
20.31, 0.099148, , 
20.34, 0.099329, , 
20.37, 0.099516, , 
20.40, 0.099583, , 
20.43, 0.099694, , 
20.46, 0.099745, , 
20.49, 0.099735, , 
20.52, 0.099554, , 
20.55, 0.099437, , 
20.58, 0.099408, , 
20.61, 0.099301, , 
20.64, 0.099161, , 
20.67, 0.099021, , 
20.70, 0.098895, , 
20.73, 0.098736, , 
20.76, 0.098565, , 
20.79, 0.098447, , 
20.82, 0.098330, , 
20.85, 0.098140, , 
20.88, 0.097933, , 
20.91, 0.097781, , 
20.94, 0.097562, , 
20.97, 0.097274, , 
21.00, 0.097045, , 
21.03, 0.096915, , 
21.06, 0.096731, , 
21.09, 0.096557, , 
21.12, 0.096386, , 
21.15, 0.096208, , 
21.18, 0.095961, , 
21.21, 0.095688, , 
21.24, 0.095412, , 
21.28, 0.095180, , 
21.30, 0.095069, , 
21.33, 0.094787, , 
21.36, 0.094565, , 
21.39, 0.094375, , 
21.42, 0.094108, , 
21.45, 0.093946, , 
21.48, 0.093788, , 
21.51, 0.093597, , 
21.54, 0.093458, , 
21.57, 0.093176, , 
21.60, 0.092963, , 
21.63, 0.092722, , 
21.66, 0.092519, , 
21.69, 0.092310, , 
21.72, 0.092062, , 
21.75, 0.091881, , 
21.78, 0.091631, , 
21.81, 0.091352, , 
21.84, 0.091120, , 
21.87, 0.090958, , 
21.90, 0.090774, , 
21.93, 0.090460, , 
21.96, 0.090257, , 
21.99, 0.090042, , 
22.02, 0.089772, , 
22.05, 0.089575, , 
22.08, 0.089306, , 
22.11, 0.089131, , 
22.14, 0.088928, , 
22.17, 0.088649, , 
22.20, 0.088430, , 
22.23, 0.088139, , 
22.26, 0.087821, , 
22.29, 0.087517, , 
22.32, 0.087254, , 
22.35, 0.087079, , 
22.38, 0.086876, , 
22.39, 0.086749, 7, 0.586
22.41, 0.086578, , 
22.44, 0.086362, , 
22.47, 0.086089, , 
22.50, 0.085833, , 
22.53, 0.085538, , 
22.56, 0.085274, , 
22.59, 0.085046, , 
22.62, 0.084757, , 
22.65, 0.084500, , 
22.68, 0.084320, , 
22.71, 0.084142, , 
22.74, 0.083828, , 
22.77, 0.083577, , 
22.80, 0.083406, , 
22.83, 0.083187, , 
22.87, 0.083019, , 
22.89, 0.082879, , 
22.92, 0.082721, , 
22.95, 0.082591, , 
22.98, 0.082426, , 
23.01, 0.082229, , 
23.04, 0.082067, , 
23.07, 0.081975, , 
23.10, 0.081820, , 
23.13, 0.081674, , 
23.16, 0.081557, , 
23.19, 0.081382, , 
23.22, 0.081214, , 
23.25, 0.081122, , 
23.28, 0.080941, , 
23.31, 0.080789, , 
23.34, 0.080602, , 
23.37, 0.080485, , 
23.40, 0.080456, , 
23.43, 0.080364, , 
23.46, 0.080187, , 
23.49, 0.080037, , 
23.52, 0.080028, , 
23.55, 0.080003, , 
23.58, 0.079939, , 
23.61, 0.079914, , 
23.64, 0.079920, , 
23.67, 0.079939, , 
23.70, 0.079923, , 
23.73, 0.079920, , 
23.76, 0.079964, , 
23.79, 0.080006, , 
23.82, 0.079939, , 
23.85, 0.080028, , 
23.88, 0.080225, , 
23.91, 0.080339, , 
23.94, 0.080443, , 
23.97, 0.080612, , 
24.00, 0.080767, , 
24.03, 0.080941, , 
24.06, 0.081106, , 
24.09, 0.081405, , 
24.12, 0.081700, , 
24.15, 0.081960, , 
24.18, 0.082255, , 
24.21, 0.082537, , 
24.24, 0.082845, , 
24.27, 0.083317, , 
24.30, 0.083742, , 
24.33, 0.084358, , 
24.36, 0.084948, , 
24.39, 0.085471, , 
24.42, 0.086270, , 
24.45, 0.087073, , 
24.48, 0.088078, , 
24.51, 0.088878, , 
24.54, 0.090194, , 
24.57, 0.091383, , 
24.60, 0.092957, , 
24.63, 0.094482, , 
24.66, 0.096157, , 
24.69, 0.098092, , 
24.72, 0.100262, , 
24.75, 0.103009, , 
24.78, 0.105552, , 
24.81, 0.108395, , 
24.84, 0.112083, , 
24.87, 0.115531, , 
24.90, 0.119233, , 
24.93, 0.123439, , 
24.96, 0.127943, , 
24.99, 0.133637, , 
25.02, 0.138972, , 
25.05, 0.145706, , 
25.08, 0.150860, , 
25.11, 0.157382, , 
25.14, 0.165496, , 
25.17, 0.172953, , 
25.20, 0.182205, , 
25.23, 0.190529, , 
25.26, 0.199309, , 
25.29, 0.208555, , 
25.32, 0.218147, , 
25.35, 0.229794, , 
25.38, 0.240223, , 
25.41, 0.250992, , 
25.44, 0.263899, , 
25.47, 0.275169, , 
25.50, 0.286664, , 
25.53, 0.298384, , 
25.56, 0.310177, , 
25.59, 0.324051, 8, 0.585
25.60, 0.326065, , 
25.62, 0.335994, , 
25.65, 0.349925, , 
25.68, 0.361873, , 
25.71, 0.371725, , 
25.74, 0.385450, , 
25.77, 0.397148, , 
25.80, 0.410512, , 
25.83, 0.421683, , 
25.86, 0.432627, , 
25.89, 0.445140, , 
25.92, 0.455569, , 
25.95, 0.465592, , 
25.98, 0.475308, , 
26.01, 0.484754, , 
26.04, 0.495260, , 
26.07, 0.503903, , 
26.10, 0.512214, , 
26.13, 0.521463, , 
26.17, 0.528895, , 
26.19, 0.535838, , 
26.22, 0.542499, , 
26.25, 0.549785, , 
26.28, 0.554648, , 
26.31, 0.560906, , 
26.34, 0.565841, , 
26.37, 0.570365, , 
26.40, 0.575024, , 
26.43, 0.578662, , 
26.46, 0.582408, , 
26.49, 0.584832, , 
26.52, 0.587392, , 
26.55, 0.589862, , 
26.58, 0.591709, , 
26.61, 0.593564, , 
26.64, 0.594728, , 
26.67, 0.595654, , 
26.70, 0.596394, , 
26.73, 0.596806, , 
26.76, 0.596939, , 
26.79, 0.596822, , 
26.82, 0.596539, , 
26.85, 0.595911, , 
26.88, 0.595175, , 
26.91, 0.594265, , 
26.94, 0.593196, , 
26.97, 0.591912, , 
27.00, 0.590196, , 
27.03, 0.588578, , 
27.06, 0.586662, , 
27.09, 0.584889, , 
27.12, 0.583293, , 
27.15, 0.580914, , 
27.18, 0.578834, , 
27.21, 0.576283, , 
27.24, 0.573895, , 
27.27, 0.571351, , 
27.31, 0.568306, , 
27.33, 0.566102, , 
27.36, 0.562876, , 
27.39, 0.559986, , 
27.42, 0.557046, , 
27.45, 0.553557, , 
27.48, 0.550540, , 
27.52, 0.546915, , 
27.54, 0.544247, , 
27.57, 0.540964, , 
27.60, 0.537075, , 
27.63, 0.533722, , 
27.66, 0.529653, , 
27.69, 0.526056, , 
27.73, 0.522421, , 
27.75, 0.518764, , 
27.78, 0.515106, , 
27.81, 0.510691, , 
27.84, 0.506821, , 
27.87, 0.502958, , 
27.90, 0.498403, , 
27.93, 0.495098, , 
27.96, 0.490381, , 
27.99, 0.486283, , 
28.02, 0.482185, , 
28.05, 0.477316, , 
28.08, 0.473088, , 
28.11, 0.468212, , 
28.14, 0.464692, , 
28.17, 0.460492, , 
28.20, 0.455591, , 
28.23, 0.451408, , 
28.26, 0.447265, , 
28.29, 0.442406, , 
28.32, 0.438266, , 
28.35, 0.434101, , 
28.38, 0.429981, , 
28.41, 0.425965, , 
28.44, 0.421252, , 
28.47, 0.417322, , 
28.50, 0.412738, , 
28.53, 0.408824, , 
28.56, 0.405630, , 
28.59, 0.401228, , 
28.62, 0.397434, , 
28.65, 0.393022, , 
28.68, 0.389247, , 
28.71, 0.385520, , 
28.74, 0.381175, , 
28.77, 0.378450, , 
28.79, 0.375142, 9, 0.586
28.80, 0.373876, , 
28.83, 0.370320, , 
28.86, 0.366812, , 
28.89, 0.362625, , 
28.92, 0.358942, , 
28.95, 0.354746, , 
28.98, 0.351841, , 
29.01, 0.348364, , 
29.04, 0.344386, , 
29.07, 0.341002, , 
29.10, 0.337104, , 
29.13, 0.333764, , 
29.16, 0.330481, , 
29.19, 0.327274, , 
29.22, 0.324054, , 
29.25, 0.320289, , 
29.28, 0.317098, , 
29.31, 0.313958, , 
29.34, 0.310374, , 
29.37, 0.307300, , 
29.40, 0.304328, , 
29.43, 0.301375, , 
29.46, 0.298422, , 
29.49, 0.295038, , 
29.52, 0.292142, , 
29.55, 0.288703, , 
29.58, 0.286302, , 
29.61, 0.283409, , 
29.64, 0.280022, , 
29.67, 0.277199, , 
29.70, 0.273868, , 
29.73, 0.271058, , 
29.76, 0.268336, , 
29.79, 0.265662, , 
29.82, 0.262985, , 
29.85, 0.259883, , 
29.88, 0.257123, , 
29.91, 0.254405, , 
29.94, 0.251363, , 
29.97, 0.248784, , 
30.00, 0.246231, , 
30.03, 0.243725, , 
30.06, 0.241257, , 
30.09, 0.238355, , 
30.12, 0.235935, , 
30.15, 0.233169, , 
30.18, 0.230790, , 
30.21, 0.229068, , 
30.24, 0.226172, , 
30.27, 0.223983, , 
30.30, 0.221414, , 
30.33, 0.219187, , 
30.36, 0.217008, , 
30.39, 0.214527, , 
30.42, 0.212815, , 
30.45, 0.210404, , 
30.48, 0.208463, , 
30.51, 0.206550, , 
30.54, 0.204336, , 
30.57, 0.202363, , 
30.60, 0.200184, , 
30.63, 0.198715, , 
30.66, 0.196952, , 
30.69, 0.194846, , 
30.72, 0.193092, , 
30.75, 0.191106, , 
30.78, 0.189330, , 
30.81, 0.187547, , 
30.84, 0.185787, , 
30.87, 0.184042, , 
30.90, 0.182037, , 
30.93, 0.180255, , 
30.96, 0.178453, , 
30.99, 0.176499, , 
31.02, 0.174777, , 
31.05, 0.173061, , 
31.08, 0.171421, , 
31.11, 0.169790, , 
31.14, 0.167929, , 
31.17, 0.166311, , 
31.20, 0.164468, , 
31.23, 0.162920, , 
31.26, 0.161616, , 
31.29, 0.159850, , 
31.32, 0.158403, , 
31.35, 0.156808, , 
31.38, 0.155460, , 
31.41, 0.154102, , 
31.44, 0.152570, , 
31.47, 0.151466, , 
31.50, 0.149890, , 
31.53, 0.148637, , 
31.56, 0.147441, , 
31.59, 0.146131, , 
31.62, 0.144907, , 
31.65, 0.143365, , 
31.68, 0.142366, , 
31.71, 0.141221, , 
31.74, 0.139857, , 
31.77, 0.138667, , 
31.80, 0.137342, , 
31.83, 0.136168, , 
31.86, 0.134972, , 
31.89, 0.133802, , 
31.92, 0.132673, , 
31.95, 0.131407, , 
31.98, 0.130300, , 
31.99, 0.129926, 10, 0.585
32.01, 0.129177, , 
32.04, 0.127908, , 
32.07, 0.127046, , 
32.10, 0.125862, , 
32.13, 0.124816, , 
32.16, 0.123759, , 
32.19, 0.122624, , 
32.22, 0.121647, , 
32.25, 0.120648, , 
32.28, 0.119741, , 
32.31, 0.118875, , 
32.34, 0.117875, , 
32.37, 0.117035, , 
32.40, 0.116201, , 
32.43, 0.115363, , 
32.46, 0.114608, , 
32.49, 0.113758, , 
32.52, 0.112867, , 
32.55, 0.112074, , 
32.58, 0.111100, , 
32.61, 0.110285, , 
32.64, 0.109508, , 
32.67, 0.108832, , 
32.70, 0.108268, , 
32.73, 0.107462, , 
32.76, 0.106793, , 
32.79, 0.106076, , 
32.82, 0.105410, , 
32.85, 0.104709, , 
32.88, 0.103979, , 
32.91, 0.103434, , 
32.94, 0.102641, , 
32.97, 0.102000, , 
33.00, 0.101419, , 
33.03, 0.100706, , 
33.06, 0.100106, , 
33.09, 0.099386, , 
33.12, 0.098831, , 
33.15, 0.098479, , 
33.18, 0.097791, , 
33.21, 0.097153, , 
33.24, 0.096598, , 
33.27, 0.096148, , 
33.30, 0.095564, , 
33.33, 0.095034, , 
33.36, 0.094409, , 
33.39, 0.093873, , 
33.42, 0.093337, , 
33.45, 0.092789, , 
33.48, 0.092402, , 
33.51, 0.092056, , 
33.54, 0.091704, , 
33.57, 0.091317, , 
33.60, 0.090866, , 
33.64, 0.090460, , 
33.66, 0.090029, , 
33.69, 0.089594, , 
33.72, 0.089182, , 
33.75, 0.088741, , 
33.78, 0.088357, , 
33.81, 0.087967, , 
33.84, 0.087656, , 
33.87, 0.087330, , 
33.90, 0.086876, , 
33.93, 0.086486, , 
33.96, 0.086204, , 
33.99, 0.085886, , 
34.02, 0.085560, , 
34.05, 0.085268, , 
34.08, 0.085014, , 
34.11, 0.084703, , 
34.14, 0.084380, , 
34.17, 0.084098, , 
34.20, 0.083837, , 
34.23, 0.083600, , 
34.26, 0.083377, , 
34.29, 0.083216, , 
34.32, 0.083108, , 
34.35, 0.082943, , 
34.38, 0.082787, , 
34.41, 0.082521, , 
34.44, 0.082413, , 
34.47, 0.082299, , 
34.50, 0.082118, , 
34.53, 0.081979, , 
34.56, 0.081842, , 
34.59, 0.081731, , 
34.62, 0.081614, , 
34.65, 0.081474, , 
34.68, 0.081401, , 
34.71, 0.081281, , 
34.74, 0.081135, , 
34.77, 0.081005, , 
34.80, 0.080900, , 
34.83, 0.080815, , 
34.86, 0.080694, , 
34.89, 0.080602, , 
34.92, 0.080583, , 
34.95, 0.080570, , 
34.98, 0.080532, , 
35.01, 0.080501, , 
35.04, 0.080523, , 
35.07, 0.080561, , 
35.10, 0.080510, , 
35.13, 0.080472, , 
35.16, 0.080481, , 
35.19, 0.080491, 11, 0.586
35.20, 0.080478, , 
35.22, 0.080456, , 
35.25, 0.080462, , 
35.28, 0.080507, , 
35.31, 0.080551, , 
35.34, 0.080507, , 
35.37, 0.080513, , 
35.40, 0.080637, , 
35.43, 0.080811, , 
35.46, 0.080888, , 
35.49, 0.080929, , 
35.52, 0.080941, , 
35.55, 0.080935, , 
35.58, 0.080919, , 
35.61, 0.080926, , 
35.64, 0.081014, , 
35.67, 0.081132, , 
35.70, 0.081281, , 
35.73, 0.081344, , 
35.76, 0.081401, , 
35.79, 0.081424, , 
35.82, 0.081389, , 
35.85, 0.081386, , 
35.88, 0.081411, , 
35.91, 0.081405, , 
35.94, 0.081379, , 
35.97, 0.081370, , 
36.00, 0.081392, , 
36.03, 0.081503, , 
36.06, 0.081652, , 
36.09, 0.081731, , 
36.12, 0.081826, , 
36.15, 0.081893, , 
36.18, 0.081918, , 
36.21, 0.081915, , 
36.24, 0.081912, , 
36.27, 0.081956, , 
36.30, 0.081918, , 
36.33, 0.081906, , 
36.36, 0.081975, , 
36.39, 0.082010, , 
36.42, 0.081979, , 
36.45, 0.081937, , 
36.48, 0.081941, , 
36.51, 0.081969, , 
36.54, 0.081960, , 
36.57, 0.081899, , 
36.60, 0.081845, , 
36.63, 0.081728, , 
36.66, 0.081579, , 
36.69, 0.081484, , 
36.72, 0.081487, , 
36.75, 0.081427, , 
36.78, 0.081294, , 
36.81, 0.081106, , 
36.84, 0.081033, , 
36.87, 0.081008, , 
36.90, 0.080805, , 
36.93, 0.080659, , 
36.96, 0.080624, , 
36.99, 0.080554, , 
37.02, 0.080396, , 
37.05, 0.080278, , 
37.08, 0.080145, , 
37.11, 0.080075, , 
37.14, 0.079977, , 
37.17, 0.079806, , 
37.20, 0.079698, , 
37.23, 0.079549, , 
37.26, 0.079394, , 
37.29, 0.079219, , 
37.32, 0.079111, , 
37.35, 0.078965, , 
37.38, 0.078753, , 
37.41, 0.078566, , 
37.44, 0.078337, , 
37.47, 0.078090, , 
37.50, 0.077855, , 
37.53, 0.077617, , 
37.56, 0.077376, , 
37.59, 0.077094, , 
37.62, 0.076789, , 
37.65, 0.076504, , 
37.68, 0.076282, , 
37.71, 0.076034, , 
37.74, 0.075635, , 
37.77, 0.075362, , 
37.80, 0.075137, , 
37.83, 0.074842, , 
37.86, 0.074518, , 
37.89, 0.074214, , 
37.92, 0.073941, , 
37.95, 0.073560, , 
37.98, 0.073262, , 
38.01, 0.073008, , 
38.04, 0.072777, , 
38.07, 0.072539, , 
38.10, 0.072187, , 
38.13, 0.071892, , 
38.16, 0.071679, , 
38.19, 0.071391, , 
38.22, 0.071150, , 
38.26, 0.070877, , 
38.28, 0.070610, , 
38.31, 0.070309, , 
38.34, 0.069967, , 
38.37, 0.069687, , 
38.39, 0.069510, 12, 0.585
38.40, 0.069430, , 
38.43, 0.069110, , 
38.46, 0.068917, , 
38.49, 0.068666, , 
38.52, 0.068406, , 
38.55, 0.068086, , 
38.58, 0.067756, , 
38.61, 0.067521, , 
38.64, 0.067286, , 
38.67, 0.066982, , 
38.70, 0.066725, , 
38.73, 0.066414, , 
38.76, 0.066201, , 
38.79, 0.065970, , 
38.82, 0.065659, , 
38.85, 0.065443, , 
38.89, 0.065205, , 
38.91, 0.065028, , 
38.94, 0.064784, , 
38.97, 0.064539, , 
39.00, 0.064368, , 
39.03, 0.064105, , 
39.06, 0.063876, , 
39.09, 0.063654, , 
39.12, 0.063451, , 
39.15, 0.063277, , 
39.18, 0.063137, , 
39.21, 0.062909, , 
39.24, 0.062712, , 
39.27, 0.062563, , 
39.30, 0.062351, , 
39.33, 0.062205, , 
39.36, 0.062021, , 
39.39, 0.061837, , 
39.42, 0.061688, , 
39.45, 0.061542, , 
39.48, 0.061393, , 
39.51, 0.061199, , 
39.54, 0.060952, , 
39.57, 0.060784, , 
39.60, 0.060663, , 
39.63, 0.060482, , 
39.66, 0.060289, , 
39.69, 0.060115, , 
39.72, 0.059959, , 
39.75, 0.059788, , 
39.78, 0.059601, , 
39.81, 0.059433, , 
39.84, 0.059271, , 
39.87, 0.059185, , 
39.90, 0.059119, , 
39.93, 0.058973, , 
39.96, 0.058877, , 
39.99, 0.058678, , 
40.02, 0.058643, , 
40.05, 0.058624, , 
40.08, 0.058503, , 
40.11, 0.058392, , 
40.14, 0.058240, , 
40.17, 0.058199, , 
40.20, 0.058208, , 
40.23, 0.058031, , 
40.26, 0.057894, , 
40.30, 0.057783, , 
40.32, 0.057745, , 
40.35, 0.057694, , 
40.38, 0.057644, , 
40.41, 0.057701, , 
40.44, 0.057659, , 
40.47, 0.057523, , 
40.50, 0.057383, , 
40.53, 0.057234, , 
40.56, 0.057199, , 
40.59, 0.057161, , 
40.62, 0.057187, , 
40.65, 0.057174, , 
40.68, 0.057149, , 
40.71, 0.057127, , 
40.74, 0.057117, , 
40.77, 0.057142, , 
40.80, 0.057165, , 
40.83, 0.057149, , 
40.86, 0.057133, , 
40.89, 0.057171, , 
40.92, 0.057165, , 
40.95, 0.057120, , 
40.98, 0.057114, , 
41.01, 0.057184, , 
41.04, 0.057174, , 
41.07, 0.057123, , 
41.10, 0.057120, , 
41.13, 0.057190, , 
41.16, 0.057301, , 
41.19, 0.057437, , 
41.22, 0.057504, , 
41.25, 0.057609, , 
41.28, 0.057634, , 
41.31, 0.057640, , 
41.34, 0.057710, , 
41.37, 0.057856, , 
41.40, 0.057992, , 
41.43, 0.058053, , 
41.46, 0.058126, , 
41.49, 0.058281, , 
41.52, 0.058446, , 
41.55, 0.058494, , 
41.58, 0.058589, , 
41.59, 0.058624, 13, 0.586
41.61, 0.058671, , 
41.64, 0.058763, , 
41.67, 0.058893, , 
41.70, 0.059023, , 
41.74, 0.059172, , 
41.76, 0.059287, , 
41.79, 0.059417, , 
41.82, 0.059566, , 
41.85, 0.059731, , 
41.88, 0.059912, , 
41.91, 0.060045, , 
41.94, 0.060184, , 
41.97, 0.060400, , 
42.00, 0.060606, , 
42.03, 0.060771, , 
42.06, 0.060939, , 
42.09, 0.061142, , 
42.12, 0.061304, , 
42.16, 0.061466, , 
42.18, 0.061681, , 
42.21, 0.061824, , 
42.24, 0.061980, , 
42.27, 0.062151, , 
42.30, 0.062360, , 
42.33, 0.062614, , 
42.36, 0.062763, , 
42.39, 0.062871, , 
42.42, 0.063061, , 
42.45, 0.063223, , 
42.48, 0.063467, , 
42.51, 0.063673, , 
42.54, 0.063842, , 
42.57, 0.064016, , 
42.60, 0.064146, , 
42.63, 0.064308, , 
42.66, 0.064514, , 
42.69, 0.064730, , 
42.72, 0.064898, , 
42.75, 0.065018, , 
42.78, 0.065218, , 
42.81, 0.065370, , 
42.84, 0.065526, , 
42.87, 0.065681, , 
42.90, 0.065872, , 
42.93, 0.066033, , 
42.96, 0.066173, , 
42.99, 0.066265, , 
43.02, 0.066452, , 
43.05, 0.066582, , 
43.08, 0.066728, , 
43.11, 0.066829, , 
43.14, 0.067020, , 
43.17, 0.067296, , 
43.20, 0.067362, , 
43.23, 0.067432, , 
43.26, 0.067527, , 
43.29, 0.067670, , 
43.32, 0.067803, , 
43.35, 0.067864, , 
43.38, 0.068000, , 
43.41, 0.068019, , 
43.44, 0.068092, , 
43.47, 0.068263, , 
43.50, 0.068371, , 
43.53, 0.068495, , 
43.56, 0.068501, , 
43.59, 0.068488, , 
43.62, 0.068552, , 
43.65, 0.068688, , 
43.68, 0.068809, , 
43.71, 0.068850, , 
43.74, 0.068913, , 
43.77, 0.068961, , 
43.80, 0.068932, , 
43.83, 0.068971, , 
43.86, 0.069015, , 
43.89, 0.069040, , 
43.92, 0.069005, , 
43.95, 0.068990, , 
43.98, 0.069015, , 
44.01, 0.069015, , 
44.04, 0.068993, , 
44.07, 0.068952, , 
44.10, 0.068875, , 
44.13, 0.068783, , 
44.16, 0.068641, , 
44.19, 0.068618, , 
44.22, 0.068593, , 
44.25, 0.068555, , 
44.28, 0.068460, , 
44.32, 0.068377, , 
44.34, 0.068266, , 
44.37, 0.068159, , 
44.40, 0.068051, , 
44.43, 0.067905, , 
44.46, 0.067813, , 
44.49, 0.067708, , 
44.53, 0.067524, , 
44.55, 0.067343, , 
44.58, 0.067248, , 
44.61, 0.067131, , 
44.64, 0.066902, , 
44.67, 0.066750, , 
44.70, 0.066544, , 
44.73, 0.066363, , 
44.76, 0.066160, , 
44.79, 0.066046, 14, 0.585
44.79, 0.066008, , 
44.82, 0.065862, , 
44.85, 0.065659, , 
44.88, 0.065380, , 
44.91, 0.065186, , 
44.94, 0.065041, , 
44.97, 0.064818, , 
45.00, 0.064530, , 
45.03, 0.064384, , 
45.06, 0.064257, , 
45.09, 0.064029, , 
45.12, 0.063832, , 
45.15, 0.063632, , 
45.18, 0.063432, , 
45.21, 0.063207, , 
45.24, 0.062969, , 
45.27, 0.062731, , 
45.30, 0.062535, , 
45.33, 0.062281, , 
45.36, 0.062008, , 
45.40, 0.061754, , 
45.42, 0.061602, , 
45.45, 0.061393, , 
45.48, 0.061079, , 
45.51, 0.060892, , 
45.54, 0.060768, , 
45.57, 0.060590, , 
45.60, 0.060416, , 
45.63, 0.060191, , 
45.66, 0.060019, , 
45.69, 0.059813, , 
45.72, 0.059705, , 
45.75, 0.059623, , 
45.78, 0.059496, , 
45.81, 0.059356, , 
45.84, 0.059214, , 
45.87, 0.059077, , 
45.90, 0.058941, , 
45.93, 0.058766, , 
45.96, 0.058684, , 
45.99, 0.058633, , 
46.02, 0.058595, , 
46.05, 0.058484, , 
46.08, 0.058256, , 
46.11, 0.058183, , 
46.14, 0.058142, , 
46.17, 0.058005, , 
46.20, 0.057847, , 
46.23, 0.057780, , 
46.26, 0.057713, , 
46.29, 0.057621, , 
46.32, 0.057615, , 
46.35, 0.057586, , 
46.38, 0.057437, , 
46.41, 0.057282, , 
46.44, 0.057196, , 
46.47, 0.057193, , 
46.50, 0.057193, , 
46.53, 0.057161, , 
46.56, 0.057142, , 
46.59, 0.057149, , 
46.62, 0.057161, , 
46.65, 0.057117, , 
46.68, 0.057111, , 
46.71, 0.057193, , 
46.74, 0.057304, , 
46.77, 0.057437, , 
46.80, 0.057529, , 
46.83, 0.057580, , 
46.86, 0.057618, , 
46.89, 0.057602, , 
46.92, 0.057631, , 
46.95, 0.057729, , 
46.98, 0.057900, , 
47.01, 0.057970, , 
47.04, 0.058043, , 
47.07, 0.058094, , 
47.10, 0.058104, , 
47.13, 0.058135, , 
47.16, 0.058249, , 
47.19, 0.058443, , 
47.22, 0.058535, , 
47.25, 0.058551, , 
47.28, 0.058601, , 
47.31, 0.058640, , 
47.34, 0.058709, , 
47.37, 0.058811, , 
47.40, 0.058976, , 
47.43, 0.059071, , 
47.46, 0.059134, , 
47.49, 0.059277, , 
47.52, 0.059439, , 
47.55, 0.059547, , 
47.58, 0.059591, , 
47.61, 0.059667, , 
47.64, 0.059832, , 
47.67, 0.060023, , 
47.70, 0.060156, , 
47.73, 0.060264, , 
47.76, 0.060441, , 
47.79, 0.060606, , 
47.82, 0.060768, , 
47.85, 0.060892, , 
47.88, 0.061038, , 
47.91, 0.061250, , 
47.94, 0.061386, , 
47.97, 0.061494, , 
47.99, 0.061583, 15, 0.586
48.00, 0.061688, , 
48.03, 0.061865, , 
48.06, 0.061989, , 
48.09, 0.062097, , 
48.12, 0.062351, , 
48.15, 0.062440, , 
48.18, 0.062471, , 
48.21, 0.062604, , 
48.24, 0.062795, , 
48.27, 0.062953, , 
48.30, 0.062995, , 
48.33, 0.063134, , 
48.36, 0.063340, , 
48.39, 0.063493, , 
48.42, 0.063648, , 
48.45, 0.063788, , 
48.48, 0.063911, , 
48.51, 0.064086, , 
48.54, 0.064260, , 
48.57, 0.064368, , 
48.60, 0.064514, , 
48.63, 0.064641, , 
48.66, 0.064749, , 
48.69, 0.064841, , 
48.72, 0.064961, , 
48.75, 0.065126, , 
48.78, 0.065297, , 
48.81, 0.065437, , 
48.84, 0.065532, , 
48.87, 0.065551, , 
48.90, 0.065564, , 
48.93, 0.065694, , 
48.96, 0.065856, , 
48.99, 0.065957, , 
49.02, 0.065995, , 
49.05, 0.066052, , 
49.08, 0.066113, , 
49.11, 0.066116, , 
49.14, 0.066157, , 
49.17, 0.066284, , 
49.20, 0.066401, , 
49.23, 0.066487, , 
49.26, 0.066487, , 
49.29, 0.066550, , 
49.32, 0.066573, , 
49.35, 0.066557, , 
49.38, 0.066554, , 
49.41, 0.066550, , 
49.44, 0.066560, , 
49.47, 0.066560, , 
49.50, 0.066541, , 
49.53, 0.066563, , 
49.56, 0.066547, , 
49.59, 0.066360, , 
49.62, 0.066220, , 
49.65, 0.066157, , 
49.68, 0.066128, , 
49.71, 0.066087, , 
49.74, 0.066030, , 
49.77, 0.066090, , 
49.80, 0.066011, , 
49.83, 0.065827, , 
49.86, 0.065700, , 
49.89, 0.065640, , 
49.93, 0.065611, , 
49.95, 0.065532, , 
49.98, 0.065393, , 
50.01, 0.065288, , 
50.04, 0.065171, , 
50.07, 0.065085, , 
50.10, 0.064901, , 
50.13, 0.064780, , 
50.16, 0.064695, , 
50.19, 0.064565, , 
50.22, 0.064390, , 
50.25, 0.064305, , 
50.28, 0.064165, , 
50.31, 0.063914, , 
50.34, 0.063756, , 
50.37, 0.063651, , 
50.40, 0.063512, , 
50.43, 0.063318, , 
50.46, 0.063188, , 
50.49, 0.063096, , 
50.53, 0.062884, , 
50.55, 0.062728, , 
50.58, 0.062557, , 
50.61, 0.062357, , 
50.64, 0.062259, , 
50.67, 0.062198, , 
50.70, 0.062097, , 
50.73, 0.061964, , 
50.76, 0.061808, , 
50.79, 0.061720, , 
50.82, 0.061631, , 
50.85, 0.061510, , 
50.88, 0.061383, , 
50.91, 0.061209, , 
50.94, 0.061130, , 
50.97, 0.061088, , 
51.00, 0.060955, , 
51.04, 0.060762, , 
51.06, 0.060660, , 
51.09, 0.060619, , 
51.12, 0.060521, , 
51.15, 0.060321, , 
51.18, 0.060245, , 
51.20, 0.060197, 16, 0.587
51.21, 0.060194, , 
51.24, 0.060165, , 
51.27, 0.060130, , 
51.30, 0.060140, , 
51.33, 0.060054, , 
51.36, 0.059931, , 
51.39, 0.059740, , 
51.42, 0.059639, , 
51.45, 0.059648, , 
51.48, 0.059607, , 
51.51, 0.059569, , 
51.54, 0.059566, , 
51.57, 0.059601, , 
51.60, 0.059591, , 
51.63, 0.059582, , 
51.66, 0.059585, , 
51.69, 0.059582, , 
51.72, 0.059594, , 
51.75, 0.059591, , 
51.78, 0.059597, , 
51.81, 0.059607, , 
51.84, 0.059597, , 
51.87, 0.059702, , 
51.90, 0.059877, , 
51.93, 0.059991, , 
51.96, 0.060051, , 
51.99, 0.060076, , 
52.02, 0.060095, , 
52.05, 0.060111, , 
52.08, 0.060108, , 
52.11, 0.060134, , 
52.14, 0.060286, , 
52.17, 0.060479, , 
52.20, 0.060521, , 
52.23, 0.060540, , 
52.27, 0.060613, , 
52.29, 0.060644, , 
52.32, 0.060698, , 
52.35, 0.060812, , 
52.38, 0.060965, , 
52.41, 0.061076, , 
52.44, 0.061066, , 
52.47, 0.061079, , 
52.50, 0.061180, , 
52.53, 0.061272, , 
52.56, 0.061371, , 
52.59, 0.061526, , 
52.62, 0.061596, , 
52.65, 0.061720, , 
52.68, 0.061831, , 
52.71, 0.061983, , 
52.74, 0.062059, , 
52.77, 0.062183, , 
52.80, 0.062281, , 
52.83, 0.062414, , 
52.86, 0.062544, , 
52.89, 0.062611, , 
52.92, 0.062719, , 
52.95, 0.062874, , 
52.98, 0.063007, , 
53.01, 0.063102, , 
53.04, 0.063172, , 
53.07, 0.063305, , 
53.10, 0.063474, , 
53.13, 0.063547, , 
53.16, 0.063667, , 
53.19, 0.063769, , 
53.22, 0.063930, , 
53.25, 0.064019, , 
53.28, 0.064060, , 
53.31, 0.064111, , 
53.34, 0.064219, , 
53.37, 0.064333, , 
53.40, 0.064441, , 
53.43, 0.064517, , 
53.46, 0.064603, , 
53.49, 0.064593, , 
53.52, 0.064587, , 
53.55, 0.064717, , 
53.58, 0.064907, , 
53.61, 0.064964, , 
53.64, 0.064996, , 
53.67, 0.065041, , 
53.70, 0.065079, , 
53.73, 0.065060, , 
53.76, 0.065063, , 
53.79, 0.065098, , 
53.82, 0.065110, , 
53.85, 0.065088, , 
53.88, 0.065041, , 
53.91, 0.065050, , 
53.94, 0.065053, , 
53.97, 0.065031, , 
54.01, 0.065037, , 
54.03, 0.065069, , 
54.06, 0.065098, , 
54.09, 0.065107, , 
54.12, 0.065088, , 
54.15, 0.065101, , 
54.18, 0.065075, , 
54.21, 0.065053, , 
54.24, 0.064974, , 
54.27, 0.064891, , 
54.30, 0.064714, , 
54.33, 0.064644, , 
54.36, 0.064603, , 
54.39, 0.064612, 17, 0.585
54.40, 0.064635, , 
54.42, 0.064615, , 
54.45, 0.064546, , 
54.48, 0.064441, , 
54.51, 0.064295, , 
54.54, 0.064219, , 
54.57, 0.064146, , 
54.60, 0.064076, , 
54.63, 0.064089, , 
54.66, 0.064051, , 
54.69, 0.063876, , 
54.72, 0.063775, , 
54.75, 0.063677, , 
54.78, 0.063594, , 
54.81, 0.063458, , 
54.84, 0.063318, , 
54.87, 0.063191, , 
54.90, 0.063102, , 
54.93, 0.063071, , 
54.96, 0.063026, , 
54.99, 0.062912, , 
55.02, 0.062776, , 
55.05, 0.062643, , 
55.08, 0.062604, , 
55.11, 0.062595, , 
55.14, 0.062570, , 
55.17, 0.062500, , 
55.20, 0.062465, , 
55.23, 0.062386, , 
55.26, 0.062214, , 
55.29, 0.062119, , 
55.32, 0.062091, , 
55.35, 0.062110, , 
55.38, 0.062113, , 
55.41, 0.062065, , 
55.44, 0.062065, , 
55.47, 0.062046, , 
55.50, 0.062056, , 
55.53, 0.062062, , 
55.56, 0.062056, , 
55.59, 0.062068, , 
55.62, 0.062030, , 
55.65, 0.062065, , 
55.68, 0.062091, , 
55.71, 0.062062, , 
55.74, 0.062059, , 
55.77, 0.062040, , 
55.80, 0.062072, , 
55.83, 0.062078, , 
55.86, 0.062087, , 
55.89, 0.062043, , 
55.92, 0.062062, , 
55.95, 0.062094, , 
55.98, 0.062068, , 
56.01, 0.062081, , 
56.04, 0.062087, , 
56.07, 0.062081, , 
56.10, 0.062068, , 
56.13, 0.062103, , 
56.16, 0.062110, , 
56.19, 0.062113, , 
56.22, 0.062176, , 
56.25, 0.062294, , 
56.28, 0.062436, , 
56.31, 0.062532, , 
56.34, 0.062551, , 
56.37, 0.062551, , 
56.40, 0.062604, , 
56.43, 0.062627, , 
56.47, 0.062709, , 
56.49, 0.062833, , 
56.52, 0.062931, , 
56.55, 0.063007, , 
56.58, 0.063083, , 
56.61, 0.063175, , 
56.64, 0.063340, , 
56.67, 0.063404, , 
56.70, 0.063451, , 
56.73, 0.063531, , 
56.76, 0.063559, , 
56.79, 0.063531, , 
56.82, 0.063572, , 
56.85, 0.063696, , 
56.88, 0.063829, , 
56.91, 0.063905, , 
56.94, 0.063962, , 
56.97, 0.063984, , 
57.00, 0.064045, , 
57.03, 0.064026, , 
57.06, 0.064013, , 
57.09, 0.064026, , 
57.12, 0.064067, , 
57.15, 0.064073, , 
57.18, 0.064130, , 
57.21, 0.064254, , 
57.24, 0.064349, , 
57.27, 0.064435, , 
57.30, 0.064438, , 
57.33, 0.064482, , 
57.36, 0.064501, , 
57.39, 0.064511, , 
57.42, 0.064517, , 
57.45, 0.064501, , 
57.48, 0.064504, , 
57.51, 0.064508, , 
57.54, 0.064473, , 
57.57, 0.064501, , 
57.58, 0.064511, 18, 0.584
57.60, 0.064489, , 
57.63, 0.064485, , 
57.66, 0.064485, , 
57.69, 0.064511, , 
57.72, 0.064489, , 
57.75, 0.064454, , 
57.78, 0.064508, , 
57.81, 0.064543, , 
57.84, 0.064511, , 
57.87, 0.064473, , 
57.90, 0.064463, , 
57.93, 0.064501, , 
57.96, 0.064485, , 
57.99, 0.064451, , 
58.02, 0.064498, , 
58.05, 0.064463, , 
58.08, 0.064314, , 
58.11, 0.064184, , 
58.14, 0.064108, , 
58.17, 0.064070, , 
58.20, 0.064083, , 
58.23, 0.064035, , 
58.26, 0.064032, , 
58.29, 0.064070, , 
58.32, 0.064029, , 
58.35, 0.063987, , 
58.38, 0.064051, , 
58.41, 0.064029, , 
58.44, 0.063905, , 
58.47, 0.063816, , 
58.50, 0.063702, , 
58.53, 0.063629, , 
58.56, 0.063588, , 
58.59, 0.063569, , 
58.62, 0.063566, , 
58.66, 0.063543, , 
58.68, 0.063528, , 
58.71, 0.063531, , 
58.74, 0.063543, , 
58.77, 0.063556, , 
58.80, 0.063550, , 
58.83, 0.063547, , 
58.86, 0.063540, , 
58.89, 0.063496, , 
58.92, 0.063474, , 
58.95, 0.063518, , 
58.98, 0.063578, , 
59.01, 0.063556, , 
59.04, 0.063547, , 
59.07, 0.063528, , 
59.10, 0.063585, , 
59.13, 0.063572, , 
59.16, 0.063489, , 
59.19, 0.063528, , 
59.22, 0.063581, , 
59.25, 0.063543, , 
59.28, 0.063521, , 
59.31, 0.063528, , 
59.34, 0.063553, , 
59.37, 0.063518, , 
59.40, 0.063486, , 
59.43, 0.063543, , 
59.46, 0.063619, , 
59.49, 0.063689, , 
59.52, 0.063775, , 
59.55, 0.063914, , 
59.58, 0.064026, , 
59.61, 0.064016, , 
59.64, 0.064003, , 
59.67, 0.064045, , 
59.70, 0.064098, , 
59.73, 0.064051, , 
59.76, 0.064041, , 
59.79, 0.064086, , 
59.82, 0.064108, , 
59.85, 0.064181, , 
59.88, 0.064324, , 
59.91, 0.064444, , 
59.94, 0.064527, , 
59.97, 0.064501, , 
60.00, 0.064454, , 
60.03, 0.064523, , 
60.06, 0.064577, , 
60.09, 0.064619, , 
60.12, 0.064714, , 
60.15, 0.064857, , 
60.18, 0.064949, , 
60.21, 0.064920, , 
60.24, 0.064930, , 
60.27, 0.064968, , 
60.30, 0.065002, , 
60.33, 0.064949, , 
60.36, 0.064942, , 
60.39, 0.064993, , 
60.42, 0.064999, , 
60.45, 0.064980, , 
60.48, 0.064971, , 
60.51, 0.065006, , 
60.54, 0.064974, , 
60.57, 0.064907, , 
60.60, 0.064749, , 
60.63, 0.064682, , 
60.66, 0.064574, , 
60.69, 0.064527, , 
60.72, 0.064492, , 
60.75, 0.064520, , 
60.78, 0.064492, , 
60.79, 0.064479, 19, 0.586
60.81, 0.064523, , 
60.84, 0.064539, , 
60.87, 0.064533, , 
60.90, 0.064470, , 
60.93, 0.064282, , 
60.96, 0.064140, , 
60.99, 0.064121, , 
61.02, 0.064051, , 
61.05, 0.064016, , 
61.08, 0.064019, , 
61.11, 0.064054, , 
61.14, 0.064032, , 
61.17, 0.063978, , 
61.20, 0.064000, , 
61.23, 0.064035, , 
61.26, 0.063987, , 
61.30, 0.064010, , 
61.32, 0.064041, , 
61.35, 0.064041, , 
61.38, 0.064006, , 
61.41, 0.063997, , 
61.44, 0.063997, , 
61.47, 0.064038, , 
61.51, 0.063997, , 
61.53, 0.063978, , 
61.56, 0.064041, , 
61.59, 0.064035, , 
61.62, 0.063975, , 
61.65, 0.063914, , 
61.68, 0.063819, , 
61.71, 0.063689, , 
61.74, 0.063588, , 
61.77, 0.063604, , 
61.80, 0.063597, , 
61.83, 0.063547, , 
61.86, 0.063477, , 
61.89, 0.063502, , 
61.92, 0.063524, , 
61.95, 0.063572, , 
61.98, 0.063734, , 
62.01, 0.063857, , 
62.04, 0.063972, , 
62.07, 0.063987, , 
62.10, 0.064000, , 
62.13, 0.064026, , 
62.16, 0.064064, , 
62.19, 0.064003, , 
62.22, 0.063978, , 
62.25, 0.064003, , 
62.28, 0.064079, , 
62.31, 0.064067, , 
62.34, 0.064022, , 
62.37, 0.064035, , 
62.40, 0.064045, , 
62.43, 0.064026, , 
62.46, 0.064048, , 
62.49, 0.064032, , 
62.52, 0.064022, , 
62.55, 0.064032, , 
62.58, 0.064060, , 
62.61, 0.064111, , 
62.64, 0.064067, , 
62.67, 0.064016, , 
62.70, 0.064032, , 
62.73, 0.064064, , 
62.76, 0.064060, , 
62.79, 0.064016, , 
62.82, 0.064054, , 
62.85, 0.064067, , 
62.88, 0.064051, , 
62.91, 0.064032, , 
62.94, 0.064022, , 
62.97, 0.064067, , 
63.00, 0.064064, , 
63.03, 0.064041, , 
63.06, 0.064076, , 
63.09, 0.064117, , 
63.12, 0.064108, , 
63.15, 0.064048, , 
63.18, 0.064000, , 
63.21, 0.063867, , 
63.24, 0.063740, , 
63.27, 0.063639, , 
63.30, 0.063604, , 
63.33, 0.063597, , 
63.36, 0.063566, , 
63.39, 0.063540, , 
63.42, 0.063585, , 
63.45, 0.063569, , 
63.48, 0.063547, , 
63.51, 0.063505, , 
63.54, 0.063508, , 
63.57, 0.063559, , 
63.60, 0.063537, , 
63.63, 0.063483, , 
63.66, 0.063391, , 
63.69, 0.063309, , 
63.72, 0.063182, , 
63.75, 0.063090, , 
63.78, 0.063071, , 
63.81, 0.063055, , 
63.84, 0.063030, , 
63.87, 0.062982, , 
63.90, 0.063007, , 
63.93, 0.063058, , 
63.96, 0.063036, , 
63.99, 0.063004, , 
64.00, 0.063014, 20, 0.587
64.02, 0.063074, , 
64.05, 0.063090, , 
64.08, 0.063083, , 
64.11, 0.063045, , 
64.14, 0.063109, , 
64.17, 0.063083, , 
64.20, 0.063039, , 
64.23, 0.063026, , 
64.26, 0.063087, , 
64.29, 0.063077, , 
64.32, 0.063039, , 
64.35, 0.063030, , 
64.38, 0.063071, , 
64.41, 0.063058, , 
64.44, 0.063042, , 
64.47, 0.063042, , 
64.50, 0.063039, , 
64.53, 0.063026, , 
64.56, 0.063026, , 
64.59, 0.063030, , 
64.62, 0.063077, , 
64.65, 0.063064, , 
64.68, 0.063036, , 
64.71, 0.063036, , 
64.74, 0.063042, , 
64.77, 0.063030, , 
64.80, 0.063010, , 
64.83, 0.063033, , 
64.86, 0.063064, , 
64.89, 0.063020, , 
64.92, 0.063030, , 
64.95, 0.063064, , 
64.98, 0.063093, , 
65.01, 0.063074, , 
65.04, 0.063026, , 
65.07, 0.063055, , 
65.10, 0.063080, , 
65.13, 0.063036, , 
65.16, 0.063039, , 
65.19, 0.063030, , 
65.22, 0.063093, , 
65.25, 0.063052, , 
65.28, 0.063039, , 
65.31, 0.063080, , 
65.34, 0.063099, , 
65.37, 0.063033, , 
65.40, 0.063007, , 
65.43, 0.063033, , 
65.46, 0.063064, , 
65.49, 0.063023, , 
65.52, 0.063014, , 
65.55, 0.063030, , 
65.58, 0.062960, , 
65.61, 0.062833, , 
65.64, 0.062674, , 
65.67, 0.062620, , 
65.70, 0.062579, , 
65.73, 0.062519, , 
65.76, 0.062490, , 
65.79, 0.062525, , 
65.82, 0.062522, , 
65.85, 0.062462, , 
65.88, 0.062433, , 
65.91, 0.062459, , 
65.94, 0.062497, , 
65.97, 0.062484, , 
66.00, 0.062500, , 
66.03, 0.062522, , 
66.06, 0.062509, , 
66.09, 0.062468, , 
66.12, 0.062452, , 
66.15, 0.062462, , 
66.18, 0.062440, , 
66.21, 0.062376, , 
66.24, 0.062360, , 
66.27, 0.062268, , 
66.30, 0.062113, , 
66.34, 0.062053, , 
66.36, 0.062037, , 
66.39, 0.061989, , 
66.42, 0.061938, , 
66.45, 0.061954, , 
66.48, 0.061967, , 
66.51, 0.061983, , 
66.54, 0.061973, , 
66.57, 0.061935, , 
66.60, 0.061954, , 
66.63, 0.061942, , 
66.66, 0.061802, , 
66.69, 0.061647, , 
66.72, 0.061608, , 
66.75, 0.061558, , 
66.78, 0.061510, , 
66.81, 0.061488, , 
66.84, 0.061513, , 
66.87, 0.061542, , 
66.90, 0.061536, , 
66.93, 0.061485, , 
66.96, 0.061488, , 
66.99, 0.061526, , 
67.02, 0.061526, , 
67.05, 0.061513, , 
67.08, 0.061551, , 
67.11, 0.061551, , 
67.14, 0.061539, , 
67.17, 0.061532, , 
67.19, 0.061523, 21, 0.585
67.20, 0.061542, , 
67.23, 0.061577, , 
67.26, 0.061570, , 
67.29, 0.061551, , 
67.32, 0.061564, , 
67.35, 0.061577, , 
67.38, 0.061583, , 
67.41, 0.061567, , 
67.44, 0.061548, , 
67.47, 0.061497, , 
67.50, 0.061339, , 
67.53, 0.061244, , 
67.56, 0.061152, , 
67.59, 0.061114, , 
67.62, 0.061072, , 
67.65, 0.061057, , 
67.68, 0.061091, , 
67.71, 0.061082, , 
67.74, 0.061022, , 
67.77, 0.061031, , 
67.80, 0.061066, , 
67.83, 0.061085, , 
67.86, 0.061028, , 
67.89, 0.061031, , 
67.92, 0.061088, , 
67.95, 0.061076, , 
67.98, 0.061025, , 
68.01, 0.061034, , 
68.04, 0.061057, , 
68.07, 0.060980, , 
68.10, 0.060857, , 
68.13, 0.060724, , 
68.16, 0.060698, , 
68.19, 0.060613, , 
68.22, 0.060587, , 
68.25, 0.060622, , 
68.28, 0.060613, , 
68.31, 0.060597, , 
68.34, 0.060549, , 
68.37, 0.060555, , 
68.40, 0.060597, , 
68.43, 0.060574, , 
68.46, 0.060552, , 
68.49, 0.060568, , 
68.52, 0.060546, , 
68.55, 0.060429, , 
68.58, 0.060330, , 
68.61, 0.060264, , 
68.64, 0.060172, , 
68.67, 0.060118, , 
68.70, 0.060105, , 
68.73, 0.060092, , 
68.76, 0.060121, , 
68.79, 0.060118, , 
68.82, 0.060108, , 
68.85, 0.060127, , 
68.88, 0.060111, , 
68.91, 0.060092, , 
68.94, 0.060102, , 
68.97, 0.060102, , 
69.00, 0.060019, , 
69.03, 0.059826, , 
69.06, 0.059708, , 
69.09, 0.059718, , 
69.12, 0.059645, , 
69.15, 0.059575, , 
69.18, 0.059575, , 
69.21, 0.059604, , 
69.24, 0.059601, , 
69.27, 0.059572, , 
69.30, 0.059563, , 
69.33, 0.059509, , 
69.36, 0.059360, , 
69.39, 0.059252, , 
69.42, 0.059191, , 
69.45, 0.059169, , 
69.48, 0.059125, , 
69.51, 0.059093, , 
69.54, 0.059106, , 
69.57, 0.059134, , 
69.60, 0.059119, , 
69.63, 0.059109, , 
69.66, 0.059128, , 
69.69, 0.059103, , 
69.72, 0.059106, , 
69.75, 0.059093, , 
69.78, 0.059112, , 
69.81, 0.059166, , 
69.84, 0.059144, , 
69.87, 0.059109, , 
69.90, 0.059058, , 
69.93, 0.058985, , 
69.96, 0.058795, , 
69.99, 0.058738, , 
70.02, 0.058693, , 
70.05, 0.058668, , 
70.08, 0.058617, , 
70.12, 0.058586, , 
70.14, 0.058605, , 
70.17, 0.058608, , 
70.20, 0.058608, , 
70.23, 0.058582, , 
70.26, 0.058598, , 
70.29, 0.058611, , 
70.32, 0.058595, , 
70.35, 0.058484, , 
70.38, 0.058424, , 
70.39, 0.058389, 22, 0.585
70.41, 0.058281, , 
70.44, 0.058170, , 
70.47, 0.058148, , 
70.50, 0.058167, , 
70.53, 0.058167, , 
70.56, 0.058097, , 
70.59, 0.058110, , 
70.62, 0.058151, , 
70.65, 0.058113, , 
70.68, 0.058097, , 
70.71, 0.058100, , 
70.74, 0.058116, , 
70.77, 0.058132, , 
70.80, 0.058078, , 
70.83, 0.058094, , 
70.86, 0.058151, , 
70.89, 0.058069, , 
70.92, 0.057897, , 
70.95, 0.057796, , 
70.98, 0.057736, , 
71.01, 0.057659, , 
71.04, 0.057628, , 
71.07, 0.057602, , 
71.10, 0.057621, , 
71.13, 0.057612, , 
71.16, 0.057580, , 
71.19, 0.057514, , 
71.22, 0.057403, , 
71.25, 0.057272, , 
71.28, 0.057203, , 
71.31, 0.057196, , 
71.34, 0.057199, , 
71.37, 0.057133, , 
71.40, 0.057088, , 
71.43, 0.057095, , 
71.46, 0.057016, , 
71.49, 0.056857, , 
71.52, 0.056711, , 
71.56, 0.056670, , 
71.58, 0.056641, , 
71.61, 0.056610, , 
71.64, 0.056610, , 
71.67, 0.056616, , 
71.70, 0.056625, , 
71.73, 0.056578, , 
71.76, 0.056568, , 
71.79, 0.056571, , 
71.82, 0.056508, , 
71.85, 0.056334, , 
71.88, 0.056261, , 
71.91, 0.056248, , 
71.94, 0.056172, , 
71.97, 0.056121, , 
72.00, 0.056092, , 
72.03, 0.056099, , 
72.06, 0.056105, , 
72.09, 0.056032, , 
72.12, 0.056054, , 
72.15, 0.056115, , 
72.18, 0.056118, , 
72.21, 0.056058, , 
72.24, 0.055915, , 
72.27, 0.055788, , 
72.30, 0.055677, , 
72.33, 0.055620, , 
72.36, 0.055617, , 
72.39, 0.055655, , 
72.42, 0.055604, , 
72.45, 0.055563, , 
72.48, 0.055566, , 
72.51, 0.055588, , 
72.54, 0.055572, , 
72.57, 0.055563, , 
72.60, 0.055623, , 
72.63, 0.055585, , 
72.66, 0.055579, , 
72.69, 0.055522, , 
72.72, 0.055433, , 
72.75, 0.055353, , 
72.79, 0.055227, , 
72.81, 0.055201, , 
72.84, 0.055157, , 
72.87, 0.055122, , 
72.90, 0.055103, , 
72.93, 0.055081, , 
72.96, 0.055144, , 
72.99, 0.055173, , 
73.02, 0.055112, , 
73.05, 0.055093, , 
73.08, 0.055160, , 
73.11, 0.055166, , 
73.14, 0.055135, , 
73.17, 0.055138, , 
73.20, 0.055144, , 
73.23, 0.055147, , 
73.26, 0.055122, , 
73.29, 0.055046, , 
73.32, 0.054960, , 
73.35, 0.054824, , 
73.38, 0.054703, , 
73.41, 0.054649, , 
73.44, 0.054675, , 
73.47, 0.054675, , 
73.50, 0.054608, , 
73.53, 0.054602, , 
73.56, 0.054662, , 
73.59, 0.054678, 23, 0.585
73.59, 0.054681, , 
73.62, 0.054633, , 
73.65, 0.054614, , 
73.68, 0.054690, , 
73.71, 0.054687, , 
73.74, 0.054671, , 
73.77, 0.054656, , 
73.81, 0.054671, , 
73.83, 0.054681, , 
73.86, 0.054671, , 
73.89, 0.054671, , 
73.92, 0.054716, , 
73.95, 0.054678, , 
73.98, 0.054662, , 
74.01, 0.054640, , 
74.04, 0.054494, , 
74.07, 0.054335, , 
74.10, 0.054212, , 
74.13, 0.054202, , 
74.16, 0.054240, , 
74.19, 0.054193, , 
74.22, 0.054167, , 
74.25, 0.054164, , 
74.28, 0.054164, , 
74.31, 0.054075, , 
74.34, 0.053967, , 
74.37, 0.053901, , 
74.40, 0.053764, , 
74.43, 0.053691, , 
74.46, 0.053669, , 
74.49, 0.053669, , 
74.52, 0.053650, , 
74.55, 0.053606, , 
74.58, 0.053612, , 
74.61, 0.053618, , 
74.64, 0.053599, , 
74.67, 0.053599, , 
74.70, 0.053580, , 
74.73, 0.053526, , 
74.76, 0.053400, , 
74.79, 0.053184, , 
74.82, 0.053127, , 
74.85, 0.053079, , 
74.88, 0.053073, , 
74.91, 0.053051, , 
74.94, 0.053063, , 
74.97, 0.053057, , 
75.00, 0.052933, , 
75.03, 0.052771, , 
75.06, 0.052676, , 
75.09, 0.052648, , 
75.12, 0.052616, , 
75.15, 0.052515, , 
75.18, 0.052527, , 
75.21, 0.052546, , 
75.25, 0.052518, , 
75.27, 0.052524, , 
75.30, 0.052553, , 
75.33, 0.052578, , 
75.36, 0.052546, , 
75.39, 0.052483, , 
75.42, 0.052492, , 
75.45, 0.052534, , 
75.48, 0.052537, , 
75.51, 0.052527, , 
75.54, 0.052537, , 
75.57, 0.052565, , 
75.60, 0.052537, , 
75.63, 0.052496, , 
75.66, 0.052518, , 
75.69, 0.052562, , 
75.72, 0.052540, , 
75.75, 0.052489, , 
75.78, 0.052489, , 
75.81, 0.052540, , 
75.84, 0.052521, , 
75.87, 0.052476, , 
75.90, 0.052448, , 
75.93, 0.052299, , 
75.96, 0.052191, , 
75.99, 0.052109, , 
76.02, 0.052115, , 
76.05, 0.052074, , 
76.08, 0.052039, , 
76.11, 0.052013, , 
76.14, 0.052064, , 
76.17, 0.052026, , 
76.20, 0.051972, , 
76.23, 0.051829, , 
76.26, 0.051712, , 
76.29, 0.051636, , 
76.32, 0.051560, , 
76.35, 0.051566, , 
76.38, 0.051544, , 
76.41, 0.051550, , 
76.44, 0.051547, , 
76.47, 0.051547, , 
76.50, 0.051569, , 
76.53, 0.051588, , 
76.56, 0.051522, , 
76.59, 0.051534, , 
76.62, 0.051563, , 
76.65, 0.051582, , 
76.69, 0.051576, , 
76.71, 0.051563, , 
76.74, 0.051541, , 
76.77, 0.051525, , 
76.79, 0.051477, 24, 0.586
76.80, 0.051389, , 
76.83, 0.051331, , 
76.86, 0.051246, , 
76.89, 0.051154, , 
76.92, 0.051087, , 
76.95, 0.051068, , 
76.98, 0.051065, , 
77.01, 0.051040, , 
77.04, 0.051014, , 
77.07, 0.050932, , 
77.10, 0.050805, , 
77.13, 0.050713, , 
77.16, 0.050605, , 
77.19, 0.050621, , 
77.22, 0.050608, , 
77.25, 0.050576, , 
77.28, 0.050516, , 
77.31, 0.050389, , 
77.34, 0.050297, , 
77.37, 0.050158, , 
77.40, 0.050104, , 
77.43, 0.050091, , 
77.46, 0.050101, , 
77.49, 0.050021, , 
77.52, 0.049917, , 
77.55, 0.049863, , 
77.58, 0.049806, , 
77.61, 0.049596, , 
77.64, 0.049549, , 
77.67, 0.049612, , 
77.71, 0.049590, , 
77.73, 0.049549, , 
77.76, 0.049561, , 
77.79, 0.049590, , 
77.82, 0.049571, , 
77.85, 0.049520, , 
77.88, 0.049447, , 
77.91, 0.049352, , 
77.94, 0.049209, , 
77.97, 0.049162, , 
78.00, 0.049086, , 
78.03, 0.049114, , 
78.06, 0.049114, , 
78.09, 0.049038, , 
78.12, 0.049051, , 
78.15, 0.049136, , 
78.18, 0.049111, , 
78.21, 0.049117, , 
78.24, 0.049089, , 
78.27, 0.049136, , 
78.30, 0.049117, , 
78.33, 0.049124, , 
78.36, 0.049143, , 
78.39, 0.049136, , 
78.42, 0.049133, , 
78.45, 0.049102, , 
78.48, 0.049130, , 
78.51, 0.049105, , 
78.54, 0.049003, , 
78.57, 0.048886, , 
78.60, 0.048791, , 
78.63, 0.048724, , 
78.66, 0.048670, , 
78.69, 0.048604, , 
78.72, 0.048623, , 
78.75, 0.048629, , 
78.78, 0.048638, , 
78.81, 0.048629, , 
78.84, 0.048638, , 
78.87, 0.048673, , 
78.90, 0.048638, , 
78.93, 0.048626, , 
78.96, 0.048613, , 
78.99, 0.048527, , 
79.02, 0.048407, , 
79.05, 0.048283, , 
79.08, 0.048258, , 
79.11, 0.048213, , 
79.15, 0.048175, , 
79.17, 0.048137, , 
79.20, 0.048179, , 
79.23, 0.048159, , 
79.26, 0.048115, , 
79.29, 0.048131, , 
79.32, 0.048169, , 
79.35, 0.048182, , 
79.38, 0.048150, , 
79.41, 0.048156, , 
79.44, 0.048166, , 
79.47, 0.048159, , 
79.50, 0.048087, , 
79.53, 0.048109, , 
79.56, 0.048169, , 
79.59, 0.048194, , 
79.62, 0.048140, , 
79.65, 0.048128, , 
79.68, 0.048153, , 
79.71, 0.048118, , 
79.74, 0.048093, , 
79.77, 0.048052, , 
79.80, 0.047956, , 
79.83, 0.047830, , 
79.86, 0.047747, , 
79.89, 0.047696, , 
79.92, 0.047668, , 
79.95, 0.047601, , 
79.98, 0.047604, , 
79.99, 0.047620, 25, 0.585
80.01, 0.047642, , 
80.04, 0.047696, , 
80.07, 0.047725, , 
80.10, 0.047674, , 
80.13, 0.047668, , 
80.16, 0.047709, , 
80.19, 0.047687, , 
80.22, 0.047623, , 
80.25, 0.047503, , 
80.28, 0.047379, , 
80.31, 0.047284, , 
80.34, 0.047224, , 
80.37, 0.047211, , 
80.40, 0.047170, , 
80.43, 0.047138, , 
80.46, 0.047157, , 
80.49, 0.047160, , 
80.52, 0.047116, , 
80.55, 0.046929, , 
80.59, 0.046783, , 
80.61, 0.046726, , 
80.64, 0.046675, , 
80.67, 0.046646, , 
80.70, 0.046599, , 
80.73, 0.046621, , 
80.76, 0.046618, , 
80.79, 0.046612, , 
80.82, 0.046570, , 
80.85, 0.046443, , 
80.88, 0.046317, , 
80.91, 0.046206, , 
80.94, 0.046145, , 
80.97, 0.046136, , 
81.00, 0.046133, , 
81.03, 0.046114, , 
81.06, 0.046091, , 
81.09, 0.046082, , 
81.12, 0.046088, , 
81.15, 0.046079, , 
81.18, 0.046098, , 
81.21, 0.046114, , 
81.24, 0.046142, , 
81.27, 0.046034, , 
81.30, 0.045904, , 
81.33, 0.045771, , 
81.36, 0.045644, , 
81.39, 0.045581, , 
81.42, 0.045574, , 
81.45, 0.045603, , 
81.48, 0.045622, , 
81.51, 0.045593, , 
81.54, 0.045536, , 
81.57, 0.045600, , 
81.61, 0.045600, , 
81.63, 0.045558, , 
81.66, 0.045536, , 
81.69, 0.045549, , 
81.72, 0.045587, , 
81.75, 0.045593, , 
81.78, 0.045565, , 
81.82, 0.045571, , 
81.84, 0.045587, , 
81.87, 0.045543, , 
81.90, 0.045444, , 
81.93, 0.045292, , 
81.96, 0.045235, , 
81.99, 0.045133, , 
82.02, 0.045102, , 
82.05, 0.045124, , 
82.08, 0.045092, , 
82.11, 0.045057, , 
82.14, 0.045102, , 
82.17, 0.045152, , 
82.20, 0.045133, , 
82.23, 0.045089, , 
82.26, 0.045121, , 
82.29, 0.045149, , 
82.32, 0.045146, , 
82.35, 0.045114, , 
82.38, 0.045105, , 
82.41, 0.045165, , 
82.44, 0.045187, , 
82.47, 0.045133, , 
82.50, 0.045168, , 
82.53, 0.045178, , 
82.56, 0.045162, , 
82.59, 0.045159, , 
82.62, 0.045184, , 
82.65, 0.045203, , 
82.68, 0.045210, , 
82.71, 0.045133, , 
82.74, 0.045162, , 
82.77, 0.045156, , 
82.80, 0.045162, , 
82.83, 0.045149, , 
82.86, 0.045162, , 
82.89, 0.045175, , 
82.92, 0.045159, , 
82.95, 0.045140, , 
82.98, 0.045130, , 
83.01, 0.045146, , 
83.05, 0.045118, , 
83.07, 0.045076, , 
83.10, 0.045118, , 
83.13, 0.045127, , 
83.16, 0.045083, , 
83.19, 0.045092, 26, 0.586
83.19, 0.045095, , 
83.22, 0.045130, , 
83.25, 0.045175, , 
83.28, 0.045168, , 
83.31, 0.045080, , 
83.34, 0.045114, , 
83.37, 0.045152, , 
83.40, 0.045089, , 
83.43, 0.045061, , 
83.46, 0.045032, , 
83.49, 0.044930, , 
83.52, 0.044781, , 
83.55, 0.044683, , 
83.58, 0.044639, , 
83.61, 0.044623, , 
83.64, 0.044559, , 
83.67, 0.044540, , 
83.70, 0.044578, , 
83.73, 0.044556, , 
83.76, 0.044515, , 
83.79, 0.044518, , 
83.82, 0.044547, , 
83.85, 0.044582, , 
83.88, 0.044575, , 
83.91, 0.044505, , 
83.94, 0.044521, , 
83.97, 0.044550, , 
84.00, 0.044509, , 
84.03, 0.044509, , 
84.06, 0.044556, , 
84.09, 0.044553, , 
84.12, 0.044528, , 
84.15, 0.044553, , 
84.18, 0.044550, , 
84.21, 0.044578, , 
84.24, 0.044572, , 
84.28, 0.044550, , 
84.30, 0.044559, , 
84.33, 0.044531, , 
84.36, 0.044521, , 
84.39, 0.044543, , 
84.42, 0.044575, , 
84.45, 0.044585, , 
84.48, 0.044556, , 
84.51, 0.044543, , 
84.54, 0.044569, , 
84.57, 0.044591, , 
84.60, 0.044578, , 
84.63, 0.044518, , 
84.66, 0.044540, , 
84.69, 0.044553, , 
84.72, 0.044505, , 
84.75, 0.044575, , 
84.78, 0.044607, , 
84.81, 0.044623, , 
84.84, 0.044585, , 
84.87, 0.044588, , 
84.90, 0.044635, , 
84.93, 0.044702, , 
84.96, 0.044743, , 
84.99, 0.044940, , 
85.02, 0.045003, , 
85.05, 0.045010, , 
85.08, 0.045064, , 
85.11, 0.045080, , 
85.14, 0.045067, , 
85.17, 0.045051, , 
85.20, 0.045045, , 
85.23, 0.045061, , 
85.26, 0.045127, , 
85.29, 0.045102, , 
85.32, 0.045045, , 
85.35, 0.045061, , 
85.38, 0.045070, , 
85.41, 0.044994, , 
85.44, 0.044864, , 
85.47, 0.044727, , 
85.51, 0.044677, , 
85.53, 0.044610, , 
85.56, 0.044556, , 
85.59, 0.044578, , 
85.62, 0.044601, , 
85.65, 0.044569, , 
85.68, 0.044537, , 
85.71, 0.044543, , 
85.74, 0.044550, , 
85.77, 0.044572, , 
85.80, 0.044566, , 
85.83, 0.044572, , 
85.86, 0.044575, , 
85.89, 0.044553, , 
85.92, 0.044534, , 
85.95, 0.044559, , 
85.98, 0.044499, , 
86.01, 0.044540, , 
86.04, 0.044556, , 
86.07, 0.044585, , 
86.10, 0.044591, , 
86.13, 0.044563, , 
86.16, 0.044569, , 
86.19, 0.044559, , 
86.22, 0.044521, , 
86.25, 0.044528, , 
86.28, 0.044524, , 
86.31, 0.044569, , 
86.34, 0.044588, , 
86.37, 0.044559, , 
86.40, 0.044550, , 
86.43, 0.044540, , 
86.46, 0.044521, , 
86.49, 0.044521, , 
86.52, 0.044547, , 
86.55, 0.044594, , 
86.58, 0.044512, , 
86.61, 0.044471, , 
86.64, 0.044505, , 
86.67, 0.044588, , 
86.70, 0.044588, , 
86.74, 0.044509, , 
86.76, 0.044553, , 
86.79, 0.044601, , 
86.82, 0.044601, , 
86.85, 0.044629, , 
86.88, 0.044746, , 
86.91, 0.044921, , 
86.94, 0.044956, , 
86.97, 0.044972, , 
87.00, 0.045073, , 
87.03, 0.045089, , 
87.06, 0.045064, , 
87.09, 0.045051, , 
87.12, 0.045168, , 
87.15, 0.045321, , 
87.18, 0.045406, , 
87.21, 0.045470, , 
87.24, 0.045511, , 
87.27, 0.045530, , 
87.30, 0.045508, , 
87.33, 0.045581, , 
87.36, 0.045625, , 
87.39, 0.045603, , 
87.42, 0.045565, , 
87.45, 0.045552, , 
87.48, 0.045584, , 
87.51, 0.045628, , 
87.54, 0.045584, , 
87.57, 0.045530, , 
87.60, 0.045587, , 
87.63, 0.045638, , 
87.66, 0.045612, , 
87.69, 0.045587, , 
87.72, 0.045581, , 
87.75, 0.045593, , 
87.78, 0.045571, , 
87.81, 0.045552, , 
87.84, 0.045578, , 
87.87, 0.045593, , 
87.90, 0.045584, , 
87.93, 0.045574, , 
87.96, 0.045597, , 
87.99, 0.045619, , 
88.02, 0.045600, , 
88.05, 0.045520, , 
88.08, 0.045552, , 
88.11, 0.045600, , 
88.14, 0.045565, , 
88.18, 0.045571, , 
88.20, 0.045574, , 
88.23, 0.045606, , 
88.26, 0.045597, , 
88.29, 0.045508, , 
88.32, 0.045397, , 
88.35, 0.045238, , 
88.38, 0.045152, , 
88.41, 0.045095, , 
88.44, 0.045108, , 
88.47, 0.045080, , 
88.50, 0.045054, , 
88.53, 0.045067, , 
88.56, 0.045064, , 
88.59, 0.045051, , 
88.62, 0.045076, , 
88.65, 0.045076, , 
88.68, 0.045108, , 
88.71, 0.045067, , 
88.74, 0.045026, , 
88.77, 0.045054, , 
88.80, 0.045099, , 
88.83, 0.045064, , 
88.86, 0.045048, , 
88.89, 0.045073, , 
88.92, 0.045076, , 
88.95, 0.045061, , 
88.98, 0.045029, , 
89.01, 0.045054, , 
89.04, 0.045086, , 
89.07, 0.045067, , 
89.10, 0.045057, , 
89.13, 0.045038, , 
89.16, 0.044930, , 
89.20, 0.044759, , 
89.22, 0.044683, , 
89.25, 0.044566, , 
89.28, 0.044575, , 
89.31, 0.044531, , 
89.34, 0.044509, , 
89.37, 0.044597, , 
89.40, 0.044594, , 
89.43, 0.044566, , 
89.46, 0.044521, , 
89.49, 0.044597, , 
89.52, 0.044594, , 
89.55, 0.044566, , 
89.58, 0.044493, , 
89.61, 0.044553, , 
89.64, 0.044616, , 
89.67, 0.044528, , 
89.70, 0.044515, , 
89.73, 0.044591, , 
89.76, 0.044632, , 
89.79, 0.044572, , 
89.82, 0.044543, , 
89.85, 0.044575, , 
89.88, 0.044626, , 
89.91, 0.044585, , 
89.94, 0.044601, , 
89.97, 0.044645, , 
90.00, 0.044620, , 
90.03, 0.044604, , 
90.06, 0.044648, , 
90.09, 0.044670, , 
90.12, 0.044642, , 
90.15, 0.044607, , 
90.18, 0.044616, , 
90.21, 0.044601, , 
90.24, 0.044610, , 
90.27, 0.044613, , 
90.30, 0.044594, , 
90.33, 0.044648, , 
90.36, 0.044648, , 
90.39, 0.044613, , 
90.42, 0.044623, , 
90.45, 0.044645, , 
90.48, 0.044670, , 
90.51, 0.044648, , 
90.54, 0.044708, , 
90.57, 0.044724, , 
90.60, 0.044750, , 
90.64, 0.044731, , 
90.66, 0.044718, , 
90.69, 0.044759, , 
90.72, 0.044727, , 
90.75, 0.044696, , 
90.78, 0.044696, , 
90.81, 0.044737, , 
90.84, 0.044740, , 
90.87, 0.044699, , 
90.90, 0.044721, , 
90.93, 0.044731, , 
90.96, 0.044702, , 
90.99, 0.044705, , 
91.02, 0.044699, , 
91.05, 0.044680, , 
91.08, 0.044543, , 
91.11, 0.044388, , 
91.14, 0.044344, , 
91.17, 0.044258, , 
91.20, 0.044258, , 
91.23, 0.044258, , 
91.26, 0.044236, , 
91.29, 0.044242, , 
91.32, 0.044233, , 
91.35, 0.044201, , 
91.38, 0.044217, , 
91.41, 0.044220, , 
91.44, 0.044179, , 
91.47, 0.044242, , 
91.50, 0.044274, , 
91.53, 0.044223, , 
91.56, 0.044163, , 
91.59, 0.044182, , 
91.62, 0.044239, , 
91.65, 0.044248, , 
91.68, 0.044201, , 
91.71, 0.044201, , 
91.74, 0.044188, , 
91.77, 0.044210, , 
91.80, 0.044220, , 
91.83, 0.044220, , 
91.87, 0.044223, , 
91.89, 0.044239, , 
91.92, 0.044239, , 
91.95, 0.044201, , 
91.98, 0.044198, , 
92.01, 0.044223, , 
92.04, 0.044210, , 
92.07, 0.044195, , 
92.10, 0.044210, , 
92.13, 0.044210, , 
92.16, 0.044179, , 
92.19, 0.044176, , 
92.22, 0.044195, , 
92.25, 0.044233, , 
92.28, 0.044160, , 
92.31, 0.044166, , 
92.34, 0.044172, , 
92.37, 0.044160, , 
92.40, 0.044169, , 
92.43, 0.044223, , 
92.46, 0.044236, , 
92.49, 0.044217, , 
92.52, 0.044172, , 
92.55, 0.044179, , 
92.58, 0.044176, , 
92.61, 0.044147, , 
92.64, 0.044137, , 
92.67, 0.044179, , 
92.70, 0.044157, , 
92.73, 0.044125, , 
92.76, 0.044153, , 
92.79, 0.044157, , 
92.82, 0.044169, , 
92.85, 0.044166, , 
92.88, 0.044125, , 
92.91, 0.044153, , 
92.94, 0.044185, , 
92.97, 0.044157, , 
93.00, 0.044128, , 
93.03, 0.044153, , 
93.06, 0.044166, , 
93.10, 0.044134, , 
93.12, 0.044115, , 
93.15, 0.044144, , 
93.18, 0.044134, , 
93.21, 0.044084, , 
93.24, 0.044090, , 
93.27, 0.044137, , 
93.30, 0.044144, , 
93.33, 0.044093, , 
93.36, 0.044090, , 
93.39, 0.044141, , 
93.42, 0.044131, , 
93.45, 0.044109, , 
93.48, 0.044122, , 
93.51, 0.044118, , 
93.54, 0.044087, , 
93.57, 0.044090, , 
93.60, 0.044080, , 
93.63, 0.044144, , 
93.66, 0.044115, , 
93.69, 0.044099, , 
93.72, 0.044090, , 
93.75, 0.044118, , 
93.78, 0.044134, , 
93.81, 0.044087, , 
93.84, 0.044065, , 
93.87, 0.044112, , 
93.90, 0.044128, , 
93.93, 0.044099, , 
93.96, 0.044099, , 
93.99, 0.044103, , 
94.02, 0.044109, , 
94.05, 0.044090, , 
94.08, 0.044090, , 
94.11, 0.044080, , 
94.14, 0.044084, , 
94.17, 0.044122, , 
94.20, 0.044131, , 
94.23, 0.044118, , 
94.26, 0.044087, , 
94.29, 0.044093, , 
94.33, 0.044093, , 
94.35, 0.044087, , 
94.38, 0.044096, , 
94.41, 0.044096, , 
94.44, 0.044112, , 
94.47, 0.044077, , 
94.50, 0.044042, , 
94.53, 0.044026, , 
94.56, 0.044068, , 
94.59, 0.044052, , 
94.62, 0.044049, , 
94.65, 0.044023, , 
94.68, 0.044112, , 
94.71, 0.044118, , 
94.74, 0.044103, , 
94.77, 0.044093, , 
94.80, 0.044077, , 
94.83, 0.044068, , 
94.86, 0.044039, , 
94.89, 0.044039, , 
94.92, 0.044039, , 
94.95, 0.044065, , 
94.98, 0.044055, , 
95.01, 0.044039, , 
95.04, 0.044049, , 
95.07, 0.044058, , 
95.10, 0.044036, , 
95.13, 0.044039, , 
95.16, 0.044033, , 
95.19, 0.044045, , 
95.22, 0.044023, , 
95.25, 0.044004, , 
95.28, 0.044065, , 
95.31, 0.044042, , 
95.34, 0.044049, , 
95.37, 0.044052, , 
95.40, 0.044049, , 
95.43, 0.044071, , 
95.46, 0.044011, , 
95.49, 0.043995, , 
95.52, 0.044039, , 
95.55, 0.044030, , 
95.58, 0.043998, , 
95.61, 0.044039, , 
95.64, 0.044045, , 
95.67, 0.044045, , 
95.70, 0.044014, , 
95.73, 0.044007, , 
95.77, 0.044011, , 
95.79, 0.043976, , 
95.82, 0.044007, , 
95.85, 0.044004, , 
95.88, 0.044042, , 
95.91, 0.044026, , 
95.94, 0.043998, , 
95.97, 0.044026, , 
96.00, 0.044039, , 
