Gradient Profiler Text Data File: 20240906_yHG008_rep1_sample_1_30C.csv
Date: 2024-09-06
Time: 17:21:52

User: jared
Experiment name: 
UV Unit: EM-1
Rotor Manufacturer: Beckman
Rotor Model: SW28.1
Speed: 28 rpm
Gradient: sucrose 10.0% to 50.0% w/v
Time: 4
w2t:  x 10^0
Sample Volume: 18 ml
Number of Tubes: 6
Volume per mm: 0.183 ml/mm

Absorbance Units Full Scale (AUFS): 2.00
Event Mark-triggered gradient; (with distance; auto start and stop)
Delay: No Delay
UV Wavelength: 254 nm
Samples / sec: 10 Hz
EM1 Speed: 0.30 mm/sec
Distance: 3.20 mm
Number: 30
Dead Volume: 0.000000 ml; Distance due to Dead Volume: 0.00 mm
Total Distance: 96.00 mm

Data Columns:
Distance(mm), Absorbance, Fraction Number, Fraction Volume(ml)
0.00, 0.061025, 0, 0.000
0.03, 0.060987, , 
0.06, 0.060996, , 
0.09, 0.061041, , 
0.12, 0.061104, , 
0.15, 0.061076, , 
0.18, 0.061057, , 
0.21, 0.061072, , 
0.24, 0.061076, , 
0.27, 0.061088, , 
0.30, 0.061050, , 
0.33, 0.061091, , 
0.36, 0.061095, , 
0.39, 0.061085, , 
0.42, 0.061101, , 
0.45, 0.061193, , 
0.48, 0.061291, , 
0.51, 0.061425, , 
0.54, 0.061589, , 
0.57, 0.062528, , 
0.60, 0.065868, , 
0.63, 0.076269, , 
0.66, 0.099751, , 
0.69, 0.139035, , 
0.72, 0.200742, , 
0.75, 0.262452, , 
0.78, 0.328787, , 
0.81, 0.409421, , 
0.84, 0.480088, , 
0.87, 0.551384, , 
0.90, 0.623219, , 
0.93, 0.695377, , 
0.96, 0.779960, , 
0.99, 0.852718, , 
1.02, 0.937488, , 
1.05, 1.010325, , 
1.09, 1.082962, , 
1.11, 1.154572, , 
1.14, 1.222781, , 
1.17, 1.282378, , 
1.20, 1.334557, , 
1.23, 1.363580, , 
1.26, 1.383703, , 
1.29, 1.393279, , 
1.32, 1.398024, , 
1.35, 1.401967, , 
1.38, 1.403911, , 
1.41, 1.405659, , 
1.44, 1.406836, , 
1.47, 1.407816, , 
1.50, 1.408894, , 
1.53, 1.409586, , 
1.56, 1.410439, , 
1.59, 1.411206, , 
1.62, 1.412155, , 
1.65, 1.413367, , 
1.68, 1.414569, , 
1.71, 1.415863, , 
1.74, 1.416700, , 
1.77, 1.417585, , 
1.80, 1.418496, , 
1.83, 1.419428, , 
1.86, 1.420760, , 
1.89, 1.421864, , 
1.92, 1.422648, , 
1.95, 1.423006, , 
1.98, 1.422997, , 
2.01, 1.422705, , 
2.04, 1.422349, , 
2.07, 1.422289, , 
2.10, 1.422448, , 
2.13, 1.422489, , 
2.16, 1.422086, , 
2.19, 1.421506, , 
2.22, 1.420789, , 
2.25, 1.420059, , 
2.28, 1.419520, , 
2.31, 1.419000, , 
2.34, 1.418400, , 
2.37, 1.417630, , 
2.40, 1.416900, , 
2.43, 1.416259, , 
2.46, 1.415755, , 
2.49, 1.415368, , 
2.52, 1.414937, , 
2.55, 1.414493, , 
2.58, 1.413957, , 
2.61, 1.413033, , 
2.64, 1.412149, , 
2.67, 1.411295, , 
2.70, 1.410388, , 
2.73, 1.409091, , 
2.76, 1.407790, , 
2.79, 1.406474, , 
2.82, 1.405161, , 
2.85, 1.403530, , 
2.88, 1.401960, , 
2.91, 1.399826, , 
2.94, 1.397799, , 
2.97, 1.395588, , 
3.00, 1.393000, , 
3.03, 1.391230, , 
3.06, 1.388673, , 
3.09, 1.386161, , 
3.12, 1.383297, , 
3.15, 1.379735, , 
3.18, 1.376639, , 
3.19, 1.376112, 1, 0.583
3.21, 1.373524, , 
3.24, 1.370501, , 
3.27, 1.367342, , 
3.30, 1.363279, , 
3.33, 1.359428, , 
3.36, 1.354622, , 
3.40, 1.350451, , 
3.42, 1.346880, , 
3.45, 1.341754, , 
3.48, 1.337189, , 
3.51, 1.332463, , 
3.54, 1.326665, , 
3.57, 1.321498, , 
3.60, 1.316286, , 
3.63, 1.310187, , 
3.66, 1.304753, , 
3.69, 1.298111, , 
3.72, 1.293182, , 
3.75, 1.287108, , 
3.78, 1.279933, , 
3.81, 1.273697, , 
3.84, 1.267470, , 
3.87, 1.261269, , 
3.90, 1.253929, , 
3.93, 1.247579, , 
3.96, 1.240134, , 
3.99, 1.233692, , 
4.02, 1.227177, , 
4.05, 1.220456, , 
4.08, 1.212526, , 
4.11, 1.205586, , 
4.14, 1.198690, , 
4.17, 1.191877, , 
4.20, 1.185149, , 
4.23, 1.178301, , 
4.26, 1.170003, , 
4.29, 1.162558, , 
4.32, 1.154936, , 
4.35, 1.145849, , 
4.38, 1.137925, , 
4.41, 1.129875, , 
4.45, 1.120375, , 
4.47, 1.115430, , 
4.50, 1.103795, , 
4.53, 1.095520, , 
4.56, 1.087260, , 
4.59, 1.079111, , 
4.62, 1.069583, , 
4.65, 1.062972, , 
4.68, 1.052759, , 
4.71, 1.042571, , 
4.74, 1.033908, , 
4.77, 1.025467, , 
4.80, 1.017322, , 
4.83, 1.009452, , 
4.86, 1.000232, , 
4.89, 0.992498, , 
4.92, 0.984756, , 
4.95, 0.976959, , 
4.98, 0.967910, , 
5.01, 0.961705, , 
5.04, 0.952332, , 
5.07, 0.943159, , 
5.10, 0.935346, , 
5.13, 0.927597, , 
5.16, 0.918567, , 
5.19, 0.912299, , 
5.22, 0.902549, , 
5.25, 0.892773, , 
5.28, 0.884231, , 
5.31, 0.875476, , 
5.34, 0.865269, , 
5.37, 0.860130, , 
5.40, 0.849872, , 
5.43, 0.839649, , 
5.46, 0.831107, , 
5.49, 0.821036, , 
5.52, 0.812428, , 
5.55, 0.804533, , 
5.58, 0.795363, , 
5.61, 0.785466, , 
5.64, 0.776959, , 
5.67, 0.768239, , 
5.70, 0.761255, , 
5.73, 0.750870, , 
5.76, 0.742429, , 
5.79, 0.732974, , 
5.82, 0.725047, , 
5.85, 0.715757, , 
5.88, 0.708258, , 
5.91, 0.699542, , 
5.94, 0.691618, , 
5.97, 0.684040, , 
6.00, 0.675498, , 
6.03, 0.668263, , 
6.06, 0.661599, , 
6.09, 0.652581, , 
6.12, 0.645314, , 
6.15, 0.638073, , 
6.18, 0.630844, , 
6.21, 0.624243, , 
6.24, 0.615466, , 
6.27, 0.608361, , 
6.30, 0.599946, , 
6.33, 0.592717, , 
6.36, 0.587338, , 
6.39, 0.579408, 2, 0.586
6.39, 0.578285, , 
6.42, 0.571231, , 
6.45, 0.563107, , 
6.48, 0.556066, , 
6.51, 0.549449, , 
6.54, 0.540564, , 
6.57, 0.534680, , 
6.60, 0.526433, , 
6.63, 0.519369, , 
6.66, 0.512965, , 
6.69, 0.504426, , 
6.72, 0.497689, , 
6.75, 0.490156, , 
6.78, 0.485049, , 
6.81, 0.480345, , 
6.84, 0.472463, , 
6.87, 0.466966, , 
6.90, 0.460781, , 
6.93, 0.455607, , 
6.96, 0.451496, , 
6.99, 0.445390, , 
7.02, 0.440490, , 
7.05, 0.435116, , 
7.08, 0.430539, , 
7.11, 0.425858, , 
7.14, 0.420605, , 
7.17, 0.415504, , 
7.20, 0.410623, , 
7.23, 0.405744, , 
7.26, 0.400967, , 
7.29, 0.396238, , 
7.32, 0.390592, , 
7.35, 0.385013, , 
7.38, 0.380236, , 
7.41, 0.376239, , 
7.44, 0.371034, , 
7.47, 0.366076, , 
7.50, 0.360500, , 
7.53, 0.355549, , 
7.56, 0.350413, , 
7.59, 0.344488, , 
7.62, 0.341611, , 
7.65, 0.335289, , 
7.68, 0.331074, , 
7.71, 0.327093, , 
7.74, 0.322719, , 
7.77, 0.318982, , 
7.80, 0.314735, , 
7.83, 0.311341, , 
7.86, 0.307652, , 
7.89, 0.303526, , 
7.92, 0.300144, , 
7.95, 0.296592, , 
7.98, 0.293274, , 
8.01, 0.290146, , 
8.04, 0.286978, , 
8.07, 0.283793, , 
8.10, 0.280282, , 
8.13, 0.276916, , 
8.16, 0.273671, , 
8.19, 0.269871, , 
8.22, 0.266500, , 
8.25, 0.263819, , 
8.28, 0.259829, , 
8.31, 0.256533, , 
8.34, 0.252787, , 
8.37, 0.249631, , 
8.40, 0.246164, , 
8.43, 0.243532, , 
8.46, 0.240874, , 
8.49, 0.237391, , 
8.52, 0.234276, , 
8.55, 0.231148, , 
8.58, 0.227555, , 
8.61, 0.224757, , 
8.64, 0.221173, , 
8.67, 0.218962, , 
8.70, 0.216386, , 
8.73, 0.213328, , 
8.76, 0.211194, , 
8.79, 0.207486, , 
8.82, 0.204875, , 
8.85, 0.202341, , 
8.88, 0.199921, , 
8.91, 0.197694, , 
8.94, 0.194633, , 
8.97, 0.192051, , 
9.00, 0.189469, , 
9.03, 0.186484, , 
9.06, 0.184102, , 
9.09, 0.181273, , 
9.12, 0.178694, , 
9.15, 0.176233, , 
9.18, 0.173432, , 
9.21, 0.171408, , 
9.24, 0.168309, , 
9.27, 0.165388, , 
9.30, 0.163012, , 
9.33, 0.160398, , 
9.36, 0.158759, , 
9.39, 0.156230, , 
9.42, 0.153385, , 
9.45, 0.150914, , 
9.48, 0.148532, , 
9.51, 0.145903, , 
9.54, 0.143819, , 
9.57, 0.141237, , 
9.60, 0.140041, 3, 0.587
9.60, 0.139759, , 
9.63, 0.138166, , 
9.66, 0.136349, , 
9.69, 0.135064, , 
9.72, 0.132888, , 
9.75, 0.131372, , 
9.78, 0.129872, , 
9.81, 0.128336, , 
9.84, 0.126985, , 
9.87, 0.125298, , 
9.90, 0.124092, , 
9.93, 0.122944, , 
9.96, 0.121653, , 
9.99, 0.120702, , 
10.02, 0.119106, , 
10.05, 0.117685, , 
10.08, 0.116407, , 
10.11, 0.115170, , 
10.14, 0.113631, , 
10.17, 0.112331, , 
10.20, 0.110612, , 
10.23, 0.109273, , 
10.26, 0.107947, , 
10.29, 0.106567, , 
10.32, 0.105759, , 
10.35, 0.104404, , 
10.38, 0.103164, , 
10.41, 0.101914, , 
10.44, 0.100512, , 
10.47, 0.099297, , 
10.50, 0.098355, , 
10.53, 0.096918, , 
10.57, 0.096043, , 
10.59, 0.095149, , 
10.62, 0.094235, , 
10.65, 0.093439, , 
10.68, 0.092398, , 
10.71, 0.091615, , 
10.74, 0.090740, , 
10.78, 0.089975, , 
10.80, 0.089353, , 
10.83, 0.088297, , 
10.86, 0.087463, , 
10.89, 0.086632, , 
10.92, 0.085937, , 
10.95, 0.085119, , 
10.98, 0.084288, , 
11.01, 0.083308, , 
11.04, 0.082232, , 
11.07, 0.081325, , 
11.10, 0.080428, , 
11.13, 0.079441, , 
11.16, 0.078540, , 
11.19, 0.077684, , 
11.22, 0.076812, , 
11.25, 0.076025, , 
11.28, 0.075238, , 
11.31, 0.074265, , 
11.34, 0.073326, , 
11.37, 0.072587, , 
11.41, 0.071892, , 
11.43, 0.071162, , 
11.46, 0.070376, , 
11.49, 0.069576, , 
11.52, 0.068932, , 
11.55, 0.068333, , 
11.58, 0.067610, , 
11.62, 0.067134, , 
11.64, 0.066458, , 
11.67, 0.065868, , 
11.70, 0.065323, , 
11.73, 0.064698, , 
11.76, 0.064159, , 
11.79, 0.063477, , 
11.82, 0.063052, , 
11.85, 0.062598, , 
11.88, 0.062005, , 
11.91, 0.061434, , 
11.94, 0.060698, , 
11.97, 0.060156, , 
12.00, 0.059559, , 
12.03, 0.058950, , 
12.06, 0.058475, , 
12.09, 0.057828, , 
12.12, 0.057358, , 
12.15, 0.056933, , 
12.18, 0.056422, , 
12.21, 0.056004, , 
12.24, 0.055528, , 
12.27, 0.054985, , 
12.30, 0.054430, , 
12.33, 0.053850, , 
12.36, 0.053374, , 
12.39, 0.052794, , 
12.42, 0.052277, , 
12.46, 0.051906, , 
12.48, 0.051547, , 
12.51, 0.051246, , 
12.54, 0.050967, , 
12.57, 0.050710, , 
12.60, 0.050465, , 
12.63, 0.050202, , 
12.67, 0.049952, , 
12.69, 0.049730, , 
12.72, 0.049489, , 
12.75, 0.049308, , 
12.78, 0.049073, , 
12.79, 0.049051, 4, 0.584
12.81, 0.048943, , 
12.84, 0.048778, , 
12.88, 0.048562, , 
12.90, 0.048378, , 
12.93, 0.048118, , 
12.96, 0.047801, , 
12.99, 0.047506, , 
13.02, 0.047135, , 
13.05, 0.046872, , 
13.08, 0.046513, , 
13.11, 0.046168, , 
13.14, 0.045965, , 
13.17, 0.045650, , 
13.20, 0.045346, , 
13.23, 0.045080, , 
13.26, 0.044766, , 
13.29, 0.044410, , 
13.32, 0.043953, , 
13.35, 0.043725, , 
13.38, 0.043506, , 
13.41, 0.043272, , 
13.44, 0.043091, , 
13.47, 0.042859, , 
13.50, 0.042723, , 
13.53, 0.042542, , 
13.56, 0.042282, , 
13.59, 0.042114, , 
13.62, 0.041965, , 
13.65, 0.041778, , 
13.68, 0.041536, , 
13.71, 0.041299, , 
13.74, 0.041178, , 
13.77, 0.041019, , 
13.80, 0.040804, , 
13.83, 0.040620, , 
13.86, 0.040318, , 
13.89, 0.040043, , 
13.92, 0.039716, , 
13.95, 0.039437, , 
13.98, 0.039272, , 
14.01, 0.038974, , 
14.04, 0.038796, , 
14.07, 0.038495, , 
14.10, 0.038298, , 
14.13, 0.038070, , 
14.16, 0.037771, , 
14.19, 0.037632, , 
14.22, 0.037350, , 
14.25, 0.037169, , 
14.28, 0.036915, , 
14.31, 0.036721, , 
14.34, 0.036496, , 
14.37, 0.036363, , 
14.40, 0.036151, , 
14.43, 0.035986, , 
14.46, 0.035805, , 
14.49, 0.035659, , 
14.52, 0.035491, , 
14.55, 0.035437, , 
14.58, 0.035269, , 
14.61, 0.035110, , 
14.64, 0.035018, , 
14.67, 0.034936, , 
14.70, 0.034825, , 
14.73, 0.034625, , 
14.76, 0.034504, , 
14.79, 0.034406, , 
14.82, 0.034327, , 
14.85, 0.034209, , 
14.88, 0.034082, , 
14.91, 0.033930, , 
14.94, 0.033753, , 
14.97, 0.033572, , 
15.00, 0.033464, , 
15.03, 0.033404, , 
15.06, 0.033299, , 
15.09, 0.033115, , 
15.12, 0.032963, , 
15.15, 0.032817, , 
15.18, 0.032636, , 
15.21, 0.032493, , 
15.24, 0.032411, , 
15.27, 0.032344, , 
15.30, 0.032230, , 
15.33, 0.032030, , 
15.37, 0.031926, , 
15.39, 0.031903, , 
15.42, 0.031843, , 
15.45, 0.031783, , 
15.48, 0.031795, , 
15.51, 0.031757, , 
15.54, 0.031612, , 
15.57, 0.031408, , 
15.60, 0.031358, , 
15.63, 0.031488, , 
15.66, 0.031558, , 
15.69, 0.031615, , 
15.72, 0.031675, , 
15.75, 0.031691, , 
15.78, 0.031669, , 
15.81, 0.031669, , 
15.84, 0.031684, , 
15.87, 0.031669, , 
15.90, 0.031640, , 
15.93, 0.031637, , 
15.96, 0.031669, , 
15.99, 0.031688, 5, 0.585
15.99, 0.031678, , 
16.02, 0.031662, , 
16.05, 0.031675, , 
16.08, 0.031707, , 
16.11, 0.031767, , 
16.14, 0.031723, , 
16.17, 0.031681, , 
16.20, 0.031707, , 
16.23, 0.031669, , 
16.26, 0.031691, , 
16.29, 0.031681, , 
16.32, 0.031700, , 
16.35, 0.031735, , 
16.38, 0.031751, , 
16.41, 0.031824, , 
16.44, 0.032021, , 
16.47, 0.032160, , 
16.50, 0.032176, , 
16.53, 0.032211, , 
16.56, 0.032332, , 
16.59, 0.032471, , 
16.63, 0.032579, , 
16.65, 0.032623, , 
16.68, 0.032785, , 
16.71, 0.032941, , 
16.74, 0.033045, , 
16.77, 0.033140, , 
16.80, 0.033286, , 
16.83, 0.033407, , 
16.86, 0.033543, , 
16.89, 0.033654, , 
16.92, 0.033810, , 
16.95, 0.033962, , 
16.98, 0.034130, , 
17.01, 0.034409, , 
17.04, 0.034558, , 
17.07, 0.034650, , 
17.10, 0.034755, , 
17.14, 0.034917, , 
17.16, 0.035050, , 
17.19, 0.035104, , 
17.22, 0.035304, , 
17.25, 0.035535, , 
17.28, 0.035687, , 
17.31, 0.035837, , 
17.35, 0.035989, , 
17.37, 0.036112, , 
17.40, 0.036230, , 
17.43, 0.036290, , 
17.46, 0.036461, , 
17.49, 0.036652, , 
17.52, 0.036760, , 
17.55, 0.036807, , 
17.58, 0.036921, , 
17.62, 0.037105, , 
17.64, 0.037213, , 
17.67, 0.037277, , 
17.70, 0.037302, , 
17.73, 0.037343, , 
17.76, 0.037394, , 
17.79, 0.037473, , 
17.82, 0.037641, , 
17.85, 0.037790, , 
17.88, 0.037851, , 
17.91, 0.037816, , 
17.94, 0.037857, , 
17.97, 0.037895, , 
18.00, 0.037882, , 
18.03, 0.037857, , 
18.06, 0.037857, , 
18.09, 0.037819, , 
18.12, 0.037686, , 
18.15, 0.037483, , 
18.18, 0.037400, , 
18.21, 0.037397, , 
18.24, 0.037365, , 
18.27, 0.037235, , 
18.30, 0.037105, , 
18.33, 0.037042, , 
18.36, 0.036947, , 
18.39, 0.036791, , 
18.42, 0.036702, , 
18.45, 0.036563, , 
18.48, 0.036401, , 
18.51, 0.036233, , 
18.54, 0.036049, , 
18.57, 0.035824, , 
18.61, 0.035586, , 
18.63, 0.035335, , 
18.66, 0.035142, , 
18.69, 0.034872, , 
18.72, 0.034634, , 
18.75, 0.034457, , 
18.78, 0.034260, , 
18.81, 0.033962, , 
18.84, 0.033708, , 
18.87, 0.033454, , 
18.90, 0.033251, , 
18.93, 0.033023, , 
18.96, 0.032760, , 
18.99, 0.032550, , 
19.02, 0.032325, , 
19.05, 0.032103, , 
19.08, 0.031878, , 
19.11, 0.031637, , 
19.14, 0.031459, , 
19.17, 0.031212, , 
19.20, 0.031015, 6, 0.588
19.20, 0.030977, , 
19.23, 0.030768, , 
19.26, 0.030549, , 
19.29, 0.030311, , 
19.32, 0.030032, , 
19.35, 0.029876, , 
19.38, 0.029651, , 
19.41, 0.029388, , 
19.44, 0.029103, , 
19.47, 0.028896, , 
19.50, 0.028820, , 
19.53, 0.028649, , 
19.56, 0.028402, , 
19.59, 0.028252, , 
19.62, 0.028062, , 
19.65, 0.027878, , 
19.68, 0.027713, , 
19.71, 0.027532, , 
19.74, 0.027352, , 
19.78, 0.027117, , 
19.80, 0.027003, , 
19.83, 0.026898, , 
19.86, 0.026701, , 
19.89, 0.026533, , 
19.92, 0.026406, , 
19.95, 0.026219, , 
19.98, 0.026064, , 
20.01, 0.025943, , 
20.04, 0.025759, , 
20.08, 0.025632, , 
20.10, 0.025521, , 
20.13, 0.025423, , 
20.16, 0.025322, , 
20.19, 0.025201, , 
20.22, 0.025100, , 
20.25, 0.024969, , 
20.28, 0.024900, , 
20.31, 0.024779, , 
20.34, 0.024621, , 
20.37, 0.024494, , 
20.40, 0.024440, , 
20.43, 0.024437, , 
20.46, 0.024316, , 
20.49, 0.024088, , 
20.52, 0.024024, , 
20.55, 0.023996, , 
20.58, 0.023901, , 
20.61, 0.023831, , 
20.64, 0.023694, , 
20.67, 0.023571, , 
20.70, 0.023463, , 
20.73, 0.023333, , 
20.76, 0.023326, , 
20.79, 0.023355, , 
20.82, 0.023298, , 
20.85, 0.023127, , 
20.88, 0.023016, , 
20.91, 0.022911, , 
20.94, 0.022841, , 
20.97, 0.022828, , 
21.00, 0.022841, , 
21.03, 0.022857, , 
21.06, 0.022822, , 
21.09, 0.022755, , 
21.12, 0.022724, , 
21.15, 0.022546, , 
21.18, 0.022400, , 
21.21, 0.022315, , 
21.24, 0.022308, , 
21.27, 0.022280, , 
21.30, 0.022302, , 
21.33, 0.022289, , 
21.36, 0.022296, , 
21.39, 0.022318, , 
21.42, 0.022302, , 
21.45, 0.022283, , 
21.48, 0.022280, , 
21.51, 0.022251, , 
21.54, 0.022248, , 
21.57, 0.022216, , 
21.60, 0.022102, , 
21.63, 0.021915, , 
21.66, 0.021823, , 
21.69, 0.021807, , 
21.72, 0.021804, , 
21.75, 0.021744, , 
21.78, 0.021744, , 
21.81, 0.021753, , 
21.84, 0.021798, , 
21.87, 0.021737, , 
21.90, 0.021718, , 
21.93, 0.021763, , 
21.96, 0.021779, , 
21.99, 0.021709, , 
22.02, 0.021721, , 
22.05, 0.021785, , 
22.08, 0.021798, , 
22.11, 0.021807, , 
22.14, 0.021753, , 
22.17, 0.021775, , 
22.20, 0.021772, , 
22.23, 0.021794, , 
22.26, 0.021788, , 
22.29, 0.021753, , 
22.32, 0.021766, , 
22.35, 0.021702, , 
22.38, 0.021715, , 
22.39, 0.021728, 7, 0.584
22.41, 0.021785, , 
22.44, 0.021801, , 
22.48, 0.021832, , 
22.50, 0.021855, , 
22.53, 0.021839, , 
22.56, 0.021788, , 
22.59, 0.021766, , 
22.62, 0.021756, , 
22.65, 0.021763, , 
22.68, 0.021747, , 
22.71, 0.021680, , 
22.74, 0.021728, , 
22.77, 0.021756, , 
22.80, 0.021766, , 
22.83, 0.021709, , 
22.86, 0.021740, , 
22.89, 0.021874, , 
22.92, 0.022020, , 
22.95, 0.022083, , 
22.98, 0.022146, , 
23.01, 0.022245, , 
23.04, 0.022251, , 
23.07, 0.022264, , 
23.10, 0.022296, , 
23.13, 0.022346, , 
23.16, 0.022337, , 
23.19, 0.022330, , 
23.22, 0.022499, , 
23.25, 0.022644, , 
23.28, 0.022702, , 
23.31, 0.022768, , 
23.34, 0.022876, , 
23.37, 0.022895, , 
23.40, 0.022857, , 
23.43, 0.022879, , 
23.46, 0.022917, , 
23.49, 0.022955, , 
23.52, 0.023041, , 
23.55, 0.023193, , 
23.58, 0.023307, , 
23.61, 0.023345, , 
23.64, 0.023349, , 
23.67, 0.023466, , 
23.70, 0.023606, , 
23.73, 0.023707, , 
23.76, 0.023824, , 
23.79, 0.024043, , 
23.83, 0.024199, , 
23.85, 0.024421, , 
23.88, 0.024633, , 
23.91, 0.024877, , 
23.94, 0.025179, , 
23.97, 0.025461, , 
24.00, 0.025670, , 
24.03, 0.026007, , 
24.06, 0.026400, , 
24.09, 0.026584, , 
24.12, 0.026939, , 
24.15, 0.027317, , 
24.18, 0.027691, , 
24.21, 0.028097, , 
24.24, 0.028535, , 
24.27, 0.028947, , 
24.30, 0.029537, , 
24.33, 0.030092, , 
24.36, 0.030755, , 
24.39, 0.031190, , 
24.42, 0.031707, , 
24.45, 0.032363, , 
24.48, 0.032985, , 
24.51, 0.033784, , 
24.54, 0.034435, , 
24.57, 0.035097, , 
24.60, 0.035995, , 
24.63, 0.036753, , 
24.66, 0.037445, , 
24.69, 0.038190, , 
24.72, 0.038821, , 
24.75, 0.039697, , 
24.78, 0.040544, , 
24.81, 0.041375, , 
24.84, 0.042250, , 
24.87, 0.043205, , 
24.90, 0.043963, , 
24.93, 0.044686, , 
24.96, 0.045473, , 
24.99, 0.046221, , 
25.02, 0.047072, , 
25.05, 0.047811, , 
25.08, 0.048711, , 
25.11, 0.049447, , 
25.14, 0.049983, , 
25.17, 0.050713, , 
25.20, 0.051338, , 
25.23, 0.052058, , 
25.26, 0.052600, , 
25.29, 0.053120, , 
25.32, 0.053742, , 
25.35, 0.054101, , 
25.38, 0.054652, , 
25.41, 0.055043, , 
25.44, 0.055388, , 
25.47, 0.055763, , 
25.50, 0.056029, , 
25.53, 0.056365, , 
25.56, 0.056613, , 
25.59, 0.056844, 8, 0.586
25.59, 0.056882, , 
25.62, 0.057104, , 
25.65, 0.057374, , 
25.68, 0.057555, , 
25.71, 0.057631, , 
25.74, 0.057704, , 
25.77, 0.057853, , 
25.80, 0.057983, , 
25.83, 0.058050, , 
25.86, 0.058015, , 
25.89, 0.057926, , 
25.92, 0.057793, , 
25.95, 0.057701, , 
25.98, 0.057656, , 
26.01, 0.057656, , 
26.04, 0.057555, , 
26.07, 0.057377, , 
26.10, 0.057219, , 
26.13, 0.057104, , 
26.16, 0.056955, , 
26.19, 0.056822, , 
26.22, 0.056613, , 
26.25, 0.056495, , 
26.28, 0.056318, , 
26.31, 0.056042, , 
26.34, 0.055807, , 
26.37, 0.055591, , 
26.40, 0.055357, , 
26.43, 0.055125, , 
26.46, 0.054909, , 
26.49, 0.054795, , 
26.52, 0.054624, , 
26.55, 0.054383, , 
26.58, 0.054208, , 
26.61, 0.054015, , 
26.64, 0.053799, , 
26.67, 0.053580, , 
26.70, 0.053361, , 
26.73, 0.053133, , 
26.76, 0.052867, , 
26.79, 0.052610, , 
26.82, 0.052435, , 
26.85, 0.052207, , 
26.88, 0.052013, , 
26.91, 0.051753, , 
26.94, 0.051515, , 
26.97, 0.051363, , 
27.00, 0.051182, , 
27.03, 0.051014, , 
27.06, 0.050875, , 
27.09, 0.050580, , 
27.13, 0.050380, , 
27.15, 0.050034, , 
27.18, 0.049764, , 
27.21, 0.049533, , 
27.24, 0.049286, , 
27.27, 0.049044, , 
27.30, 0.048807, , 
27.34, 0.048543, , 
27.36, 0.048261, , 
27.39, 0.048004, , 
27.42, 0.047738, , 
27.45, 0.047433, , 
27.48, 0.047163, , 
27.51, 0.046846, , 
27.54, 0.046535, , 
27.57, 0.046313, , 
27.60, 0.045958, , 
27.63, 0.045733, , 
27.66, 0.045492, , 
27.69, 0.045137, , 
27.72, 0.044848, , 
27.75, 0.044664, , 
27.78, 0.044369, , 
27.82, 0.044049, , 
27.84, 0.043719, , 
27.87, 0.043449, , 
27.90, 0.043199, , 
27.93, 0.042885, , 
27.96, 0.042669, , 
27.99, 0.042453, , 
28.02, 0.042260, , 
28.05, 0.041984, , 
28.08, 0.041714, , 
28.11, 0.041489, , 
28.14, 0.041321, , 
28.17, 0.041165, , 
28.20, 0.040947, , 
28.23, 0.040797, , 
28.26, 0.040474, , 
28.29, 0.040252, , 
28.32, 0.040125, , 
28.36, 0.040039, , 
28.38, 0.039947, , 
28.41, 0.039732, , 
28.44, 0.039586, , 
28.47, 0.039506, , 
28.50, 0.039424, , 
28.53, 0.039256, , 
28.57, 0.039110, , 
28.59, 0.038983, , 
28.62, 0.038916, , 
28.65, 0.038840, , 
28.68, 0.038866, , 
28.71, 0.038913, , 
28.74, 0.038853, , 
28.78, 0.038710, , 
28.79, 0.038637, 9, 0.585
28.80, 0.038599, , 
28.83, 0.038549, , 
28.86, 0.038507, , 
28.89, 0.038514, , 
28.92, 0.038498, , 
28.95, 0.038482, , 
28.98, 0.038472, , 
29.01, 0.038447, , 
29.04, 0.038488, , 
29.07, 0.038549, , 
29.10, 0.038688, , 
29.13, 0.038764, , 
29.16, 0.038834, , 
29.19, 0.038901, , 
29.22, 0.038920, , 
29.25, 0.038945, , 
29.28, 0.038942, , 
29.31, 0.039024, , 
29.34, 0.039196, , 
29.37, 0.039284, , 
29.40, 0.039440, , 
29.43, 0.039659, , 
29.47, 0.039767, , 
29.49, 0.039890, , 
29.52, 0.040093, , 
29.55, 0.040268, , 
29.58, 0.040487, , 
29.61, 0.040671, , 
29.64, 0.040864, , 
29.67, 0.041048, , 
29.70, 0.041241, , 
29.73, 0.041508, , 
29.76, 0.041822, , 
29.79, 0.042168, , 
29.82, 0.042456, , 
29.85, 0.042866, , 
29.89, 0.043427, , 
29.91, 0.043795, , 
29.94, 0.044363, , 
29.97, 0.044953, , 
30.00, 0.045587, , 
30.03, 0.046358, , 
30.06, 0.047011, , 
30.10, 0.047966, , 
30.12, 0.048730, , 
30.15, 0.049711, , 
30.18, 0.050957, , 
30.21, 0.052124, , 
30.24, 0.053406, , 
30.27, 0.055055, , 
30.30, 0.056305, , 
30.33, 0.058440, , 
30.36, 0.060400, , 
30.39, 0.062589, , 
30.42, 0.065313, , 
30.45, 0.067851, , 
30.48, 0.071089, , 
30.51, 0.074147, , 
30.54, 0.076843, , 
30.57, 0.080929, , 
30.60, 0.084735, , 
30.63, 0.089556, , 
30.66, 0.093991, , 
30.69, 0.098682, , 
30.72, 0.104553, , 
30.75, 0.108965, , 
30.78, 0.115443, , 
30.81, 0.121368, , 
30.84, 0.127499, , 
30.87, 0.134842, , 
30.90, 0.141265, , 
30.93, 0.148960, , 
30.97, 0.155767, , 
30.99, 0.161531, , 
31.02, 0.169752, , 
31.05, 0.175513, , 
31.08, 0.185450, , 
31.11, 0.192663, , 
31.14, 0.199873, , 
31.18, 0.208326, , 
31.20, 0.214331, , 
31.23, 0.222622, , 
31.26, 0.229664, , 
31.29, 0.236607, , 
31.32, 0.244426, , 
31.35, 0.250916, , 
31.38, 0.255962, , 
31.41, 0.263283, , 
31.44, 0.269129, , 
31.47, 0.275755, , 
31.50, 0.281236, , 
31.53, 0.287352, , 
31.56, 0.292278, , 
31.60, 0.296855, , 
31.62, 0.301220, , 
31.65, 0.305378, , 
31.68, 0.309806, , 
31.71, 0.313263, , 
31.74, 0.316407, , 
31.77, 0.319598, , 
31.81, 0.322024, , 
31.83, 0.324134, , 
31.86, 0.326056, , 
31.89, 0.327750, , 
31.92, 0.329307, , 
31.95, 0.330300, , 
31.98, 0.331068, , 
31.99, 0.331169, 10, 0.585
32.01, 0.331572, , 
32.04, 0.331949, , 
32.07, 0.331962, , 
32.10, 0.331711, , 
32.13, 0.331210, , 
32.16, 0.330592, , 
32.19, 0.329440, , 
32.22, 0.328359, , 
32.25, 0.327106, , 
32.28, 0.325409, , 
32.31, 0.323699, , 
32.34, 0.321961, , 
32.37, 0.319779, , 
32.41, 0.317736, , 
32.43, 0.315614, , 
32.46, 0.313425, , 
32.49, 0.311100, , 
32.52, 0.308188, , 
32.55, 0.305657, , 
32.58, 0.302584, , 
32.61, 0.300306, , 
32.64, 0.297531, , 
32.67, 0.294213, , 
32.70, 0.291307, , 
32.73, 0.287733, , 
32.76, 0.284592, , 
32.79, 0.282039, , 
32.82, 0.278280, , 
32.85, 0.275143, , 
32.88, 0.271397, , 
32.91, 0.268225, , 
32.94, 0.265085, , 
32.97, 0.261900, , 
33.00, 0.258142, , 
33.03, 0.254944, , 
33.06, 0.251769, , 
33.09, 0.248052, , 
33.12, 0.244845, , 
33.15, 0.241197, , 
33.18, 0.238660, , 
33.21, 0.235592, , 
33.24, 0.231998, , 
33.27, 0.228925, , 
33.30, 0.225896, , 
33.33, 0.222305, , 
33.36, 0.219254, , 
33.39, 0.215707, , 
33.42, 0.213164, , 
33.45, 0.210144, , 
33.48, 0.206626, , 
33.51, 0.203695, , 
33.54, 0.200289, , 
33.57, 0.197351, , 
33.60, 0.194440, , 
33.63, 0.191617, , 
33.66, 0.188825, , 
33.69, 0.185504, , 
33.72, 0.182650, , 
33.75, 0.179928, , 
33.78, 0.176816, , 
33.81, 0.174142, , 
33.84, 0.171507, , 
33.87, 0.168950, , 
33.90, 0.166460, , 
33.93, 0.163615, , 
33.96, 0.161198, , 
33.99, 0.158397, , 
34.02, 0.156008, , 
34.05, 0.153969, , 
34.08, 0.151178, , 
34.11, 0.148900, , 
34.14, 0.146299, , 
34.17, 0.144072, , 
34.20, 0.141874, , 
34.23, 0.139441, , 
34.26, 0.137722, , 
34.29, 0.135258, , 
34.32, 0.133199, , 
34.35, 0.131204, , 
34.38, 0.128834, , 
34.41, 0.126751, , 
34.44, 0.124467, , 
34.47, 0.123331, , 
34.50, 0.121022, , 
34.53, 0.118684, , 
34.56, 0.116826, , 
34.59, 0.114754, , 
34.62, 0.112968, , 
34.65, 0.111179, , 
34.68, 0.109495, , 
34.71, 0.107909, , 
34.74, 0.106076, , 
34.77, 0.104487, , 
34.80, 0.102942, , 
34.83, 0.101207, , 
34.86, 0.099637, , 
34.89, 0.098108, , 
34.92, 0.096677, , 
34.95, 0.095310, , 
34.98, 0.093705, , 
35.01, 0.092392, , 
35.04, 0.091092, , 
35.07, 0.089652, , 
35.10, 0.088446, , 
35.13, 0.087250, , 
35.16, 0.086137, , 
35.19, 0.085068, , 
35.19, 0.084887, 11, 0.587
35.22, 0.083777, , 
35.25, 0.082676, , 
35.28, 0.081497, , 
35.32, 0.080516, , 
35.34, 0.079679, , 
35.37, 0.078470, , 
35.40, 0.077459, , 
35.43, 0.076326, , 
35.46, 0.075343, , 
35.49, 0.074407, , 
35.53, 0.073383, , 
35.55, 0.072637, , 
35.58, 0.071591, , 
35.61, 0.070734, , 
35.64, 0.069875, , 
35.67, 0.069024, , 
35.70, 0.068076, , 
35.73, 0.067289, , 
35.76, 0.066585, , 
35.79, 0.065748, , 
35.82, 0.065009, , 
35.85, 0.064175, , 
35.88, 0.063629, , 
35.91, 0.062985, , 
35.94, 0.062259, , 
35.97, 0.061681, , 
36.00, 0.061091, , 
36.03, 0.060517, , 
36.06, 0.059921, , 
36.09, 0.059461, , 
36.12, 0.058846, , 
36.15, 0.058294, , 
36.18, 0.057745, , 
36.21, 0.057168, , 
36.24, 0.056638, , 
36.27, 0.056048, , 
36.30, 0.055528, , 
36.33, 0.055074, , 
36.36, 0.054545, , 
36.39, 0.053847, , 
36.42, 0.053282, , 
36.45, 0.052679, , 
36.48, 0.052254, , 
36.52, 0.051829, , 
36.54, 0.051325, , 
36.57, 0.050871, , 
36.60, 0.050418, , 
36.63, 0.050088, , 
36.66, 0.049742, , 
36.69, 0.049368, , 
36.72, 0.049006, , 
36.75, 0.048657, , 
36.78, 0.048093, , 
36.81, 0.047747, , 
36.84, 0.047497, , 
36.87, 0.047119, , 
36.90, 0.046716, , 
36.93, 0.046421, , 
36.96, 0.046174, , 
37.00, 0.045771, , 
37.02, 0.045460, , 
37.05, 0.045206, , 
37.08, 0.044870, , 
37.11, 0.044540, , 
37.14, 0.044236, , 
37.17, 0.043950, , 
37.20, 0.043652, , 
37.23, 0.043370, , 
37.26, 0.043062, , 
37.29, 0.042843, , 
37.32, 0.042513, , 
37.35, 0.042184, , 
37.38, 0.041990, , 
37.41, 0.041711, , 
37.44, 0.041464, , 
37.47, 0.041197, , 
37.50, 0.040905, , 
37.53, 0.040721, , 
37.56, 0.040442, , 
37.59, 0.040144, , 
37.62, 0.039909, , 
37.65, 0.039656, , 
37.68, 0.039453, , 
37.71, 0.039224, , 
37.74, 0.038986, , 
37.77, 0.038720, , 
37.80, 0.038549, , 
37.83, 0.038282, , 
37.86, 0.038168, , 
37.89, 0.037993, , 
37.92, 0.037778, , 
37.95, 0.037575, , 
37.98, 0.037403, , 
38.01, 0.037178, , 
38.04, 0.037039, , 
38.07, 0.036810, , 
38.10, 0.036639, , 
38.13, 0.036493, , 
38.16, 0.036373, , 
38.19, 0.036198, , 
38.22, 0.036001, , 
38.25, 0.035944, , 
38.28, 0.035846, , 
38.31, 0.035691, , 
38.34, 0.035561, , 
38.37, 0.035446, , 
38.40, 0.035329, 12, 0.586
38.40, 0.035297, , 
38.43, 0.035091, , 
38.46, 0.034977, , 
38.49, 0.034888, , 
38.52, 0.034691, , 
38.55, 0.034520, , 
38.58, 0.034317, , 
38.61, 0.034184, , 
38.64, 0.033978, , 
38.67, 0.033743, , 
38.70, 0.033565, , 
38.73, 0.033458, , 
38.76, 0.033328, , 
38.79, 0.033150, , 
38.82, 0.033007, , 
38.85, 0.032909, , 
38.88, 0.032820, , 
38.91, 0.032665, , 
38.95, 0.032569, , 
38.97, 0.032496, , 
39.00, 0.032360, , 
39.03, 0.032271, , 
39.06, 0.032233, , 
39.09, 0.032141, , 
39.12, 0.031960, , 
39.15, 0.031830, , 
39.18, 0.031792, , 
39.21, 0.031795, , 
39.24, 0.031751, , 
39.27, 0.031713, , 
39.30, 0.031653, , 
39.33, 0.031535, , 
39.36, 0.031380, , 
39.39, 0.031307, , 
39.42, 0.031256, , 
39.45, 0.031237, , 
39.48, 0.031177, , 
39.51, 0.031028, , 
39.54, 0.030933, , 
39.57, 0.030834, , 
39.60, 0.030768, , 
39.63, 0.030638, , 
39.66, 0.030543, , 
39.69, 0.030447, , 
39.72, 0.030308, , 
39.75, 0.030219, , 
39.78, 0.030060, , 
39.81, 0.029911, , 
39.84, 0.029800, , 
39.87, 0.029743, , 
39.90, 0.029746, , 
39.93, 0.029635, , 
39.96, 0.029439, , 
39.99, 0.029340, , 
40.02, 0.029290, , 
40.05, 0.029233, , 
40.08, 0.029156, , 
40.11, 0.029112, , 
40.14, 0.029201, , 
40.17, 0.029191, , 
40.20, 0.029118, , 
40.23, 0.029125, , 
40.26, 0.029182, , 
40.29, 0.029144, , 
40.32, 0.029115, , 
40.35, 0.029147, , 
40.38, 0.029137, , 
40.41, 0.029118, , 
40.44, 0.029131, , 
40.47, 0.029150, , 
40.50, 0.029166, , 
40.53, 0.029179, , 
40.56, 0.029137, , 
40.59, 0.029141, , 
40.62, 0.029169, , 
40.65, 0.029163, , 
40.68, 0.029137, , 
40.71, 0.029150, , 
40.74, 0.029163, , 
40.77, 0.029150, , 
40.80, 0.029201, , 
40.83, 0.029318, , 
40.87, 0.029505, , 
40.89, 0.029569, , 
40.92, 0.029629, , 
40.95, 0.029772, , 
40.98, 0.029934, , 
41.01, 0.030022, , 
41.04, 0.030197, , 
41.07, 0.030374, , 
41.10, 0.030593, , 
41.13, 0.030784, , 
41.16, 0.031015, , 
41.19, 0.031215, , 
41.22, 0.031485, , 
41.25, 0.031767, , 
41.28, 0.032021, , 
41.31, 0.032477, , 
41.34, 0.032852, , 
41.37, 0.033197, , 
41.40, 0.033505, , 
41.43, 0.033911, , 
41.46, 0.034298, , 
41.50, 0.034768, , 
41.52, 0.035205, , 
41.56, 0.035646, , 
41.58, 0.036103, , 
41.59, 0.036296, 13, 0.585
41.61, 0.036664, , 
41.64, 0.037235, , 
41.67, 0.037974, , 
41.70, 0.038510, , 
41.73, 0.038980, , 
41.76, 0.039541, , 
41.79, 0.040242, , 
41.82, 0.040975, , 
41.85, 0.041736, , 
41.88, 0.042263, , 
41.91, 0.043097, , 
41.94, 0.043792, , 
41.97, 0.044509, , 
42.00, 0.045254, , 
42.03, 0.046085, , 
42.06, 0.046894, , 
42.09, 0.047804, , 
42.12, 0.048432, , 
42.15, 0.049565, , 
42.18, 0.050418, , 
42.21, 0.051265, , 
42.24, 0.052185, , 
42.27, 0.053393, , 
42.30, 0.054370, , 
42.33, 0.055284, , 
42.36, 0.056375, , 
42.39, 0.057320, , 
42.42, 0.058189, , 
42.45, 0.059001, , 
42.48, 0.060051, , 
42.51, 0.060987, , 
42.54, 0.062005, , 
42.57, 0.063131, , 
42.60, 0.064060, , 
42.63, 0.064853, , 
42.66, 0.065567, , 
42.69, 0.066376, , 
42.72, 0.067140, , 
42.75, 0.068013, , 
42.78, 0.068641, , 
42.81, 0.069148, , 
42.84, 0.069871, , 
42.87, 0.070512, , 
42.90, 0.071039, , 
42.93, 0.071540, , 
42.96, 0.072108, , 
42.99, 0.072479, , 
43.02, 0.072796, , 
43.05, 0.073107, , 
43.08, 0.073411, , 
43.11, 0.073636, , 
43.14, 0.073719, , 
43.17, 0.073789, , 
43.20, 0.073887, , 
43.23, 0.073906, , 
43.26, 0.073925, , 
43.29, 0.073881, , 
43.32, 0.073871, , 
43.35, 0.073852, , 
43.38, 0.073732, , 
43.41, 0.073532, , 
43.44, 0.073335, , 
43.47, 0.073091, , 
43.50, 0.072650, , 
43.53, 0.072307, , 
43.56, 0.072054, , 
43.59, 0.071708, , 
43.62, 0.071334, , 
43.65, 0.070982, , 
43.68, 0.070610, , 
43.71, 0.070049, , 
43.74, 0.069507, , 
43.77, 0.068932, , 
43.80, 0.068336, , 
43.83, 0.067886, , 
43.86, 0.067404, , 
43.89, 0.066871, , 
43.92, 0.066420, , 
43.96, 0.065837, , 
43.98, 0.065351, , 
44.01, 0.064806, , 
44.04, 0.064238, , 
44.07, 0.063740, , 
44.10, 0.063191, , 
44.13, 0.062747, , 
44.16, 0.062211, , 
44.19, 0.061628, , 
44.22, 0.061057, , 
44.25, 0.060476, , 
44.28, 0.060010, , 
44.31, 0.059550, , 
44.34, 0.058992, , 
44.37, 0.058516, , 
44.40, 0.057843, , 
44.43, 0.057330, , 
44.46, 0.056838, , 
44.49, 0.056308, , 
44.52, 0.055861, , 
44.55, 0.055325, , 
44.58, 0.054947, , 
44.61, 0.054538, , 
44.64, 0.054062, , 
44.67, 0.053622, , 
44.70, 0.053076, , 
44.73, 0.052673, , 
44.76, 0.052232, , 
44.78, 0.051855, 14, 0.584
44.80, 0.051696, , 
44.82, 0.051312, , 
44.85, 0.050856, , 
44.88, 0.050475, , 
44.91, 0.050104, , 
44.94, 0.049730, , 
44.97, 0.049400, , 
45.00, 0.049019, , 
45.03, 0.048635, , 
45.06, 0.048293, , 
45.09, 0.047966, , 
45.12, 0.047668, , 
45.15, 0.047195, , 
45.18, 0.046907, , 
45.21, 0.046675, , 
45.24, 0.046386, , 
45.27, 0.046126, , 
45.30, 0.045847, , 
45.33, 0.045628, , 
45.36, 0.045362, , 
45.39, 0.044965, , 
45.43, 0.044689, , 
45.45, 0.044499, , 
45.48, 0.044290, , 
45.51, 0.044112, , 
45.54, 0.043915, , 
45.57, 0.043792, , 
45.60, 0.043614, , 
45.63, 0.043287, , 
45.66, 0.043081, , 
45.69, 0.042888, , 
45.72, 0.042643, , 
45.75, 0.042412, , 
45.78, 0.042234, , 
45.81, 0.042123, , 
45.84, 0.041847, , 
45.87, 0.041625, , 
45.90, 0.041464, , 
45.93, 0.041251, , 
45.96, 0.041118, , 
45.99, 0.040889, , 
46.02, 0.040731, , 
46.05, 0.040525, , 
46.08, 0.040312, , 
46.11, 0.040131, , 
46.14, 0.040020, , 
46.17, 0.039963, , 
46.20, 0.039801, , 
46.23, 0.039611, , 
46.26, 0.039513, , 
46.29, 0.039373, , 
46.32, 0.039202, , 
46.35, 0.039018, , 
46.38, 0.038888, , 
46.41, 0.038758, , 
46.45, 0.038574, , 
46.47, 0.038476, , 
46.50, 0.038406, , 
46.53, 0.038292, , 
46.56, 0.038123, , 
46.59, 0.037927, , 
46.62, 0.037806, , 
46.66, 0.037619, , 
46.68, 0.037514, , 
46.71, 0.037350, , 
46.74, 0.037137, , 
46.77, 0.037032, , 
46.80, 0.036902, , 
46.83, 0.036807, , 
46.86, 0.036699, , 
46.89, 0.036550, , 
46.92, 0.036452, , 
46.95, 0.036363, , 
46.98, 0.036214, , 
47.01, 0.036100, , 
47.04, 0.035960, , 
47.07, 0.035862, , 
47.10, 0.035798, , 
47.13, 0.035640, , 
47.16, 0.035465, , 
47.19, 0.035421, , 
47.22, 0.035342, , 
47.25, 0.035342, , 
47.28, 0.035307, , 
47.31, 0.035300, , 
47.34, 0.035319, , 
47.37, 0.035240, , 
47.40, 0.035021, , 
47.43, 0.034907, , 
47.46, 0.034888, , 
47.49, 0.034847, , 
47.52, 0.034771, , 
47.55, 0.034774, , 
47.58, 0.034752, , 
47.61, 0.034647, , 
47.64, 0.034460, , 
47.67, 0.034358, , 
47.70, 0.034317, , 
47.73, 0.034273, , 
47.76, 0.034238, , 
47.79, 0.034254, , 
47.82, 0.034206, , 
47.85, 0.034089, , 
47.88, 0.033914, , 
47.91, 0.033832, , 
47.94, 0.033813, , 
47.97, 0.033810, , 
47.99, 0.033791, 15, 0.587
48.00, 0.033749, , 
48.03, 0.033749, , 
48.06, 0.033816, , 
48.09, 0.033791, , 
48.12, 0.033810, , 
48.15, 0.033813, , 
48.18, 0.033784, , 
48.21, 0.033737, , 
48.24, 0.033721, , 
48.27, 0.033759, , 
48.30, 0.033765, , 
48.33, 0.033740, , 
48.36, 0.033759, , 
48.39, 0.033730, , 
48.42, 0.033724, , 
48.45, 0.033683, , 
48.48, 0.033673, , 
48.51, 0.033711, , 
48.54, 0.033737, , 
48.57, 0.033705, , 
48.60, 0.033714, , 
48.63, 0.033803, , 
48.66, 0.033898, , 
48.69, 0.033978, , 
48.72, 0.034121, , 
48.75, 0.034206, , 
48.78, 0.034184, , 
48.81, 0.034203, , 
48.84, 0.034257, , 
48.87, 0.034473, , 
48.90, 0.034599, , 
48.93, 0.034615, , 
48.96, 0.034672, , 
48.99, 0.034777, , 
49.02, 0.034913, , 
49.05, 0.035009, , 
49.08, 0.035183, , 
49.11, 0.035351, , 
49.14, 0.035500, , 
49.17, 0.035675, , 
49.20, 0.035941, , 
49.23, 0.036179, , 
49.26, 0.036512, , 
49.29, 0.036775, , 
49.32, 0.037039, , 
49.35, 0.037369, , 
49.38, 0.037714, , 
49.41, 0.038200, , 
49.44, 0.038650, , 
49.47, 0.039110, , 
49.50, 0.039560, , 
49.53, 0.040119, , 
49.56, 0.040731, , 
49.59, 0.041299, , 
49.62, 0.041952, , 
49.65, 0.042561, , 
49.68, 0.043211, , 
49.71, 0.043928, , 
49.74, 0.044674, , 
49.77, 0.045660, , 
49.80, 0.046526, , 
49.83, 0.047512, , 
49.86, 0.048404, , 
49.89, 0.049178, , 
49.92, 0.050408, , 
49.95, 0.051389, , 
49.98, 0.052515, , 
50.01, 0.053606, , 
50.04, 0.054795, , 
50.08, 0.056207, , 
50.10, 0.057152, , 
50.13, 0.058503, , 
50.16, 0.059724, , 
50.19, 0.060892, , 
50.22, 0.062002, , 
50.25, 0.063372, , 
50.28, 0.064178, , 
50.31, 0.065983, , 
50.34, 0.067150, , 
50.37, 0.068273, , 
50.40, 0.069354, , 
50.43, 0.070509, , 
50.47, 0.071441, , 
50.49, 0.072409, , 
50.52, 0.073361, , 
50.55, 0.074195, , 
50.58, 0.075140, , 
50.61, 0.076000, , 
50.64, 0.076796, , 
50.67, 0.077528, , 
50.70, 0.078312, , 
50.73, 0.078959, , 
50.76, 0.079660, , 
50.80, 0.079974, , 
50.82, 0.080443, , 
50.85, 0.080903, , 
50.88, 0.081246, , 
50.91, 0.081509, , 
50.94, 0.081611, , 
50.97, 0.081703, , 
51.00, 0.081792, , 
51.03, 0.081785, , 
51.06, 0.081725, , 
51.09, 0.081614, , 
51.12, 0.081471, , 
51.15, 0.081170, , 
51.18, 0.080824, , 
51.19, 0.080773, 16, 0.585
51.22, 0.080450, , 
51.24, 0.080145, , 
51.27, 0.079730, , 
51.30, 0.079254, , 
51.33, 0.078816, , 
51.36, 0.078296, , 
51.39, 0.077744, , 
51.42, 0.077141, , 
51.45, 0.076542, , 
51.48, 0.076022, , 
51.51, 0.075327, , 
51.54, 0.074731, , 
51.57, 0.074414, , 
51.60, 0.073798, , 
51.63, 0.073081, , 
51.66, 0.072491, , 
51.69, 0.071933, , 
51.72, 0.071283, , 
51.75, 0.070779, , 
51.78, 0.070071, , 
51.81, 0.069532, , 
51.84, 0.068967, , 
51.87, 0.068279, , 
51.90, 0.067702, , 
51.94, 0.067182, , 
51.96, 0.066528, , 
51.99, 0.065932, , 
52.02, 0.065351, , 
52.05, 0.064942, , 
52.08, 0.064451, , 
52.11, 0.063975, , 
52.14, 0.063521, , 
52.17, 0.063106, , 
52.20, 0.062668, , 
52.23, 0.062179, , 
52.26, 0.061716, , 
52.29, 0.061279, , 
52.32, 0.060793, , 
52.35, 0.060346, , 
52.38, 0.059927, , 
52.41, 0.059525, , 
52.44, 0.059080, , 
52.47, 0.058630, , 
52.50, 0.058322, , 
52.53, 0.057954, , 
52.56, 0.057723, , 
52.59, 0.057276, , 
52.62, 0.056762, , 
52.65, 0.056368, , 
52.68, 0.055953, , 
52.71, 0.055639, , 
52.74, 0.055331, , 
52.78, 0.054928, , 
52.80, 0.054640, , 
52.83, 0.054278, , 
52.86, 0.053993, , 
52.89, 0.053682, , 
52.92, 0.053349, , 
52.95, 0.053051, , 
52.99, 0.052714, , 
53.01, 0.052454, , 
53.04, 0.052191, , 
53.07, 0.051896, , 
53.10, 0.051684, , 
53.13, 0.051344, , 
53.17, 0.051040, , 
53.19, 0.050818, , 
53.22, 0.050535, , 
53.25, 0.050316, , 
53.28, 0.050009, , 
53.31, 0.049768, , 
53.34, 0.049552, , 
53.37, 0.049438, , 
53.40, 0.049216, , 
53.43, 0.048962, , 
53.46, 0.048822, , 
53.49, 0.048616, , 
53.52, 0.048416, , 
53.55, 0.048220, , 
53.58, 0.047988, , 
53.61, 0.047773, , 
53.64, 0.047484, , 
53.67, 0.047284, , 
53.70, 0.047179, , 
53.73, 0.046976, , 
53.76, 0.046780, , 
53.79, 0.046659, , 
53.82, 0.046564, , 
53.85, 0.046402, , 
53.88, 0.046120, , 
53.91, 0.045911, , 
53.94, 0.045784, , 
53.97, 0.045663, , 
54.00, 0.045543, , 
54.03, 0.045394, , 
54.06, 0.045279, , 
54.09, 0.045140, , 
54.12, 0.045019, , 
54.15, 0.044940, , 
54.18, 0.044826, , 
54.21, 0.044686, , 
54.24, 0.044569, , 
54.27, 0.044486, , 
54.30, 0.044439, , 
54.33, 0.044271, , 
54.36, 0.044103, , 
54.39, 0.044049, 17, 0.586
54.39, 0.044036, , 
54.42, 0.044026, , 
54.45, 0.043979, , 
54.48, 0.043823, , 
54.51, 0.043770, , 
54.54, 0.043659, , 
54.57, 0.043497, , 
54.60, 0.043335, , 
54.63, 0.043240, , 
54.66, 0.043173, , 
54.69, 0.043091, , 
54.72, 0.043046, , 
54.75, 0.043049, , 
54.78, 0.043075, , 
54.81, 0.043034, , 
54.84, 0.043037, , 
54.87, 0.043040, , 
54.90, 0.042989, , 
54.93, 0.042793, , 
54.96, 0.042675, , 
54.99, 0.042653, , 
55.02, 0.042650, , 
55.06, 0.042666, , 
55.08, 0.042755, , 
55.11, 0.042919, , 
55.14, 0.043034, , 
55.17, 0.043034, , 
55.20, 0.043069, , 
55.23, 0.043180, , 
55.26, 0.043332, , 
55.29, 0.043452, , 
55.32, 0.043611, , 
55.35, 0.043808, , 
55.38, 0.043979, , 
55.41, 0.044166, , 
55.44, 0.044366, , 
55.47, 0.044683, , 
55.50, 0.044981, , 
55.53, 0.045264, , 
55.56, 0.045546, , 
55.59, 0.045945, , 
55.62, 0.046313, , 
55.66, 0.046719, , 
55.68, 0.047129, , 
55.71, 0.047563, , 
55.74, 0.048118, , 
55.77, 0.048474, , 
55.80, 0.049025, , 
55.83, 0.049539, , 
55.86, 0.050126, , 
55.89, 0.050875, , 
55.92, 0.051604, , 
55.95, 0.052464, , 
55.98, 0.053127, , 
56.01, 0.053799, , 
56.04, 0.054618, , 
56.07, 0.055503, , 
56.10, 0.056524, , 
56.13, 0.057491, , 
56.16, 0.058497, , 
56.19, 0.059689, , 
56.23, 0.060676, , 
56.25, 0.061675, , 
56.28, 0.062658, , 
56.31, 0.063702, , 
56.34, 0.064717, , 
56.37, 0.065846, , 
56.40, 0.066883, , 
56.43, 0.067924, , 
56.46, 0.069078, , 
56.49, 0.070036, , 
56.52, 0.071267, , 
56.55, 0.072168, , 
56.58, 0.073265, , 
56.61, 0.074157, , 
56.64, 0.075004, , 
56.67, 0.075914, , 
56.70, 0.076643, , 
56.73, 0.077471, , 
56.76, 0.078052, , 
56.79, 0.078658, , 
56.82, 0.079352, , 
56.85, 0.079930, , 
56.88, 0.080469, , 
56.91, 0.080935, , 
56.94, 0.081236, , 
56.97, 0.081512, , 
57.00, 0.081760, , 
57.03, 0.081975, , 
57.06, 0.082131, , 
57.09, 0.082255, , 
57.12, 0.082321, , 
57.15, 0.082369, , 
57.18, 0.082312, , 
57.21, 0.082194, , 
57.24, 0.082052, , 
57.27, 0.081887, , 
57.30, 0.081642, , 
57.33, 0.081424, , 
57.36, 0.081243, , 
57.39, 0.080999, , 
57.42, 0.080723, , 
57.46, 0.080269, , 
57.48, 0.079964, , 
57.51, 0.079498, , 
57.54, 0.079073, , 
57.57, 0.078616, , 
57.59, 0.078347, 18, 0.586
57.60, 0.078220, , 
57.63, 0.077725, , 
57.66, 0.077281, , 
57.69, 0.076875, , 
57.72, 0.076387, , 
57.75, 0.075920, , 
57.78, 0.075483, , 
57.81, 0.075280, , 
57.84, 0.074655, , 
57.87, 0.074138, , 
57.90, 0.073605, , 
57.93, 0.073186, , 
57.96, 0.072587, , 
57.99, 0.072009, , 
58.02, 0.071441, , 
58.05, 0.070947, , 
58.08, 0.070493, , 
58.11, 0.069989, , 
58.14, 0.069538, , 
58.17, 0.069072, , 
58.20, 0.068599, , 
58.23, 0.068152, , 
58.26, 0.067708, , 
58.29, 0.067277, , 
58.32, 0.066858, , 
58.35, 0.066341, , 
58.38, 0.065916, , 
58.41, 0.065523, , 
58.44, 0.065256, , 
58.47, 0.064923, , 
58.50, 0.064457, , 
58.53, 0.064070, , 
58.56, 0.063708, , 
58.59, 0.063388, , 
58.62, 0.063071, , 
58.65, 0.062747, , 
58.68, 0.062338, , 
58.71, 0.062024, , 
58.74, 0.061707, , 
58.77, 0.061374, , 
58.80, 0.061136, , 
58.83, 0.060663, , 
58.86, 0.060343, , 
58.89, 0.060032, , 
58.92, 0.059728, , 
58.95, 0.059433, , 
58.98, 0.059109, , 
59.01, 0.058801, , 
59.04, 0.058506, , 
59.07, 0.058224, , 
59.10, 0.057992, , 
59.13, 0.057713, , 
59.17, 0.057422, , 
59.19, 0.057130, , 
59.22, 0.056841, , 
59.25, 0.056606, , 
59.28, 0.056337, , 
59.31, 0.056134, , 
59.34, 0.055877, , 
59.37, 0.055690, , 
59.40, 0.055490, , 
59.43, 0.055192, , 
59.46, 0.054985, , 
59.49, 0.054855, , 
59.52, 0.054694, , 
59.55, 0.054462, , 
59.58, 0.054259, , 
59.61, 0.054170, , 
59.64, 0.054015, , 
59.67, 0.053850, , 
59.70, 0.053720, , 
59.73, 0.053561, , 
59.76, 0.053412, , 
59.79, 0.053244, , 
59.82, 0.053216, , 
59.85, 0.053200, , 
59.88, 0.053181, , 
59.91, 0.053060, , 
59.94, 0.052921, , 
59.98, 0.052841, , 
60.00, 0.052768, , 
60.03, 0.052686, , 
60.06, 0.052679, , 
60.09, 0.052667, , 
60.12, 0.052664, , 
60.15, 0.052657, , 
60.18, 0.052657, , 
60.21, 0.052692, , 
60.24, 0.052724, , 
60.27, 0.052775, , 
60.30, 0.052927, , 
60.33, 0.053063, , 
60.36, 0.053165, , 
60.39, 0.053330, , 
60.42, 0.053460, , 
60.45, 0.053631, , 
60.48, 0.053802, , 
60.51, 0.054024, , 
60.54, 0.054310, , 
60.57, 0.054633, , 
60.60, 0.054957, , 
60.63, 0.055265, , 
60.66, 0.055658, , 
60.69, 0.056143, , 
60.72, 0.056518, , 
60.75, 0.057000, , 
60.78, 0.057472, 19, 0.584
60.81, 0.057609, , 
60.81, 0.057723, , 
60.84, 0.058427, , 
60.87, 0.059033, , 
60.90, 0.059718, , 
60.93, 0.060460, , 
60.96, 0.060977, , 
60.99, 0.061650, , 
61.02, 0.062325, , 
61.06, 0.063045, , 
61.08, 0.063731, , 
61.11, 0.064359, , 
61.14, 0.065129, , 
61.17, 0.065818, , 
61.20, 0.066512, , 
61.23, 0.067362, , 
61.26, 0.067994, , 
61.29, 0.068764, , 
61.32, 0.069392, , 
61.35, 0.070017, , 
61.38, 0.070823, , 
61.41, 0.071492, , 
61.44, 0.072228, , 
61.47, 0.072783, , 
61.50, 0.073430, , 
61.53, 0.074211, , 
61.56, 0.074807, , 
61.59, 0.075479, , 
61.62, 0.076003, , 
61.65, 0.076501, , 
61.68, 0.076932, , 
61.71, 0.077379, , 
61.74, 0.077868, , 
61.77, 0.078204, , 
61.80, 0.078470, , 
61.83, 0.078842, , 
61.86, 0.079133, , 
61.89, 0.079324, , 
61.92, 0.079397, , 
61.95, 0.079511, , 
61.98, 0.079717, , 
62.01, 0.079850, , 
62.04, 0.079876, , 
62.07, 0.079879, , 
62.10, 0.079834, , 
62.13, 0.079676, , 
62.16, 0.079536, , 
62.19, 0.079463, , 
62.22, 0.079343, , 
62.25, 0.079165, , 
62.28, 0.078949, , 
62.31, 0.078791, , 
62.34, 0.078582, , 
62.37, 0.078293, , 
62.40, 0.077998, , 
62.43, 0.077703, , 
62.46, 0.077402, , 
62.49, 0.077037, , 
62.52, 0.076558, , 
62.55, 0.076177, , 
62.58, 0.075882, , 
62.61, 0.075562, , 
62.64, 0.075181, , 
62.67, 0.074778, , 
62.70, 0.074414, , 
62.73, 0.073970, , 
62.76, 0.073513, , 
62.79, 0.073069, , 
62.82, 0.072672, , 
62.85, 0.072193, , 
62.88, 0.071714, , 
62.91, 0.071232, , 
62.94, 0.070813, , 
62.97, 0.070347, , 
63.00, 0.069836, , 
63.03, 0.069402, , 
63.06, 0.068999, , 
63.09, 0.068539, , 
63.12, 0.068140, , 
63.15, 0.067816, , 
63.18, 0.067508, , 
63.21, 0.067064, , 
63.25, 0.066655, , 
63.27, 0.066344, , 
63.30, 0.065903, , 
63.33, 0.065459, , 
63.36, 0.064930, , 
63.39, 0.064581, , 
63.42, 0.064292, , 
63.45, 0.063880, , 
63.48, 0.063623, , 
63.51, 0.063309, , 
63.54, 0.063039, , 
63.57, 0.062728, , 
63.60, 0.062376, , 
63.63, 0.062138, , 
63.67, 0.061869, , 
63.69, 0.061650, , 
63.72, 0.061450, , 
63.75, 0.061275, , 
63.78, 0.061120, , 
63.81, 0.060904, , 
63.84, 0.060758, , 
63.87, 0.060641, , 
63.90, 0.060476, , 
63.93, 0.060289, , 
63.96, 0.060200, , 
63.99, 0.060200, 20, 0.587
64.00, 0.060187, , 
64.02, 0.060159, , 
64.05, 0.060134, , 
64.08, 0.060165, , 
64.11, 0.060191, , 
64.14, 0.060165, , 
64.17, 0.060121, , 
64.20, 0.060118, , 
64.23, 0.060210, , 
64.26, 0.060327, , 
64.29, 0.060397, , 
64.32, 0.060587, , 
64.35, 0.060835, , 
64.38, 0.060958, , 
64.41, 0.061145, , 
64.44, 0.061399, , 
64.47, 0.061672, , 
64.50, 0.061938, , 
64.53, 0.062189, , 
64.56, 0.062624, , 
64.59, 0.062991, , 
64.62, 0.063407, , 
64.65, 0.063848, , 
64.68, 0.064333, , 
64.71, 0.064822, , 
64.74, 0.065228, , 
64.77, 0.065643, , 
64.80, 0.066243, , 
64.83, 0.066842, , 
64.86, 0.067467, , 
64.89, 0.067946, , 
64.93, 0.068434, , 
64.95, 0.068939, , 
64.98, 0.069491, , 
65.01, 0.070128, , 
65.04, 0.070668, , 
65.07, 0.071156, , 
65.10, 0.071660, , 
65.13, 0.072031, , 
65.16, 0.072580, , 
65.19, 0.073031, , 
65.22, 0.073440, , 
65.25, 0.073957, , 
65.28, 0.074442, , 
65.31, 0.074886, , 
65.35, 0.075146, , 
65.37, 0.075403, , 
65.40, 0.075825, , 
65.43, 0.076104, , 
65.46, 0.076380, , 
65.49, 0.076631, , 
65.52, 0.076888, , 
65.55, 0.077081, , 
65.58, 0.077259, , 
65.61, 0.077547, , 
65.64, 0.077750, , 
65.67, 0.077871, , 
65.70, 0.077890, , 
65.73, 0.077928, , 
65.76, 0.077976, , 
65.79, 0.077934, , 
65.82, 0.077827, , 
65.85, 0.077693, , 
65.88, 0.077627, , 
65.91, 0.077452, , 
65.94, 0.077262, , 
65.97, 0.077056, , 
66.00, 0.076843, , 
66.03, 0.076574, , 
66.06, 0.076329, , 
66.10, 0.076073, , 
66.12, 0.075781, , 
66.15, 0.075505, , 
66.18, 0.075130, , 
66.21, 0.074785, , 
66.24, 0.074528, , 
66.27, 0.074141, , 
66.30, 0.073849, , 
66.33, 0.073414, , 
66.36, 0.073097, , 
66.39, 0.072783, , 
66.42, 0.072476, , 
66.45, 0.072098, , 
66.48, 0.071740, , 
66.51, 0.071403, , 
66.54, 0.071089, , 
66.57, 0.070747, , 
66.60, 0.070382, , 
66.63, 0.069979, , 
66.66, 0.069567, , 
66.69, 0.069250, , 
66.72, 0.068929, , 
66.75, 0.068606, , 
66.78, 0.068298, , 
66.81, 0.068048, , 
66.84, 0.067778, , 
66.87, 0.067381, , 
66.90, 0.067105, , 
66.93, 0.066890, , 
66.96, 0.066680, , 
66.99, 0.066411, , 
67.02, 0.066144, , 
67.05, 0.065986, , 
67.08, 0.065818, , 
67.11, 0.065697, , 
67.14, 0.065640, , 
67.17, 0.065599, , 
67.19, 0.065602, 21, 0.585
67.20, 0.065596, , 
67.23, 0.065561, , 
67.26, 0.065589, , 
67.29, 0.065640, , 
67.32, 0.065653, , 
67.35, 0.065605, , 
67.38, 0.065592, , 
67.41, 0.065656, , 
67.44, 0.065761, , 
67.47, 0.065862, , 
67.50, 0.066002, , 
67.53, 0.066179, , 
67.56, 0.066357, , 
67.59, 0.066563, , 
67.63, 0.066744, , 
67.65, 0.066966, , 
67.68, 0.067255, , 
67.71, 0.067594, , 
67.74, 0.067870, , 
67.77, 0.068174, , 
67.80, 0.068488, , 
67.83, 0.068704, , 
67.86, 0.069040, , 
67.89, 0.069392, , 
67.92, 0.069767, , 
67.95, 0.070198, , 
67.98, 0.070626, , 
68.01, 0.071169, , 
68.04, 0.071454, , 
68.07, 0.071711, , 
68.10, 0.072101, , 
68.13, 0.072501, , 
68.16, 0.072872, , 
68.19, 0.073173, , 
68.22, 0.073484, , 
68.25, 0.073773, , 
68.28, 0.074033, , 
68.31, 0.074350, , 
68.34, 0.074601, , 
68.37, 0.074848, , 
68.40, 0.075077, , 
68.43, 0.075280, , 
68.46, 0.075521, , 
68.49, 0.075739, , 
68.52, 0.075828, , 
68.55, 0.075800, , 
68.58, 0.075860, , 
68.61, 0.075901, , 
68.64, 0.075908, , 
68.67, 0.075895, , 
68.70, 0.075898, , 
68.73, 0.075860, , 
68.76, 0.075803, , 
68.79, 0.075692, , 
68.82, 0.075584, , 
68.85, 0.075432, , 
68.88, 0.075280, , 
68.91, 0.075111, , 
68.94, 0.075023, , 
68.97, 0.074845, , 
69.00, 0.074598, , 
69.03, 0.074379, , 
69.06, 0.074179, , 
69.09, 0.074011, , 
69.12, 0.073779, , 
69.15, 0.073506, , 
69.18, 0.073310, , 
69.21, 0.073075, , 
69.24, 0.072840, , 
69.27, 0.072599, , 
69.30, 0.072396, , 
69.33, 0.072212, , 
69.36, 0.071886, , 
69.39, 0.071594, , 
69.42, 0.071334, , 
69.45, 0.071023, , 
69.48, 0.070747, , 
69.51, 0.070544, , 
69.54, 0.070379, , 
69.57, 0.070138, , 
69.60, 0.069833, , 
69.63, 0.069662, , 
69.66, 0.069567, , 
69.69, 0.069364, , 
69.72, 0.069180, , 
69.75, 0.069037, , 
69.78, 0.068917, , 
69.81, 0.068755, , 
69.84, 0.068593, , 
69.87, 0.068514, , 
69.90, 0.068469, , 
69.93, 0.068447, , 
69.96, 0.068412, , 
69.99, 0.068438, , 
70.02, 0.068450, , 
70.05, 0.068431, , 
70.08, 0.068520, , 
70.11, 0.068685, , 
70.14, 0.068844, , 
70.17, 0.068929, , 
70.20, 0.069078, , 
70.23, 0.069278, , 
70.26, 0.069548, , 
70.29, 0.069776, , 
70.32, 0.069938, , 
70.35, 0.070192, , 
70.38, 0.070420, , 
70.39, 0.070468, 22, 0.586
70.41, 0.070636, , 
70.44, 0.070880, , 
70.47, 0.071143, , 
70.50, 0.071457, , 
70.53, 0.071625, , 
70.56, 0.071794, , 
70.59, 0.072019, , 
70.62, 0.072254, , 
70.65, 0.072437, , 
70.68, 0.072691, , 
70.71, 0.072945, , 
70.74, 0.073104, , 
70.77, 0.073249, , 
70.80, 0.073443, , 
70.83, 0.073643, , 
70.86, 0.073792, , 
70.89, 0.073820, , 
70.92, 0.073827, , 
70.95, 0.073878, , 
70.98, 0.073916, , 
71.01, 0.073906, , 
71.04, 0.073881, , 
71.07, 0.073871, , 
71.10, 0.073925, , 
71.14, 0.073931, , 
71.16, 0.073897, , 
71.19, 0.073881, , 
71.22, 0.073893, , 
71.25, 0.073833, , 
71.29, 0.073795, , 
71.31, 0.073605, , 
71.34, 0.073402, , 
71.37, 0.073256, , 
71.40, 0.073094, , 
71.43, 0.073043, , 
71.46, 0.072840, , 
71.49, 0.072615, , 
71.52, 0.072412, , 
71.55, 0.072162, , 
71.59, 0.072114, , 
71.61, 0.071924, , 
71.64, 0.071651, , 
71.67, 0.071476, , 
71.70, 0.071229, , 
71.73, 0.071004, , 
71.77, 0.070947, , 
71.79, 0.070680, , 
71.82, 0.070395, , 
71.85, 0.070160, , 
71.88, 0.070027, , 
71.91, 0.069989, , 
71.94, 0.069760, , 
71.97, 0.069554, , 
72.00, 0.069516, , 
72.03, 0.069500, , 
72.06, 0.069459, , 
72.09, 0.069434, , 
72.12, 0.069316, , 
72.15, 0.069240, , 
72.19, 0.069237, , 
72.21, 0.069297, , 
72.24, 0.069316, , 
72.27, 0.069399, , 
72.30, 0.069437, , 
72.33, 0.069450, , 
72.36, 0.069567, , 
72.40, 0.069602, , 
72.42, 0.069716, , 
72.45, 0.069843, , 
72.48, 0.069941, , 
72.51, 0.070131, , 
72.54, 0.070166, , 
72.57, 0.070312, , 
72.60, 0.070417, , 
72.63, 0.070544, , 
72.66, 0.070683, , 
72.69, 0.070712, , 
72.72, 0.070855, , 
72.75, 0.070963, , 
72.78, 0.071093, , 
72.81, 0.071251, , 
72.84, 0.071280, , 
72.87, 0.071372, , 
72.90, 0.071403, , 
72.93, 0.071394, , 
72.96, 0.071445, , 
72.99, 0.071435, , 
73.02, 0.071397, , 
73.05, 0.071416, , 
73.08, 0.071435, , 
73.11, 0.071410, , 
73.14, 0.071419, , 
73.17, 0.071410, , 
73.20, 0.071410, , 
73.23, 0.071403, , 
73.26, 0.071273, , 
73.29, 0.071238, , 
73.32, 0.071099, , 
73.35, 0.070988, , 
73.38, 0.070817, , 
73.41, 0.070674, , 
73.45, 0.070655, , 
73.47, 0.070503, , 
73.50, 0.070258, , 
73.53, 0.070128, , 
73.56, 0.070014, , 
73.59, 0.069849, 23, 0.586
73.60, 0.069827, , 
73.62, 0.069795, , 
73.65, 0.069637, , 
73.68, 0.069526, , 
73.71, 0.069326, , 
73.74, 0.069186, , 
73.77, 0.069063, , 
73.80, 0.068885, , 
73.83, 0.068739, , 
73.86, 0.068596, , 
73.89, 0.068533, , 
73.92, 0.068520, , 
73.95, 0.068476, , 
73.98, 0.068390, , 
74.01, 0.068238, , 
74.05, 0.068152, , 
74.07, 0.068089, , 
74.10, 0.068041, , 
74.13, 0.068060, , 
74.16, 0.068028, , 
74.19, 0.067997, , 
74.22, 0.067981, , 
74.25, 0.068041, , 
74.28, 0.068063, , 
74.31, 0.068247, , 
74.34, 0.068365, , 
74.37, 0.068434, , 
74.40, 0.068466, , 
74.43, 0.068482, , 
74.46, 0.068476, , 
74.49, 0.068523, , 
74.52, 0.068587, , 
74.55, 0.068695, , 
74.58, 0.068723, , 
74.61, 0.068894, , 
74.64, 0.068920, , 
74.67, 0.068999, , 
74.70, 0.069009, , 
74.73, 0.069044, , 
74.76, 0.069031, , 
74.79, 0.068971, , 
74.82, 0.068986, , 
74.85, 0.069021, , 
74.88, 0.068967, , 
74.91, 0.068812, , 
74.94, 0.068704, , 
74.97, 0.068606, , 
75.00, 0.068587, , 
75.03, 0.068549, , 
75.06, 0.068549, , 
75.09, 0.068542, , 
75.12, 0.068507, , 
75.15, 0.068403, , 
75.18, 0.068298, , 
75.21, 0.068206, , 
75.24, 0.068098, , 
75.27, 0.067971, , 
75.30, 0.067857, , 
75.33, 0.067762, , 
75.36, 0.067702, , 
75.39, 0.067550, , 
75.42, 0.067439, , 
75.45, 0.067286, , 
75.48, 0.067178, , 
75.51, 0.067055, , 
75.54, 0.066998, , 
75.57, 0.066855, , 
75.60, 0.066699, , 
75.63, 0.066620, , 
75.66, 0.066566, , 
75.69, 0.066370, , 
75.72, 0.066208, , 
75.75, 0.066173, , 
75.78, 0.066103, , 
75.81, 0.066071, , 
75.84, 0.066059, , 
75.87, 0.066040, , 
75.90, 0.066059, , 
75.93, 0.066046, , 
75.96, 0.065992, , 
75.99, 0.065868, , 
76.02, 0.065757, , 
76.05, 0.065634, , 
76.08, 0.065532, , 
76.11, 0.065519, , 
76.14, 0.065529, , 
76.17, 0.065532, , 
76.20, 0.065494, , 
76.23, 0.065424, , 
76.26, 0.065316, , 
76.29, 0.065183, , 
76.32, 0.065126, , 
76.35, 0.065107, , 
76.38, 0.065072, , 
76.41, 0.065002, , 
76.44, 0.064901, , 
76.47, 0.064787, , 
76.50, 0.064679, , 
76.53, 0.064628, , 
76.56, 0.064577, , 
76.59, 0.064587, , 
76.62, 0.064609, , 
76.65, 0.064508, , 
76.68, 0.064362, , 
76.71, 0.064235, , 
76.74, 0.064146, , 
76.77, 0.064083, , 
76.79, 0.064089, 24, 0.585
76.80, 0.064064, , 
76.83, 0.064003, , 
76.86, 0.063899, , 
76.89, 0.063750, , 
76.92, 0.063692, , 
76.95, 0.063623, , 
76.98, 0.063442, , 
77.01, 0.063261, , 
77.04, 0.063118, , 
77.07, 0.062991, , 
77.10, 0.062833, , 
77.13, 0.062690, , 
77.16, 0.062535, , 
77.19, 0.062376, , 
77.22, 0.062252, , 
77.25, 0.062078, , 
77.28, 0.061926, , 
77.31, 0.061767, , 
77.34, 0.061615, , 
77.37, 0.061437, , 
77.40, 0.061266, , 
77.43, 0.061104, , 
77.46, 0.060850, , 
77.49, 0.060568, , 
77.52, 0.060276, , 
77.55, 0.059969, , 
77.59, 0.059905, , 
77.61, 0.059477, , 
77.64, 0.059027, , 
77.67, 0.058671, , 
77.70, 0.058195, , 
77.73, 0.057875, , 
77.76, 0.057606, , 
77.79, 0.057180, , 
77.82, 0.056736, , 
77.85, 0.056330, , 
77.88, 0.055912, , 
77.91, 0.055407, , 
77.94, 0.054649, , 
77.97, 0.054113, , 
78.00, 0.053574, , 
78.03, 0.053101, , 
78.06, 0.052692, , 
78.09, 0.052216, , 
78.12, 0.051766, , 
78.15, 0.051249, , 
78.18, 0.050789, , 
78.21, 0.050316, , 
78.24, 0.049885, , 
78.28, 0.049463, , 
78.30, 0.049044, , 
78.33, 0.048743, , 
78.36, 0.048429, , 
78.39, 0.048020, , 
78.42, 0.047566, , 
78.45, 0.047151, , 
78.48, 0.046900, , 
78.51, 0.046824, , 
78.54, 0.046228, , 
78.57, 0.045873, , 
78.60, 0.045574, , 
78.63, 0.045260, , 
78.66, 0.044918, , 
78.69, 0.044667, , 
78.72, 0.044420, , 
78.75, 0.044122, , 
78.78, 0.043925, , 
78.81, 0.043706, , 
78.84, 0.043440, , 
78.87, 0.043180, , 
78.90, 0.042919, , 
78.93, 0.042774, , 
78.96, 0.042567, , 
78.99, 0.042298, , 
79.02, 0.042152, , 
79.05, 0.042003, , 
79.08, 0.041784, , 
79.12, 0.041730, , 
79.14, 0.041419, , 
79.17, 0.041219, , 
79.20, 0.041054, , 
79.23, 0.040851, , 
79.26, 0.040690, , 
79.29, 0.040556, , 
79.32, 0.040442, , 
79.35, 0.040214, , 
79.38, 0.040081, , 
79.41, 0.039960, , 
79.44, 0.039738, , 
79.47, 0.039583, , 
79.50, 0.039519, , 
79.53, 0.039459, , 
79.56, 0.039414, , 
79.59, 0.039383, , 
79.62, 0.039294, , 
79.65, 0.039208, , 
79.68, 0.039075, , 
79.71, 0.038964, , 
79.74, 0.038935, , 
79.77, 0.038901, , 
79.80, 0.038767, , 
79.83, 0.038577, , 
79.86, 0.038520, , 
79.89, 0.038504, , 
79.92, 0.038406, , 
79.95, 0.038238, , 
79.98, 0.038123, , 
79.99, 0.038120, 25, 0.586
80.01, 0.038054, , 
80.04, 0.037984, , 
80.07, 0.037857, , 
80.10, 0.037765, , 
80.13, 0.037698, , 
80.16, 0.037514, , 
80.19, 0.037451, , 
80.22, 0.037400, , 
80.25, 0.037216, , 
80.28, 0.037016, , 
80.31, 0.036959, , 
80.34, 0.036944, , 
80.37, 0.036921, , 
80.40, 0.036861, , 
80.43, 0.036858, , 
80.46, 0.036817, , 
80.49, 0.036655, , 
80.52, 0.036538, , 
80.55, 0.036417, , 
80.58, 0.036392, , 
80.61, 0.036373, , 
80.64, 0.036322, , 
80.67, 0.036331, , 
80.70, 0.036360, , 
80.74, 0.036315, , 
80.76, 0.036328, , 
80.79, 0.036281, , 
80.82, 0.036144, , 
80.85, 0.035963, , 
80.88, 0.035859, , 
80.91, 0.035881, , 
80.94, 0.035868, , 
80.97, 0.035821, , 
81.00, 0.035817, , 
81.03, 0.035837, , 
81.06, 0.035811, , 
81.09, 0.035684, , 
81.12, 0.035589, , 
81.15, 0.035503, , 
81.18, 0.035383, , 
81.21, 0.035342, , 
81.24, 0.035326, , 
81.27, 0.035326, , 
81.30, 0.035354, , 
81.33, 0.035319, , 
81.36, 0.035345, , 
81.39, 0.035351, , 
81.42, 0.035316, , 
81.45, 0.035304, , 
81.48, 0.035329, , 
81.51, 0.035316, , 
81.54, 0.035342, , 
81.57, 0.035332, , 
81.60, 0.035294, , 
81.63, 0.035186, , 
81.66, 0.035031, , 
81.69, 0.034863, , 
81.72, 0.034841, , 
81.75, 0.034866, , 
81.78, 0.034809, , 
81.81, 0.034793, , 
81.84, 0.034812, , 
81.87, 0.034815, , 
81.90, 0.034815, , 
81.93, 0.034809, , 
81.96, 0.034790, , 
81.99, 0.034777, , 
82.02, 0.034790, , 
82.05, 0.034755, , 
82.08, 0.034717, , 
82.11, 0.034546, , 
82.14, 0.034384, , 
82.17, 0.034349, , 
82.20, 0.034346, , 
82.23, 0.034304, , 
82.26, 0.034292, , 
82.29, 0.034279, , 
82.32, 0.034301, , 
82.35, 0.034298, , 
82.38, 0.034257, , 
82.41, 0.034263, , 
82.44, 0.034301, , 
82.47, 0.034260, , 
82.50, 0.034266, , 
82.53, 0.034317, , 
82.56, 0.034327, , 
82.59, 0.034279, , 
82.62, 0.034308, , 
82.65, 0.034336, , 
82.68, 0.034352, , 
82.71, 0.034254, , 
82.74, 0.034124, , 
82.77, 0.034022, , 
82.80, 0.033930, , 
82.83, 0.033889, , 
82.86, 0.033826, , 
82.89, 0.033832, , 
82.92, 0.033857, , 
82.95, 0.033841, , 
82.98, 0.033810, , 
83.01, 0.033826, , 
83.04, 0.033841, , 
83.07, 0.033822, , 
83.10, 0.033794, , 
83.13, 0.033826, , 
83.16, 0.033838, , 
83.18, 0.033813, 26, 0.585
83.19, 0.033803, , 
83.22, 0.033838, , 
83.25, 0.033911, , 
83.28, 0.033917, , 
83.31, 0.033914, , 
83.34, 0.033873, , 
83.37, 0.033902, , 
83.40, 0.033879, , 
83.43, 0.033883, , 
83.46, 0.033838, , 
83.49, 0.033854, , 
83.52, 0.033867, , 
83.55, 0.033832, , 
83.58, 0.033864, , 
83.61, 0.033902, , 
83.65, 0.033864, , 
83.67, 0.033857, , 
83.70, 0.033854, , 
83.73, 0.033892, , 
83.76, 0.033835, , 
83.79, 0.033635, , 
83.82, 0.033531, , 
83.85, 0.033483, , 
83.89, 0.033420, , 
83.91, 0.033372, , 
83.94, 0.033343, , 
83.97, 0.033366, , 
84.00, 0.033350, , 
84.03, 0.033308, , 
84.06, 0.033347, , 
84.09, 0.033318, , 
84.12, 0.033305, , 
84.15, 0.033315, , 
84.18, 0.033369, , 
84.21, 0.033356, , 
84.24, 0.033308, , 
84.27, 0.033283, , 
84.30, 0.033318, , 
84.33, 0.033331, , 
84.36, 0.033289, , 
84.39, 0.033302, , 
84.42, 0.033378, , 
84.45, 0.033381, , 
84.48, 0.033331, , 
84.51, 0.033337, , 
84.54, 0.033340, , 
84.57, 0.033334, , 
84.60, 0.033280, , 
84.63, 0.033324, , 
84.66, 0.033321, , 
84.69, 0.033289, , 
84.72, 0.033274, , 
84.75, 0.033274, , 
84.78, 0.033293, , 
84.81, 0.033289, , 
84.84, 0.033308, , 
84.87, 0.033283, , 
84.90, 0.033293, , 
84.93, 0.033280, , 
84.96, 0.033270, , 
84.99, 0.033270, , 
85.02, 0.033286, , 
85.05, 0.033283, , 
85.08, 0.033239, , 
85.11, 0.033248, , 
85.14, 0.033280, , 
85.17, 0.033280, , 
85.20, 0.033213, , 
85.23, 0.033283, , 
85.26, 0.033296, , 
85.29, 0.033286, , 
85.32, 0.033289, , 
85.35, 0.033277, , 
85.38, 0.033286, , 
85.41, 0.033283, , 
85.44, 0.033286, , 
85.47, 0.033321, , 
85.50, 0.033302, , 
85.53, 0.033264, , 
85.56, 0.033188, , 
85.59, 0.033156, , 
85.62, 0.033036, , 
85.65, 0.032893, , 
85.68, 0.032874, , 
85.71, 0.032810, , 
85.74, 0.032795, , 
85.77, 0.032782, , 
85.80, 0.032810, , 
85.83, 0.032791, , 
85.86, 0.032779, , 
85.89, 0.032769, , 
85.92, 0.032760, , 
85.95, 0.032779, , 
85.98, 0.032782, , 
86.01, 0.032719, , 
86.04, 0.032763, , 
86.07, 0.032801, , 
86.10, 0.032801, , 
86.13, 0.032757, , 
86.16, 0.032766, , 
86.19, 0.032776, , 
86.22, 0.032760, , 
86.25, 0.032744, , 
86.29, 0.032798, , 
86.31, 0.032807, , 
86.34, 0.032750, , 
86.37, 0.032744, , 
86.39, 0.032757, 27, 0.587
86.40, 0.032776, , 
86.43, 0.032779, , 
86.46, 0.032791, , 
86.49, 0.032826, , 
86.52, 0.032861, , 
86.55, 0.032804, , 
86.58, 0.032731, , 
86.61, 0.032744, , 
86.64, 0.032753, , 
86.67, 0.032738, , 
86.70, 0.032715, , 
86.73, 0.032722, , 
86.76, 0.032769, , 
86.79, 0.032769, , 
86.82, 0.032741, , 
86.85, 0.032760, , 
86.88, 0.032750, , 
86.91, 0.032725, , 
86.94, 0.032728, , 
86.97, 0.032753, , 
87.00, 0.032766, , 
87.03, 0.032801, , 
87.06, 0.032728, , 
87.09, 0.032709, , 
87.12, 0.032769, , 
87.15, 0.032772, , 
87.18, 0.032750, , 
87.22, 0.032763, , 
87.24, 0.032804, , 
87.27, 0.032766, , 
87.30, 0.032772, , 
87.33, 0.032779, , 
87.36, 0.032776, , 
87.39, 0.032738, , 
87.42, 0.032741, , 
87.45, 0.032766, , 
87.48, 0.032782, , 
87.51, 0.032779, , 
87.54, 0.032757, , 
87.57, 0.032814, , 
87.60, 0.032810, , 
87.63, 0.032722, , 
87.66, 0.032566, , 
87.69, 0.032462, , 
87.72, 0.032376, , 
87.75, 0.032293, , 
87.78, 0.032281, , 
87.81, 0.032335, , 
87.84, 0.032335, , 
87.87, 0.032293, , 
87.90, 0.032297, , 
87.93, 0.032319, , 
87.96, 0.032312, , 
87.99, 0.032344, , 
88.02, 0.032363, , 
88.05, 0.032338, , 
88.08, 0.032284, , 
88.11, 0.032268, , 
88.14, 0.032300, , 
88.17, 0.032335, , 
88.20, 0.032297, , 
88.23, 0.032252, , 
88.26, 0.032265, , 
88.29, 0.032363, , 
88.32, 0.032351, , 
88.35, 0.032300, , 
88.38, 0.032312, , 
88.41, 0.032338, , 
88.44, 0.032319, , 
88.48, 0.032297, , 
88.50, 0.032325, , 
88.53, 0.032363, , 
88.56, 0.032312, , 
88.59, 0.032332, , 
88.63, 0.032335, , 
88.65, 0.032300, , 
88.68, 0.032287, , 
88.71, 0.032230, , 
88.74, 0.032163, , 
88.77, 0.032097, , 
88.80, 0.031989, , 
88.83, 0.031945, , 
88.86, 0.031935, , 
88.89, 0.031891, , 
88.92, 0.031865, , 
88.95, 0.031916, , 
88.98, 0.031922, , 
89.01, 0.031986, , 
89.04, 0.032122, , 
89.07, 0.032249, , 
89.10, 0.032366, , 
89.13, 0.032389, , 
89.16, 0.032424, , 
89.19, 0.032585, , 
89.22, 0.032753, , 
89.25, 0.034990, , 
89.29, 0.044417, , 
89.31, 0.059188, , 
89.34, 0.084040, , 
89.37, 0.101806, , 
89.40, 0.113895, , 
89.43, 0.122506, , 
89.46, 0.126960, , 
89.49, 0.130081, , 
89.52, 0.131508, , 
89.55, 0.132733, , 
89.58, 0.133688, , 
89.61, 0.134208, , 
89.64, 0.134626, , 
89.67, 0.134979, , 
89.70, 0.135296, , 
89.73, 0.135562, , 
89.76, 0.135626, , 
89.79, 0.131267, , 
89.82, 0.118320, , 
89.85, 0.098251, , 
89.88, 0.075280, , 
89.92, 0.071676, , 
89.94, 0.057101, , 
89.97, 0.047516, , 
90.00, 0.044480, , 
90.03, 0.042774, , 
90.06, 0.042038, , 
90.09, 0.041517, , 
90.12, 0.041346, , 
90.15, 0.041330, , 
90.18, 0.041524, , 
90.21, 0.041682, , 
90.24, 0.041768, , 
90.27, 0.041825, , 
90.30, 0.041904, , 
90.33, 0.042149, , 
90.36, 0.042383, , 
90.39, 0.042647, , 
90.42, 0.042846, , 
90.45, 0.042986, , 
90.48, 0.043119, , 
90.51, 0.043126, , 
90.54, 0.042964, , 
90.57, 0.042904, , 
90.60, 0.042926, , 
90.63, 0.043015, , 
90.66, 0.043049, , 
90.69, 0.043126, , 
90.72, 0.043202, , 
90.75, 0.043348, , 
90.78, 0.043535, , 
90.81, 0.043671, , 
90.84, 0.043919, , 
90.87, 0.044052, , 
90.90, 0.044042, , 
90.93, 0.043887, , 
90.96, 0.043636, , 
90.99, 0.043364, , 
91.02, 0.043195, , 
91.05, 0.043107, , 
91.08, 0.043161, , 
91.11, 0.043262, , 
91.14, 0.043402, , 
91.17, 0.043525, , 
91.20, 0.043611, , 
91.23, 0.043662, , 
91.26, 0.043617, , 
91.29, 0.043601, , 
91.32, 0.043750, , 
91.35, 0.043833, , 
91.38, 0.043700, , 
91.41, 0.043436, , 
91.44, 0.043214, , 
91.47, 0.042932, , 
91.50, 0.042786, , 
91.53, 0.042701, , 
91.56, 0.042659, , 
91.59, 0.042501, , 
91.62, 0.042345, , 
91.65, 0.042390, , 
91.68, 0.042361, , 
91.71, 0.042177, , 
91.74, 0.042069, , 
91.77, 0.041942, , 
91.80, 0.041847, , 
91.83, 0.041609, , 
91.86, 0.041403, , 
91.89, 0.041280, , 
91.92, 0.041324, , 
91.95, 0.041400, , 
91.98, 0.041483, , 
92.01, 0.041578, , 
92.04, 0.041603, , 
92.07, 0.041578, , 
92.10, 0.041622, , 
92.13, 0.041606, , 
92.16, 0.041441, , 
92.19, 0.041105, , 
92.22, 0.040931, , 
92.25, 0.040905, , 
92.28, 0.040877, , 
92.31, 0.040842, , 
92.34, 0.040848, , 
92.37, 0.040931, , 
92.40, 0.040991, , 
92.43, 0.041070, , 
92.46, 0.041219, , 
92.49, 0.041476, , 
92.52, 0.041851, , 
92.55, 0.042228, , 
92.58, 0.042837, , 
92.61, 0.043360, , 
92.64, 0.043811, , 
92.67, 0.044191, , 
92.70, 0.044353, , 
92.73, 0.044331, , 
92.76, 0.044042, , 
92.79, 0.043674, , 
92.82, 0.043417, , 
92.85, 0.043306, , 
92.88, 0.043303, , 
92.91, 0.043408, , 
92.94, 0.043481, , 
92.97, 0.043487, , 
93.00, 0.043335, , 
93.03, 0.043116, , 
93.06, 0.042859, , 
93.09, 0.042596, , 
93.12, 0.042355, , 
93.15, 0.042142, , 
93.18, 0.041863, , 
93.21, 0.041686, , 
93.24, 0.041825, , 
93.27, 0.042371, , 
93.30, 0.042891, , 
93.33, 0.043297, , 
93.36, 0.043576, , 
93.39, 0.043782, , 
93.42, 0.043811, , 
93.45, 0.043763, , 
93.48, 0.043681, , 
93.51, 0.043611, , 
93.54, 0.043639, , 
93.57, 0.043700, , 
93.60, 0.043750, , 
93.63, 0.043801, , 
93.66, 0.043900, , 
93.69, 0.044268, , 
93.72, 0.045111, , 
93.75, 0.046332, , 
93.78, 0.047037, , 
93.81, 0.047347, , 
93.84, 0.047712, , 
93.87, 0.048743, , 
93.90, 0.050621, , 
93.93, 0.052518, , 
93.96, 0.056140, , 
93.99, 0.061006, , 
94.02, 0.066106, , 
94.05, 0.074544, , 
94.08, 0.082467, , 
94.11, 0.092199, , 
94.14, 0.101013, , 
94.17, 0.110244, , 
94.20, 0.121342, , 
94.23, 0.129180, , 
94.26, 0.139359, , 
94.29, 0.149373, , 
94.32, 0.159250, , 
94.35, 0.171237, , 
94.38, 0.181235, , 
94.41, 0.192295, , 
94.44, 0.200019, , 
94.47, 0.208951, , 
94.50, 0.217798, , 
94.53, 0.223745, , 
94.56, 0.229359, , 
94.59, 0.233381, , 
94.62, 0.236829, , 
94.65, 0.239827, , 
94.68, 0.242485, , 
94.71, 0.245089, , 
94.74, 0.246967, , 
94.77, 0.248645, , 
94.80, 0.250535, , 
94.83, 0.252032, , 
94.86, 0.253400, , 
94.89, 0.254630, , 
94.92, 0.255829, , 
94.95, 0.257187, , 
94.98, 0.258294, , 
95.01, 0.259582, , 
95.04, 0.260616, , 
95.07, 0.261352, , 
95.10, 0.262284, , 
95.13, 0.263064, , 
95.16, 0.264026, , 
95.19, 0.264723, , 
95.22, 0.265342, , 
95.25, 0.266135, , 
95.28, 0.266699, , 
95.31, 0.267410, , 
95.34, 0.267997, , 
95.37, 0.268577, , 
95.40, 0.269199, , 
95.43, 0.269684, , 
95.46, 0.270471, , 
95.50, 0.271575, , 
95.52, 0.272907, , 
95.55, 0.275403, , 
95.58, 0.278042, , 
95.61, 0.281116, , 
95.64, 0.284922, , 
95.67, 0.288246, , 
95.70, 0.291625, , 
95.73, 0.295183, , 
95.76, 0.299427, , 
95.79, 0.303056, , 
95.82, 0.306682, , 
95.85, 0.310992, , 
95.88, 0.314776, , 
95.92, 0.315788, , 
95.94, 0.320781, , 
95.97, 0.325970, , 
96.00, 0.329995, , 
