Gradient Profiler Text Data File: 20231116_MV_I_30C.csv
Date: 2023-11-16
Time: 17:10:54

User: jared
Experiment name: 20231116_BY4742_30
UV Unit: EM-1
Rotor Manufacturer: Beckman
Rotor Model: SW28.1
Speed: 28 rpm
Gradient: sucrose 10.0% to 50.0% w/v
Time: 4
w2t:  x 10^0
Sample Volume: 18 ml
Number of Tubes: 6
Volume per mm: 0.183 ml/mm

Absorbance Units Full Scale (AUFS): 2.00
Event Mark-triggered gradient; (with distance; auto start and stop)
Delay: No Delay
UV Wavelength: 254 nm
Samples / sec: 10 Hz
EM1 Speed: 0.30 mm/sec
Distance: 3.20 mm
Number: 30
Dead Volume: 0.000000 ml; Distance due to Dead Volume: 0.00 mm
Total Distance: 96.00 mm

Data Columns:
Distance(mm), Absorbance, Fraction Number, Fraction Volume(ml)
0.00, 0.080948, 0, 0.000
0.03, 0.080960, , 
0.06, 0.080983, , 
0.09, 0.081005, , 
0.12, 0.080999, , 
0.15, 0.081008, , 
0.18, 0.080973, , 
0.21, 0.080986, , 
0.24, 0.080989, , 
0.27, 0.080973, , 
0.30, 0.080970, , 
0.33, 0.080992, , 
0.36, 0.081030, , 
0.39, 0.081173, , 
0.42, 0.081303, , 
0.45, 0.081370, , 
0.48, 0.081417, , 
0.51, 0.081458, , 
0.54, 0.081706, , 
0.57, 0.082435, , 
0.60, 0.085465, , 
0.63, 0.097442, , 
0.66, 0.123667, , 
0.69, 0.180775, , 
0.72, 0.250986, , 
0.75, 0.335223, , 
0.78, 0.428379, , 
0.81, 0.527017, , 
0.84, 0.645064, , 
0.87, 0.748056, , 
0.90, 0.852010, , 
0.93, 0.973952, , 
0.96, 1.079121, , 
0.99, 1.184147, , 
1.02, 1.289452, , 
1.05, 1.394938, , 
1.08, 1.517948, , 
1.11, 1.622543, , 
1.14, 1.739403, , 
1.18, 1.828919, , 
1.20, 1.890127, , 
1.23, 1.951571, , 
1.26, 1.984445, , 
1.29, 2.006740, , 
1.32, 2.017385, , 
1.35, 2.023507, , 
1.38, 2.027111, , 
1.41, 2.029280, , 
1.44, 2.030733, , 
1.47, 2.031469, , 
1.50, 2.032002, , 
1.53, 2.032452, , 
1.56, 2.032687, , 
1.59, 2.032858, , 
1.62, 2.032966, , 
1.65, 2.033105, , 
1.68, 2.033207, , 
1.71, 2.033283, , 
1.74, 2.033331, , 
1.77, 2.033451, , 
1.80, 2.033534, , 
1.83, 2.033584, , 
1.86, 2.033600, , 
1.89, 2.033692, , 
1.92, 2.033702, , 
1.95, 2.033727, , 
1.98, 2.033787, , 
2.01, 2.033806, , 
2.04, 2.033829, , 
2.07, 2.033873, , 
2.10, 2.033917, , 
2.13, 2.033956, , 
2.16, 2.033956, , 
2.19, 2.033927, , 
2.22, 2.033943, , 
2.25, 2.034019, , 
2.28, 2.034070, , 
2.31, 2.034022, , 
2.34, 2.034000, , 
2.37, 2.034076, , 
2.40, 2.034121, , 
2.43, 2.034114, , 
2.46, 2.034140, , 
2.49, 2.034136, , 
2.52, 2.034140, , 
2.55, 2.034114, , 
2.58, 2.034171, , 
2.61, 2.034222, , 
2.64, 2.034197, , 
2.67, 2.034219, , 
2.70, 2.034206, , 
2.73, 2.034216, , 
2.76, 2.034276, , 
2.79, 2.034225, , 
2.82, 2.034143, , 
2.85, 2.033952, , 
2.88, 2.033442, , 
2.91, 2.032579, , 
2.94, 2.030926, , 
2.97, 2.029014, , 
3.00, 2.026568, , 
3.03, 2.023618, , 
3.06, 2.020253, , 
3.09, 2.015590, , 
3.12, 2.010902, , 
3.15, 2.005649, , 
3.18, 1.998772, 1, 0.582
3.19, 1.997710, , 
3.21, 1.992226, , 
3.24, 1.985130, , 
3.27, 1.977600, , 
3.30, 1.969369, , 
3.33, 1.958971, , 
3.36, 1.949433, , 
3.39, 1.937735, , 
3.42, 1.929034, , 
3.45, 1.918488, , 
3.48, 1.905863, , 
3.51, 1.894803, , 
3.54, 1.881719, , 
3.57, 1.870328, , 
3.60, 1.858900, , 
3.63, 1.847325, , 
3.66, 1.835570, , 
3.69, 1.821709, , 
3.72, 1.809554, , 
3.75, 1.797374, , 
3.78, 1.782967, , 
3.81, 1.770698, , 
3.84, 1.758502, , 
3.87, 1.746175, , 
3.90, 1.733665, , 
3.93, 1.718548, , 
3.96, 1.705311, , 
3.99, 1.689721, , 
4.02, 1.676244, , 
4.05, 1.664983, , 
4.08, 1.649010, , 
4.11, 1.635050, , 
4.14, 1.618629, , 
4.17, 1.604491, , 
4.20, 1.590554, , 
4.24, 1.574295, , 
4.26, 1.562670, , 
4.29, 1.546302, , 
4.32, 1.532038, , 
4.35, 1.517723, , 
4.38, 1.500991, , 
4.41, 1.486959, , 
4.44, 1.473319, , 
4.47, 1.459902, , 
4.50, 1.446767, , 
4.53, 1.431453, , 
4.56, 1.418470, , 
4.59, 1.403467, , 
4.62, 1.390776, , 
4.65, 1.380436, , 
4.68, 1.365997, , 
4.71, 1.353582, , 
4.74, 1.339181, , 
4.77, 1.327074, , 
4.80, 1.315303, , 
4.83, 1.301597, , 
4.86, 1.291751, , 
4.89, 1.277846, , 
4.92, 1.265624, , 
4.95, 1.253333, , 
4.98, 1.238888, , 
5.01, 1.226628, , 
5.04, 1.212526, , 
5.07, 1.202531, , 
5.10, 1.190713, , 
5.13, 1.176854, , 
5.16, 1.165074, , 
5.19, 1.151482, , 
5.22, 1.139965, , 
5.25, 1.128501, , 
5.28, 1.117108, , 
5.31, 1.105533, , 
5.34, 1.091970, , 
5.37, 1.080532, , 
5.40, 1.069377, , 
5.43, 1.056854, , 
5.47, 1.046323, , 
5.49, 1.035795, , 
5.52, 1.025217, , 
5.55, 1.014537, , 
5.58, 1.002344, , 
5.61, 0.992153, , 
5.64, 0.980664, , 
5.67, 0.972566, , 
5.70, 0.962838, , 
5.73, 0.951650, , 
5.76, 0.942119, , 
5.79, 0.931106, , 
5.82, 0.921742, , 
5.85, 0.912410, , 
5.88, 0.903189, , 
5.91, 0.893727, , 
5.94, 0.882575, , 
5.97, 0.872961, , 
6.00, 0.863337, , 
6.03, 0.852410, , 
6.06, 0.843129, , 
6.09, 0.833870, , 
6.12, 0.824617, , 
6.15, 0.815286, , 
6.18, 0.804545, , 
6.21, 0.795277, , 
6.24, 0.784413, , 
6.27, 0.775027, , 
6.30, 0.767190, , 
6.33, 0.756497, , 
6.36, 0.747482, , 
6.38, 0.740146, 2, 0.586
6.39, 0.737237, , 
6.42, 0.728755, , 
6.45, 0.720559, , 
6.49, 0.711192, , 
6.51, 0.704731, , 
6.54, 0.695802, , 
6.57, 0.688246, , 
6.60, 0.680840, , 
6.63, 0.672314, , 
6.66, 0.665224, , 
6.69, 0.658287, , 
6.72, 0.651572, , 
6.75, 0.644969, , 
6.78, 0.637169, , 
6.81, 0.630504, , 
6.84, 0.622657, , 
6.87, 0.615876, , 
6.90, 0.610249, , 
6.93, 0.602398, , 
6.96, 0.595705, , 
6.99, 0.587753, , 
7.02, 0.580943, , 
7.05, 0.574231, , 
7.08, 0.566409, , 
7.11, 0.560925, , 
7.14, 0.553233, , 
7.17, 0.546604, , 
7.20, 0.539879, , 
7.23, 0.531756, , 
7.26, 0.524870, , 
7.30, 0.517095, , 
7.32, 0.511722, , 
7.35, 0.505483, , 
7.38, 0.498489, , 
7.41, 0.492877, , 
7.44, 0.486369, , 
7.47, 0.480834, , 
7.50, 0.475394, , 
7.53, 0.470039, , 
7.56, 0.464857, , 
7.59, 0.458830, , 
7.62, 0.453783, , 
7.65, 0.448829, , 
7.68, 0.443237, , 
7.71, 0.439300, , 
7.74, 0.434003, , 
7.77, 0.429540, , 
7.80, 0.425087, , 
7.83, 0.419733, , 
7.86, 0.415025, , 
7.89, 0.409551, , 
7.92, 0.405627, , 
7.95, 0.400920, , 
7.98, 0.395442, , 
8.01, 0.390703, , 
8.04, 0.385346, , 
8.07, 0.380848, , 
8.10, 0.376467, , 
8.13, 0.372147, , 
8.16, 0.367726, , 
8.19, 0.362495, , 
8.22, 0.357924, , 
8.25, 0.353350, , 
8.28, 0.348120, , 
8.31, 0.343755, , 
8.34, 0.339603, , 
8.37, 0.335537, , 
8.40, 0.331518, , 
8.43, 0.326862, , 
8.46, 0.322900, , 
8.49, 0.318431, , 
8.53, 0.314646, , 
8.55, 0.311554, , 
8.58, 0.307227, , 
8.61, 0.303567, , 
8.64, 0.299485, , 
8.67, 0.296068, , 
8.70, 0.292735, , 
8.74, 0.288963, , 
8.76, 0.286302, , 
8.79, 0.282667, , 
8.82, 0.279482, , 
8.85, 0.276291, , 
8.88, 0.272583, , 
8.91, 0.269430, , 
8.95, 0.265792, , 
8.97, 0.263299, , 
9.00, 0.260327, , 
9.03, 0.256889, , 
9.06, 0.254012, , 
9.09, 0.250684, , 
9.12, 0.247849, , 
9.15, 0.245463, , 
9.18, 0.242123, , 
9.21, 0.239342, , 
9.24, 0.236160, , 
9.27, 0.233531, , 
9.30, 0.231047, , 
9.33, 0.228310, , 
9.36, 0.226365, , 
9.39, 0.223739, , 
9.42, 0.221633, , 
9.45, 0.219561, , 
9.48, 0.217227, , 
9.51, 0.215228, , 
9.54, 0.212913, , 
9.57, 0.211390, , 
9.58, 0.210816, 3, 0.585
9.60, 0.209662, , 
9.63, 0.207667, , 
9.66, 0.205935, , 
9.69, 0.203924, , 
9.72, 0.202154, , 
9.75, 0.200285, , 
9.78, 0.198395, , 
9.81, 0.196571, , 
9.84, 0.194455, , 
9.87, 0.192682, , 
9.90, 0.190903, , 
9.93, 0.188752, , 
9.97, 0.186862, , 
9.99, 0.185159, , 
10.02, 0.183189, , 
10.05, 0.181498, , 
10.08, 0.179468, , 
10.11, 0.177676, , 
10.14, 0.175668, , 
10.17, 0.174472, , 
10.20, 0.172740, , 
10.23, 0.170967, , 
10.26, 0.169534, , 
10.29, 0.167944, , 
10.32, 0.166783, , 
10.35, 0.165454, , 
10.38, 0.164246, , 
10.41, 0.163041, , 
10.44, 0.161674, , 
10.47, 0.160608, , 
10.50, 0.159387, , 
10.53, 0.158181, , 
10.56, 0.157147, , 
10.59, 0.156047, , 
10.62, 0.155073, , 
10.65, 0.153886, , 
10.68, 0.152621, , 
10.71, 0.151514, , 
10.74, 0.150220, , 
10.77, 0.149078, , 
10.80, 0.148129, , 
10.83, 0.146686, , 
10.86, 0.145487, , 
10.89, 0.144145, , 
10.92, 0.143013, , 
10.95, 0.141893, , 
10.99, 0.140580, , 
11.01, 0.139692, , 
11.04, 0.138414, , 
11.07, 0.137396, , 
11.10, 0.136171, , 
11.13, 0.134979, , 
11.16, 0.134002, , 
11.19, 0.133025, , 
11.22, 0.132098, , 
11.25, 0.131210, , 
11.28, 0.130179, , 
11.31, 0.129288, , 
11.34, 0.128356, , 
11.37, 0.127680, , 
11.40, 0.126985, , 
11.43, 0.126056, , 
11.46, 0.125250, , 
11.49, 0.124359, , 
11.52, 0.123712, , 
11.55, 0.122970, , 
11.58, 0.122177, , 
11.61, 0.121644, , 
11.64, 0.120898, , 
11.67, 0.120289, , 
11.70, 0.119541, , 
11.73, 0.118719, , 
11.76, 0.117986, , 
11.79, 0.117162, , 
11.82, 0.116651, , 
11.85, 0.115890, , 
11.88, 0.115141, , 
11.91, 0.114469, , 
11.94, 0.113688, , 
11.97, 0.112975, , 
12.00, 0.112337, , 
12.03, 0.111547, , 
12.06, 0.110872, , 
12.09, 0.110101, , 
12.12, 0.109435, , 
12.15, 0.108816, , 
12.18, 0.107998, , 
12.21, 0.107487, , 
12.24, 0.106888, , 
12.27, 0.106171, , 
12.30, 0.105591, , 
12.33, 0.104874, , 
12.36, 0.104325, , 
12.39, 0.103611, , 
12.42, 0.103101, , 
12.45, 0.102634, , 
12.48, 0.102057, , 
12.51, 0.101597, , 
12.54, 0.101124, , 
12.57, 0.100604, , 
12.60, 0.100205, , 
12.63, 0.099707, , 
12.66, 0.099278, , 
12.69, 0.098790, , 
12.72, 0.098339, , 
12.75, 0.097937, , 
12.77, 0.097527, 4, 0.584
12.78, 0.097388, , 
12.81, 0.096953, , 
12.84, 0.096589, , 
12.87, 0.096094, , 
12.90, 0.095694, , 
12.93, 0.095149, , 
12.96, 0.094730, , 
12.99, 0.094200, , 
13.03, 0.093750, , 
13.05, 0.093413, , 
13.08, 0.092884, , 
13.11, 0.092430, , 
13.14, 0.091970, , 
13.17, 0.091533, , 
13.20, 0.091231, , 
13.23, 0.090955, , 
13.26, 0.090575, , 
13.29, 0.090181, , 
13.32, 0.089709, , 
13.35, 0.089271, , 
13.38, 0.088897, , 
13.41, 0.088548, , 
13.44, 0.088281, , 
13.47, 0.087945, , 
13.50, 0.087650, , 
13.53, 0.087339, , 
13.56, 0.087009, , 
13.59, 0.086714, , 
13.62, 0.086429, , 
13.65, 0.086204, , 
13.68, 0.085963, , 
13.71, 0.085731, , 
13.74, 0.085515, , 
13.77, 0.085281, , 
13.80, 0.085125, , 
13.83, 0.084951, , 
13.86, 0.084792, , 
13.89, 0.084599, , 
13.92, 0.084370, , 
13.95, 0.084183, , 
13.98, 0.084044, , 
14.01, 0.083983, , 
14.04, 0.083850, , 
14.07, 0.083704, , 
14.10, 0.083571, , 
14.13, 0.083482, , 
14.16, 0.083460, , 
14.19, 0.083428, , 
14.22, 0.083425, , 
14.26, 0.083438, , 
14.28, 0.083444, , 
14.31, 0.083422, , 
14.34, 0.083438, , 
14.37, 0.083454, , 
14.40, 0.083460, , 
14.43, 0.083435, , 
14.46, 0.083419, , 
14.49, 0.083431, , 
14.52, 0.083498, , 
14.55, 0.083609, , 
14.58, 0.083764, , 
14.61, 0.083904, , 
14.64, 0.084082, , 
14.67, 0.084231, , 
14.70, 0.084412, , 
14.73, 0.084662, , 
14.76, 0.084890, , 
14.79, 0.085122, , 
14.82, 0.085350, , 
14.85, 0.085633, , 
14.88, 0.085953, , 
14.91, 0.086178, , 
14.94, 0.086480, , 
14.97, 0.086889, , 
15.00, 0.087235, , 
15.03, 0.087587, , 
15.06, 0.087894, , 
15.09, 0.088161, , 
15.12, 0.088484, , 
15.15, 0.088744, , 
15.18, 0.089106, , 
15.21, 0.089449, , 
15.24, 0.089848, , 
15.28, 0.090172, , 
15.30, 0.090375, , 
15.33, 0.090670, , 
15.36, 0.090920, , 
15.39, 0.091107, , 
15.42, 0.091377, , 
15.45, 0.091577, , 
15.48, 0.091812, , 
15.51, 0.092027, , 
15.54, 0.092227, , 
15.57, 0.092532, , 
15.60, 0.092678, , 
15.63, 0.092782, , 
15.66, 0.092906, , 
15.69, 0.093033, , 
15.72, 0.093160, , 
15.75, 0.093239, , 
15.78, 0.093325, , 
15.81, 0.093360, , 
15.84, 0.093375, , 
15.87, 0.093398, , 
15.90, 0.093379, , 
15.93, 0.093417, , 
15.96, 0.093413, , 
15.98, 0.093410, 5, 0.586
15.99, 0.093398, , 
16.02, 0.093413, , 
16.05, 0.093439, , 
16.08, 0.093420, , 
16.11, 0.093315, , 
16.14, 0.093188, , 
16.17, 0.093068, , 
16.20, 0.092912, , 
16.23, 0.092700, , 
16.26, 0.092468, , 
16.29, 0.092275, , 
16.32, 0.092084, , 
16.35, 0.091802, , 
16.38, 0.091456, , 
16.41, 0.091190, , 
16.44, 0.090952, , 
16.47, 0.090559, , 
16.50, 0.090308, , 
16.53, 0.089981, , 
16.56, 0.089648, , 
16.59, 0.089309, , 
16.62, 0.088801, , 
16.65, 0.088494, , 
16.68, 0.088158, , 
16.71, 0.087885, , 
16.74, 0.087533, , 
16.77, 0.087063, , 
16.80, 0.086695, , 
16.83, 0.086324, , 
16.86, 0.086020, , 
16.89, 0.085645, , 
16.92, 0.085309, , 
16.95, 0.084884, , 
16.98, 0.084383, , 
17.01, 0.083980, , 
17.04, 0.083584, , 
17.07, 0.083197, , 
17.10, 0.082895, , 
17.13, 0.082543, , 
17.16, 0.082159, , 
17.19, 0.081744, , 
17.22, 0.081236, , 
17.25, 0.080834, , 
17.28, 0.080278, , 
17.32, 0.079847, , 
17.34, 0.079473, , 
17.37, 0.078981, , 
17.40, 0.078623, , 
17.43, 0.078077, , 
17.46, 0.077633, , 
17.49, 0.077205, , 
17.52, 0.076780, , 
17.55, 0.076390, , 
17.58, 0.075965, , 
17.61, 0.075654, , 
17.64, 0.075337, , 
17.67, 0.074886, , 
17.70, 0.074525, , 
17.73, 0.074090, , 
17.76, 0.073668, , 
17.79, 0.073224, , 
17.82, 0.072774, , 
17.85, 0.072488, , 
17.88, 0.072089, , 
17.91, 0.071730, , 
17.94, 0.071410, , 
17.97, 0.070982, , 
18.00, 0.070693, , 
18.03, 0.070281, , 
18.06, 0.069960, , 
18.09, 0.069684, , 
18.12, 0.069364, , 
18.15, 0.069135, , 
18.18, 0.068777, , 
18.21, 0.068492, , 
18.24, 0.068238, , 
18.27, 0.067857, , 
18.30, 0.067556, , 
18.34, 0.067299, , 
18.36, 0.067093, , 
18.39, 0.066820, , 
18.42, 0.066458, , 
18.45, 0.066186, , 
18.48, 0.065906, , 
18.51, 0.065656, , 
18.54, 0.065466, , 
18.57, 0.065224, , 
18.60, 0.065034, , 
18.63, 0.064758, , 
18.66, 0.064504, , 
18.69, 0.064279, , 
18.72, 0.064073, , 
18.75, 0.063946, , 
18.78, 0.063750, , 
18.81, 0.063569, , 
18.84, 0.063413, , 
18.87, 0.063242, , 
18.90, 0.063071, , 
18.93, 0.062918, , 
18.96, 0.062817, , 
18.99, 0.062722, , 
19.02, 0.062595, , 
19.05, 0.062478, , 
19.08, 0.062351, , 
19.11, 0.062259, , 
19.14, 0.062154, , 
19.17, 0.062043, , 
19.18, 0.062002, 6, 0.587
19.20, 0.061935, , 
19.23, 0.061824, , 
19.26, 0.061754, , 
19.29, 0.061716, , 
19.32, 0.061612, , 
19.35, 0.061491, , 
19.38, 0.061364, , 
19.41, 0.061304, , 
19.44, 0.061250, , 
19.47, 0.061155, , 
19.50, 0.061028, , 
19.53, 0.060898, , 
19.56, 0.060844, , 
19.59, 0.060809, , 
19.62, 0.060781, , 
19.65, 0.060714, , 
19.68, 0.060606, , 
19.71, 0.060498, , 
19.74, 0.060378, , 
19.77, 0.060330, , 
19.80, 0.060302, , 
19.83, 0.060168, , 
19.86, 0.060042, , 
19.89, 0.059934, , 
19.92, 0.059845, , 
19.95, 0.059807, , 
19.98, 0.059734, , 
20.01, 0.059632, , 
20.04, 0.059502, , 
20.07, 0.059366, , 
20.10, 0.059274, , 
20.13, 0.059134, , 
20.16, 0.059011, , 
20.19, 0.058884, , 
20.22, 0.058782, , 
20.25, 0.058732, , 
20.28, 0.058640, , 
20.31, 0.058506, , 
20.34, 0.058379, , 
20.38, 0.058262, , 
20.40, 0.058195, , 
20.43, 0.058027, , 
20.46, 0.057900, , 
20.49, 0.057793, , 
20.52, 0.057713, , 
20.55, 0.057647, , 
20.58, 0.057564, , 
20.61, 0.057434, , 
20.64, 0.057323, , 
20.67, 0.057231, , 
20.70, 0.057168, , 
20.73, 0.057127, , 
20.76, 0.057003, , 
20.79, 0.056866, , 
20.82, 0.056714, , 
20.85, 0.056673, , 
20.88, 0.056667, , 
20.91, 0.056638, , 
20.94, 0.056613, , 
20.97, 0.056625, , 
21.00, 0.056629, , 
21.03, 0.056625, , 
21.06, 0.056625, , 
21.09, 0.056651, , 
21.12, 0.056663, , 
21.15, 0.056692, , 
21.18, 0.056784, , 
21.21, 0.056892, , 
21.24, 0.057041, , 
21.27, 0.057187, , 
21.30, 0.057349, , 
21.33, 0.057571, , 
21.36, 0.057786, , 
21.39, 0.057996, , 
21.42, 0.058287, , 
21.45, 0.058579, , 
21.48, 0.058874, , 
21.51, 0.059153, , 
21.54, 0.059442, , 
21.57, 0.059934, , 
21.61, 0.060397, , 
21.63, 0.060904, , 
21.66, 0.061459, , 
21.69, 0.061980, , 
21.72, 0.062715, , 
21.75, 0.063347, , 
21.78, 0.064076, , 
21.81, 0.064590, , 
21.84, 0.065224, , 
21.87, 0.066125, , 
21.90, 0.066899, , 
21.93, 0.067883, , 
21.96, 0.068755, , 
21.99, 0.069522, , 
22.02, 0.070439, , 
22.05, 0.071330, , 
22.08, 0.072355, , 
22.11, 0.073221, , 
22.14, 0.073998, , 
22.17, 0.075111, , 
22.20, 0.076114, , 
22.23, 0.077164, , 
22.26, 0.078141, , 
22.29, 0.078962, , 
22.32, 0.080104, , 
22.35, 0.080960, , 
22.38, 0.081845, 7, 0.585
22.38, 0.082001, , 
22.41, 0.082867, , 
22.44, 0.083501, , 
22.47, 0.084599, , 
22.50, 0.085480, , 
22.53, 0.086499, , 
22.56, 0.087380, , 
22.59, 0.088205, , 
22.63, 0.089049, , 
22.65, 0.089709, , 
22.68, 0.090533, , 
22.71, 0.091215, , 
22.74, 0.091872, , 
22.77, 0.092554, , 
22.80, 0.093179, , 
22.83, 0.093693, , 
22.86, 0.094251, , 
22.89, 0.094822, , 
22.92, 0.095313, , 
22.95, 0.095700, , 
22.98, 0.096116, , 
23.01, 0.096516, , 
23.04, 0.096811, , 
23.07, 0.097153, , 
23.10, 0.097420, , 
23.13, 0.097642, , 
23.16, 0.097807, , 
23.19, 0.097978, , 
23.22, 0.098117, , 
23.25, 0.098222, , 
23.28, 0.098324, , 
23.31, 0.098362, , 
23.34, 0.098339, , 
23.37, 0.098349, , 
23.40, 0.098295, , 
23.43, 0.098162, , 
23.46, 0.098060, , 
23.49, 0.097984, , 
23.52, 0.097905, , 
23.55, 0.097746, , 
23.58, 0.097550, , 
23.61, 0.097340, , 
23.64, 0.097141, , 
23.67, 0.096941, , 
23.70, 0.096712, , 
23.73, 0.096468, , 
23.76, 0.096202, , 
23.79, 0.095916, , 
23.82, 0.095580, , 
23.86, 0.095313, , 
23.88, 0.094993, , 
23.91, 0.094720, , 
23.94, 0.094422, , 
23.97, 0.094057, , 
24.00, 0.093743, , 
24.03, 0.093306, , 
24.06, 0.093058, , 
24.09, 0.092773, , 
24.12, 0.092345, , 
24.15, 0.091958, , 
24.18, 0.091450, , 
24.21, 0.091006, , 
24.24, 0.090568, , 
24.27, 0.090162, , 
24.30, 0.089750, , 
24.33, 0.089201, , 
24.36, 0.088770, , 
24.39, 0.088307, , 
24.42, 0.087796, , 
24.45, 0.087399, , 
24.48, 0.086949, , 
24.51, 0.086423, , 
24.54, 0.085848, , 
24.57, 0.085243, , 
24.60, 0.084799, , 
24.63, 0.084129, , 
24.66, 0.083542, , 
24.69, 0.083076, , 
24.72, 0.082458, , 
24.75, 0.081979, , 
24.78, 0.081274, , 
24.81, 0.080716, , 
24.84, 0.080155, , 
24.87, 0.079587, , 
24.90, 0.079035, , 
24.93, 0.078302, , 
24.96, 0.077795, , 
24.99, 0.077275, , 
25.02, 0.076586, , 
25.05, 0.076047, , 
25.08, 0.075479, , 
25.11, 0.074953, , 
25.14, 0.074398, , 
25.17, 0.073728, , 
25.20, 0.073234, , 
25.23, 0.072583, , 
25.26, 0.072114, , 
25.29, 0.071721, , 
25.32, 0.071178, , 
25.35, 0.070677, , 
25.38, 0.069944, , 
25.41, 0.069437, , 
25.44, 0.068971, , 
25.47, 0.068403, , 
25.50, 0.068067, , 
25.53, 0.067600, , 
25.56, 0.067299, , 
25.58, 0.067083, 8, 0.586
25.59, 0.066975, , 
25.62, 0.066563, , 
25.65, 0.066170, , 
25.68, 0.065786, , 
25.71, 0.065491, , 
25.74, 0.065171, , 
25.77, 0.064806, , 
25.80, 0.064485, , 
25.83, 0.064181, , 
25.86, 0.063835, , 
25.90, 0.063562, , 
25.92, 0.063296, , 
25.95, 0.063033, , 
25.98, 0.062782, , 
26.01, 0.062551, , 
26.04, 0.062373, , 
26.07, 0.062192, , 
26.10, 0.062059, , 
26.13, 0.061913, , 
26.16, 0.061789, , 
26.19, 0.061672, , 
26.22, 0.061640, , 
26.25, 0.061580, , 
26.28, 0.061428, , 
26.31, 0.061355, , 
26.34, 0.061371, , 
26.37, 0.061504, , 
26.40, 0.061574, , 
26.43, 0.061593, , 
26.46, 0.061605, , 
26.49, 0.061647, , 
26.52, 0.061748, , 
26.55, 0.061894, , 
26.58, 0.062075, , 
26.61, 0.062392, , 
26.64, 0.062693, , 
26.67, 0.062966, , 
26.70, 0.063245, , 
26.73, 0.063600, , 
26.76, 0.064016, , 
26.79, 0.064425, , 
26.82, 0.065015, , 
26.85, 0.065618, , 
26.88, 0.066344, , 
26.91, 0.066893, , 
26.94, 0.067458, , 
26.97, 0.068320, , 
27.00, 0.069161, , 
27.03, 0.070258, , 
27.06, 0.071248, , 
27.09, 0.072304, , 
27.12, 0.073678, , 
27.15, 0.075038, , 
27.18, 0.076793, , 
27.21, 0.078496, , 
27.24, 0.080266, , 
27.27, 0.082870, , 
27.30, 0.085151, , 
27.33, 0.087612, , 
27.36, 0.090267, , 
27.39, 0.092931, , 
27.42, 0.096858, , 
27.45, 0.100335, , 
27.48, 0.104671, , 
27.51, 0.108648, , 
27.54, 0.111744, , 
27.57, 0.117431, , 
27.60, 0.122399, , 
27.63, 0.128600, , 
27.66, 0.134249, , 
27.69, 0.139698, , 
27.72, 0.147336, , 
27.75, 0.152653, , 
27.78, 0.160452, , 
27.81, 0.167418, , 
27.84, 0.174063, , 
27.87, 0.183316, , 
27.90, 0.190947, , 
27.94, 0.200108, , 
27.96, 0.206769, , 
27.99, 0.214248, , 
28.02, 0.224503, , 
28.05, 0.232871, , 
28.08, 0.242643, , 
28.11, 0.250935, , 
28.15, 0.258503, , 
28.17, 0.267343, , 
28.20, 0.275372, , 
28.23, 0.284475, , 
28.26, 0.292097, , 
28.29, 0.298977, , 
28.32, 0.307877, , 
28.35, 0.313568, , 
28.38, 0.321200, , 
28.41, 0.327353, , 
28.44, 0.332755, , 
28.47, 0.339622, , 
28.50, 0.344716, , 
28.53, 0.350207, , 
28.56, 0.353747, , 
28.59, 0.357626, , 
28.62, 0.361483, , 
28.65, 0.364814, , 
28.68, 0.367998, , 
28.71, 0.370352, , 
28.74, 0.372309, , 
28.77, 0.373800, , 
28.78, 0.374336, 9, 0.586
28.80, 0.375275, , 
28.83, 0.376404, , 
28.86, 0.377061, , 
28.89, 0.377432, , 
28.92, 0.377451, , 
28.95, 0.377206, , 
28.98, 0.376655, , 
29.01, 0.375836, , 
29.04, 0.374736, , 
29.07, 0.373112, , 
29.10, 0.371640, , 
29.13, 0.369407, , 
29.17, 0.367431, , 
29.19, 0.365575, , 
29.22, 0.362704, , 
29.25, 0.360310, , 
29.28, 0.356846, , 
29.31, 0.353915, , 
29.34, 0.350905, , 
29.37, 0.347806, , 
29.40, 0.344831, , 
29.43, 0.340640, , 
29.46, 0.337170, , 
29.49, 0.333592, , 
29.52, 0.329374, , 
29.55, 0.325980, , 
29.58, 0.321989, , 
29.61, 0.318294, , 
29.64, 0.314539, , 
29.67, 0.310139, , 
29.70, 0.306647, , 
29.73, 0.301933, , 
29.76, 0.298168, , 
29.79, 0.295066, , 
29.82, 0.290774, , 
29.85, 0.287384, , 
29.88, 0.282883, , 
29.91, 0.279286, , 
29.94, 0.275730, , 
29.97, 0.271632, , 
30.00, 0.269034, , 
30.03, 0.264654, , 
30.06, 0.261228, , 
30.09, 0.257881, , 
30.12, 0.253990, , 
30.15, 0.250681, , 
30.19, 0.247072, , 
30.21, 0.244166, , 
30.24, 0.241038, , 
30.27, 0.237426, , 
30.30, 0.234301, , 
30.33, 0.230926, , 
30.36, 0.227812, , 
30.39, 0.225334, , 
30.42, 0.221877, , 
30.45, 0.218955, , 
30.48, 0.216377, , 
30.51, 0.212951, , 
30.54, 0.210249, , 
30.57, 0.207124, , 
30.60, 0.204929, , 
30.63, 0.202017, , 
30.66, 0.199223, , 
30.69, 0.196635, , 
30.72, 0.193732, , 
30.75, 0.191239, , 
30.78, 0.188958, , 
30.81, 0.186364, , 
30.84, 0.183960, , 
30.87, 0.181159, , 
30.90, 0.178767, , 
30.93, 0.176172, , 
30.96, 0.173730, , 
30.99, 0.171462, , 
31.02, 0.169169, , 
31.05, 0.166961, , 
31.08, 0.165245, , 
31.11, 0.162298, , 
31.14, 0.160126, , 
31.17, 0.157693, , 
31.21, 0.155672, , 
31.23, 0.154181, , 
31.26, 0.151644, , 
31.29, 0.149687, , 
31.32, 0.147457, , 
31.35, 0.145566, , 
31.38, 0.143739, , 
31.41, 0.142115, , 
31.44, 0.140231, , 
31.47, 0.138173, , 
31.50, 0.136422, , 
31.53, 0.134750, , 
31.56, 0.132929, , 
31.59, 0.131255, , 
31.62, 0.129694, , 
31.65, 0.128133, , 
31.68, 0.126586, , 
31.71, 0.124914, , 
31.74, 0.123328, , 
31.77, 0.121672, , 
31.80, 0.120283, , 
31.83, 0.119074, , 
31.86, 0.117625, , 
31.89, 0.115960, , 
31.92, 0.114355, , 
31.95, 0.112987, , 
31.98, 0.111703, , 
31.99, 0.111471, 10, 0.587
32.01, 0.110387, , 
32.04, 0.109327, , 
32.07, 0.107944, , 
32.10, 0.106758, , 
32.13, 0.105597, , 
32.16, 0.104379, , 
32.19, 0.103196, , 
32.23, 0.101930, , 
32.25, 0.101099, , 
32.28, 0.100154, , 
32.31, 0.099136, , 
32.34, 0.098187, , 
32.37, 0.097141, , 
32.40, 0.096262, , 
32.43, 0.095532, , 
32.46, 0.094546, , 
32.49, 0.093594, , 
32.52, 0.092627, , 
32.55, 0.091834, , 
32.58, 0.091088, , 
32.61, 0.090257, , 
32.64, 0.089544, , 
32.67, 0.088614, , 
32.70, 0.087891, , 
32.73, 0.087117, , 
32.76, 0.086264, , 
32.79, 0.085509, , 
32.82, 0.084672, , 
32.85, 0.084040, , 
32.88, 0.083336, , 
32.91, 0.082559, , 
32.94, 0.081823, , 
32.97, 0.081046, , 
33.00, 0.080421, , 
33.03, 0.079781, , 
33.06, 0.079149, , 
33.09, 0.078423, , 
33.12, 0.077684, , 
33.15, 0.077065, , 
33.18, 0.076453, , 
33.21, 0.075730, , 
33.24, 0.075184, , 
33.27, 0.074591, , 
33.30, 0.074087, , 
33.33, 0.073627, , 
33.36, 0.073104, , 
33.39, 0.072675, , 
33.42, 0.072095, , 
33.45, 0.071717, , 
33.48, 0.071308, , 
33.51, 0.070804, , 
33.54, 0.070385, , 
33.57, 0.069805, , 
33.60, 0.069285, , 
33.63, 0.068691, , 
33.66, 0.068136, , 
33.69, 0.067692, , 
33.72, 0.067115, , 
33.75, 0.066668, , 
33.78, 0.066195, , 
33.81, 0.065688, , 
33.84, 0.065307, , 
33.87, 0.064834, , 
33.90, 0.064390, , 
33.93, 0.063953, , 
33.96, 0.063451, , 
33.99, 0.063042, , 
34.02, 0.062500, , 
34.05, 0.062065, , 
34.08, 0.061732, , 
34.11, 0.061275, , 
34.14, 0.060939, , 
34.17, 0.060543, , 
34.20, 0.060245, , 
34.23, 0.059889, , 
34.27, 0.059505, , 
34.29, 0.059283, , 
34.32, 0.058900, , 
34.35, 0.058614, , 
34.38, 0.058332, , 
34.41, 0.058059, , 
34.44, 0.057837, , 
34.47, 0.057574, , 
34.50, 0.057222, , 
34.53, 0.056962, , 
34.56, 0.056625, , 
34.59, 0.056318, , 
34.62, 0.055997, , 
34.65, 0.055709, , 
34.68, 0.055537, , 
34.71, 0.055242, , 
34.74, 0.054954, , 
34.77, 0.054649, , 
34.80, 0.054361, , 
34.83, 0.054135, , 
34.86, 0.053840, , 
34.89, 0.053612, , 
34.92, 0.053320, , 
34.95, 0.052997, , 
34.98, 0.052752, , 
35.01, 0.052502, , 
35.04, 0.052283, , 
35.07, 0.052048, , 
35.10, 0.051782, , 
35.13, 0.051550, , 
35.16, 0.051325, , 
35.18, 0.051205, 11, 0.583
35.19, 0.051090, , 
35.22, 0.050922, , 
35.25, 0.050760, , 
35.28, 0.050589, , 
35.31, 0.050437, , 
35.34, 0.050307, , 
35.37, 0.050240, , 
35.40, 0.050142, , 
35.43, 0.050006, , 
35.46, 0.049863, , 
35.49, 0.049720, , 
35.52, 0.049530, , 
35.55, 0.049400, , 
35.58, 0.049282, , 
35.61, 0.049175, , 
35.64, 0.049060, , 
35.67, 0.048921, , 
35.70, 0.048819, , 
35.73, 0.048718, , 
35.76, 0.048616, , 
35.79, 0.048474, , 
35.82, 0.048321, , 
35.85, 0.048210, , 
35.88, 0.048033, , 
35.91, 0.047877, , 
35.94, 0.047785, , 
35.97, 0.047671, , 
36.00, 0.047595, , 
36.03, 0.047446, , 
36.06, 0.047300, , 
36.09, 0.047249, , 
36.12, 0.047230, , 
36.15, 0.047132, , 
36.18, 0.046999, , 
36.21, 0.046856, , 
36.24, 0.046805, , 
36.27, 0.046745, , 
36.30, 0.046710, , 
36.33, 0.046691, , 
36.36, 0.046691, , 
36.39, 0.046691, , 
36.42, 0.046707, , 
36.45, 0.046716, , 
36.48, 0.046729, , 
36.52, 0.046713, , 
36.54, 0.046707, , 
36.57, 0.046716, , 
36.60, 0.046757, , 
36.63, 0.046742, , 
36.66, 0.046754, , 
36.69, 0.046745, , 
36.72, 0.046751, , 
36.75, 0.046767, , 
36.78, 0.046780, , 
36.81, 0.046808, , 
36.84, 0.046834, , 
36.87, 0.046938, , 
36.90, 0.047062, , 
36.93, 0.047183, , 
36.96, 0.047230, , 
36.99, 0.047278, , 
37.02, 0.047360, , 
37.05, 0.047455, , 
37.08, 0.047652, , 
37.11, 0.047899, , 
37.14, 0.048036, , 
37.17, 0.048277, , 
37.20, 0.048458, , 
37.23, 0.048718, , 
37.26, 0.049041, , 
37.29, 0.049368, , 
37.33, 0.049793, , 
37.35, 0.049967, , 
37.38, 0.050320, , 
37.41, 0.050719, , 
37.44, 0.051119, , 
37.47, 0.051611, , 
37.50, 0.052036, , 
37.53, 0.052442, , 
37.56, 0.053019, , 
37.59, 0.053590, , 
37.62, 0.054215, , 
37.65, 0.054789, , 
37.68, 0.055331, , 
37.71, 0.056089, , 
37.74, 0.056625, , 
37.77, 0.057364, , 
37.80, 0.058059, , 
37.83, 0.058652, , 
37.86, 0.059734, , 
37.89, 0.060565, , 
37.92, 0.061558, , 
37.95, 0.062262, , 
37.98, 0.062931, , 
38.01, 0.064114, , 
38.04, 0.064990, , 
38.07, 0.066005, , 
38.10, 0.066893, , 
38.13, 0.067626, , 
38.16, 0.068764, , 
38.19, 0.069729, , 
38.22, 0.070801, , 
38.25, 0.071740, , 
38.28, 0.072533, , 
38.31, 0.073928, , 
38.34, 0.074896, , 
38.37, 0.075866, , 
38.38, 0.076022, 12, 0.586
38.40, 0.076815, , 
38.43, 0.077643, , 
38.46, 0.078724, , 
38.49, 0.079552, , 
38.52, 0.080567, , 
38.56, 0.081341, , 
38.58, 0.081772, , 
38.61, 0.082730, , 
38.64, 0.083419, , 
38.67, 0.084164, , 
38.70, 0.084760, , 
38.73, 0.085287, , 
38.76, 0.085674, , 
38.79, 0.086264, , 
38.82, 0.086714, , 
38.85, 0.087032, , 
38.88, 0.087346, , 
38.91, 0.087602, , 
38.94, 0.087882, , 
38.97, 0.088069, , 
39.00, 0.088224, , 
39.03, 0.088319, , 
39.06, 0.088351, , 
39.09, 0.088364, , 
39.12, 0.088411, , 
39.15, 0.088380, , 
39.18, 0.088262, , 
39.21, 0.088100, , 
39.24, 0.087853, , 
39.27, 0.087650, , 
39.30, 0.087399, , 
39.33, 0.087104, , 
39.36, 0.086733, , 
39.39, 0.086381, , 
39.42, 0.085937, , 
39.45, 0.085572, , 
39.48, 0.085125, , 
39.51, 0.084672, , 
39.54, 0.084123, , 
39.58, 0.083571, , 
39.60, 0.083200, , 
39.63, 0.082753, , 
39.66, 0.082226, , 
39.69, 0.081547, , 
39.72, 0.080938, , 
39.75, 0.080374, , 
39.78, 0.079885, , 
39.81, 0.079241, , 
39.84, 0.078451, , 
39.87, 0.077760, , 
39.90, 0.077195, , 
39.93, 0.076580, , 
39.96, 0.075949, , 
39.99, 0.075470, , 
40.02, 0.074759, , 
40.05, 0.074138, , 
40.08, 0.073602, , 
40.11, 0.073085, , 
40.14, 0.072450, , 
40.17, 0.071756, , 
40.20, 0.071296, , 
40.23, 0.070785, , 
40.26, 0.070201, , 
40.29, 0.069599, , 
40.32, 0.068958, , 
40.35, 0.068450, , 
40.38, 0.067930, , 
40.41, 0.067464, , 
40.44, 0.066972, , 
40.47, 0.066509, , 
40.50, 0.066056, , 
40.53, 0.065564, , 
40.56, 0.064980, , 
40.60, 0.064628, , 
40.62, 0.064130, , 
40.65, 0.063731, , 
40.68, 0.063347, , 
40.71, 0.062852, , 
40.74, 0.062493, , 
40.77, 0.061900, , 
40.80, 0.061545, , 
40.83, 0.061130, , 
40.86, 0.060647, , 
40.89, 0.060324, , 
40.92, 0.059858, , 
40.95, 0.059559, , 
40.98, 0.059207, , 
41.01, 0.058855, , 
41.04, 0.058525, , 
41.07, 0.058056, , 
41.10, 0.057764, , 
41.13, 0.057428, , 
41.16, 0.057003, , 
41.19, 0.056695, , 
41.22, 0.056368, , 
41.25, 0.056070, , 
41.28, 0.055712, , 
41.31, 0.055287, , 
41.34, 0.055024, , 
41.37, 0.054630, , 
41.40, 0.054338, , 
41.43, 0.054110, , 
41.46, 0.053767, , 
41.49, 0.053526, , 
41.52, 0.053124, , 
41.55, 0.052857, , 
41.58, 0.052584, 13, 0.586
41.59, 0.052546, , 
41.62, 0.052327, , 
41.64, 0.052172, , 
41.67, 0.051766, , 
41.70, 0.051474, , 
41.73, 0.051186, , 
41.76, 0.050957, , 
41.79, 0.050732, , 
41.82, 0.050523, , 
41.85, 0.050275, , 
41.88, 0.050050, , 
41.91, 0.049793, , 
41.94, 0.049558, , 
41.97, 0.049324, , 
42.00, 0.049060, , 
42.03, 0.048895, , 
42.06, 0.048623, , 
42.09, 0.048413, , 
42.12, 0.048169, , 
42.15, 0.048026, , 
42.18, 0.047814, , 
42.21, 0.047604, , 
42.24, 0.047452, , 
42.27, 0.047252, , 
42.30, 0.047078, , 
42.33, 0.046856, , 
42.36, 0.046723, , 
42.39, 0.046554, , 
42.42, 0.046301, , 
42.45, 0.046168, , 
42.48, 0.045923, , 
42.51, 0.045774, , 
42.54, 0.045682, , 
42.57, 0.045514, , 
42.60, 0.045375, , 
42.63, 0.045295, , 
42.66, 0.045146, , 
42.69, 0.044949, , 
42.72, 0.044791, , 
42.75, 0.044689, , 
42.78, 0.044597, , 
42.81, 0.044429, , 
42.85, 0.044315, , 
42.87, 0.044220, , 
42.90, 0.044137, , 
42.93, 0.044042, , 
42.96, 0.043862, , 
42.99, 0.043744, , 
43.02, 0.043620, , 
43.05, 0.043538, , 
43.08, 0.043459, , 
43.11, 0.043300, , 
43.14, 0.043164, , 
43.17, 0.043059, , 
43.20, 0.043072, , 
43.23, 0.043078, , 
43.26, 0.042970, , 
43.29, 0.042815, , 
43.32, 0.042710, , 
43.35, 0.042663, , 
43.38, 0.042599, , 
43.41, 0.042577, , 
43.44, 0.042583, , 
43.47, 0.042564, , 
43.50, 0.042561, , 
43.53, 0.042628, , 
43.56, 0.042824, , 
43.59, 0.042929, , 
43.62, 0.042980, , 
43.65, 0.043021, , 
43.68, 0.043043, , 
43.71, 0.043103, , 
43.74, 0.043151, , 
43.77, 0.043287, , 
43.80, 0.043411, , 
43.83, 0.043468, , 
43.86, 0.043494, , 
43.89, 0.043551, , 
43.92, 0.043662, , 
43.95, 0.043830, , 
43.98, 0.043963, , 
44.01, 0.044103, , 
44.04, 0.044293, , 
44.07, 0.044480, , 
44.10, 0.044667, , 
44.13, 0.044870, , 
44.16, 0.045105, , 
44.19, 0.045371, , 
44.22, 0.045682, , 
44.25, 0.045971, , 
44.28, 0.046196, , 
44.31, 0.046510, , 
44.34, 0.046840, , 
44.37, 0.047275, , 
44.40, 0.047703, , 
44.43, 0.048121, , 
44.46, 0.048540, , 
44.49, 0.048978, , 
44.52, 0.049619, , 
44.55, 0.050234, , 
44.58, 0.050862, , 
44.61, 0.051500, , 
44.64, 0.052280, , 
44.68, 0.053124, , 
44.70, 0.053761, , 
44.73, 0.054576, , 
44.76, 0.055449, , 
44.78, 0.055975, 14, 0.585
44.79, 0.056479, , 
44.82, 0.057485, , 
44.85, 0.058398, , 
44.89, 0.059379, , 
44.91, 0.060200, , 
44.94, 0.061463, , 
44.97, 0.062703, , 
45.00, 0.063832, , 
45.03, 0.064993, , 
45.06, 0.066379, , 
45.09, 0.067083, , 
45.12, 0.068710, , 
45.15, 0.069890, , 
45.18, 0.071093, , 
45.21, 0.072552, , 
45.24, 0.073576, , 
45.27, 0.075264, , 
45.30, 0.076237, , 
45.33, 0.077421, , 
45.36, 0.078775, , 
45.39, 0.079695, , 
45.42, 0.081205, , 
45.45, 0.082305, , 
45.48, 0.083393, , 
45.51, 0.084472, , 
45.54, 0.085255, , 
45.57, 0.086521, , 
45.60, 0.087425, , 
45.63, 0.088265, , 
45.66, 0.089176, , 
45.69, 0.089924, , 
45.72, 0.090473, , 
45.75, 0.091231, , 
45.78, 0.091742, , 
45.81, 0.092316, , 
45.84, 0.092763, , 
45.87, 0.093220, , 
45.90, 0.093407, , 
45.93, 0.093639, , 
45.96, 0.093889, , 
45.99, 0.094057, , 
46.02, 0.094165, , 
46.05, 0.094222, , 
46.08, 0.094286, , 
46.11, 0.094235, , 
46.14, 0.094111, , 
46.17, 0.093908, , 
46.20, 0.093747, , 
46.23, 0.093512, , 
46.26, 0.093207, , 
46.29, 0.092887, , 
46.32, 0.092529, , 
46.35, 0.092205, , 
46.38, 0.091694, , 
46.41, 0.091165, , 
46.44, 0.090724, , 
46.47, 0.090150, , 
46.50, 0.089702, , 
46.53, 0.089135, , 
46.56, 0.088465, , 
46.59, 0.087872, , 
46.62, 0.087174, , 
46.65, 0.086737, , 
46.68, 0.086045, , 
46.71, 0.085319, , 
46.74, 0.084764, , 
46.77, 0.084002, , 
46.80, 0.083495, , 
46.83, 0.082664, , 
46.86, 0.081820, , 
46.89, 0.081119, , 
46.92, 0.080450, , 
46.95, 0.079942, , 
46.98, 0.079229, , 
47.01, 0.078515, , 
47.04, 0.077906, , 
47.07, 0.077145, , 
47.10, 0.076640, , 
47.13, 0.075996, , 
47.16, 0.075235, , 
47.19, 0.074651, , 
47.22, 0.073935, , 
47.25, 0.073449, , 
47.28, 0.072761, , 
47.31, 0.072158, , 
47.34, 0.071746, , 
47.37, 0.071172, , 
47.40, 0.070737, , 
47.43, 0.070059, , 
47.46, 0.069450, , 
47.49, 0.068945, , 
47.52, 0.068393, , 
47.55, 0.068124, , 
47.58, 0.067569, , 
47.61, 0.067048, , 
47.64, 0.066658, , 
47.67, 0.066122, , 
47.70, 0.065650, , 
47.73, 0.065329, , 
47.76, 0.064838, , 
47.79, 0.064378, , 
47.82, 0.063832, , 
47.85, 0.063397, , 
47.88, 0.063071, , 
47.91, 0.062484, , 
47.95, 0.062030, , 
47.97, 0.061602, , 
47.98, 0.061523, 15, 0.586
48.00, 0.061218, , 
48.03, 0.060949, , 
48.06, 0.060527, , 
48.09, 0.060187, , 
48.12, 0.059775, , 
48.15, 0.059534, , 
48.18, 0.059290, , 
48.21, 0.058836, , 
48.24, 0.058544, , 
48.27, 0.058259, , 
48.30, 0.057945, , 
48.33, 0.057694, , 
48.36, 0.057355, , 
48.39, 0.057050, , 
48.42, 0.056686, , 
48.45, 0.056391, , 
48.48, 0.056213, , 
48.51, 0.055905, , 
48.54, 0.055642, , 
48.57, 0.055426, , 
48.60, 0.055223, , 
48.63, 0.055046, , 
48.66, 0.054795, , 
48.69, 0.054633, , 
48.72, 0.054478, , 
48.75, 0.054364, , 
48.78, 0.054281, , 
48.81, 0.054047, , 
48.84, 0.053904, , 
48.87, 0.053771, , 
48.90, 0.053647, , 
48.93, 0.053542, , 
48.97, 0.053428, , 
48.99, 0.053308, , 
49.02, 0.053212, , 
49.05, 0.053149, , 
49.08, 0.053155, , 
49.11, 0.053165, , 
49.14, 0.053158, , 
49.17, 0.053155, , 
49.20, 0.053155, , 
49.23, 0.053187, , 
49.26, 0.053181, , 
49.29, 0.053155, , 
49.32, 0.053162, , 
49.35, 0.053177, , 
49.38, 0.053209, , 
49.41, 0.053314, , 
49.44, 0.053457, , 
49.47, 0.053523, , 
49.50, 0.053628, , 
49.53, 0.053777, , 
49.56, 0.053964, , 
49.59, 0.054129, , 
49.62, 0.054332, , 
49.65, 0.054573, , 
49.68, 0.054795, , 
49.71, 0.055027, , 
49.74, 0.055328, , 
49.77, 0.055680, , 
49.80, 0.056042, , 
49.83, 0.056334, , 
49.86, 0.056594, , 
49.89, 0.056987, , 
49.92, 0.057399, , 
49.95, 0.057929, , 
49.98, 0.058443, , 
50.01, 0.058890, , 
50.04, 0.059556, , 
50.07, 0.060124, , 
50.10, 0.060790, , 
50.13, 0.061393, , 
50.16, 0.062157, , 
50.19, 0.062528, , 
50.22, 0.063315, , 
50.25, 0.064200, , 
50.28, 0.064980, , 
50.31, 0.065859, , 
50.34, 0.066433, , 
50.37, 0.067340, , 
50.40, 0.068149, , 
50.43, 0.068964, , 
50.46, 0.069995, , 
50.49, 0.070791, , 
50.52, 0.071990, , 
50.55, 0.073097, , 
50.58, 0.073989, , 
50.61, 0.074874, , 
50.64, 0.075581, , 
50.67, 0.076662, , 
50.70, 0.077757, , 
50.73, 0.078759, , 
50.76, 0.079923, , 
50.79, 0.080665, , 
50.82, 0.081519, , 
50.85, 0.082461, , 
50.88, 0.083228, , 
50.91, 0.084164, , 
50.94, 0.084789, , 
50.97, 0.085674, , 
51.00, 0.086495, , 
51.03, 0.087063, , 
51.06, 0.087771, , 
51.09, 0.088199, , 
51.12, 0.088846, , 
51.15, 0.089468, , 
51.18, 0.089836, 16, 0.585
51.18, 0.089902, , 
51.22, 0.090384, , 
51.24, 0.090622, , 
51.27, 0.091085, , 
51.30, 0.091463, , 
51.33, 0.091736, , 
51.36, 0.092011, , 
51.39, 0.092138, , 
51.42, 0.092205, , 
51.45, 0.092281, , 
51.48, 0.092313, , 
51.51, 0.092341, , 
51.54, 0.092275, , 
51.57, 0.092199, , 
51.60, 0.091986, , 
51.63, 0.091831, , 
51.66, 0.091609, , 
51.69, 0.091368, , 
51.72, 0.091098, , 
51.75, 0.090736, , 
51.78, 0.090245, , 
51.81, 0.089766, , 
51.84, 0.089410, , 
51.87, 0.088979, , 
51.90, 0.088545, , 
51.93, 0.088047, , 
51.96, 0.087539, , 
51.99, 0.087117, , 
52.02, 0.086648, , 
52.05, 0.086191, , 
52.08, 0.085506, , 
52.11, 0.084897, , 
52.14, 0.084383, , 
52.17, 0.083844, , 
52.20, 0.083178, , 
52.24, 0.082734, , 
52.26, 0.082067, , 
52.29, 0.081490, , 
52.32, 0.080868, , 
52.35, 0.080129, , 
52.38, 0.079638, , 
52.41, 0.078832, , 
52.44, 0.078312, , 
52.47, 0.077700, , 
52.50, 0.077037, , 
52.53, 0.076618, , 
52.56, 0.075892, , 
52.59, 0.075324, , 
52.62, 0.074743, , 
52.65, 0.074185, , 
52.68, 0.073719, , 
52.71, 0.072939, , 
52.74, 0.072393, , 
52.77, 0.071898, , 
52.80, 0.071353, , 
52.83, 0.070997, , 
52.86, 0.070468, , 
52.89, 0.070024, , 
52.92, 0.069614, , 
52.95, 0.069082, , 
52.98, 0.068717, , 
53.01, 0.068143, , 
53.04, 0.067730, , 
53.07, 0.067359, , 
53.10, 0.066833, , 
53.13, 0.066462, , 
53.16, 0.065910, , 
53.19, 0.065564, , 
53.22, 0.065250, , 
53.25, 0.064907, , 
53.28, 0.064711, , 
53.31, 0.064295, , 
53.34, 0.064057, , 
53.37, 0.063826, , 
53.40, 0.063562, , 
53.43, 0.063328, , 
53.46, 0.063179, , 
53.49, 0.062906, , 
53.52, 0.062773, , 
53.55, 0.062624, , 
53.58, 0.062408, , 
53.61, 0.062281, , 
53.64, 0.062217, , 
53.67, 0.062173, , 
53.70, 0.062078, , 
53.73, 0.061983, , 
53.76, 0.061872, , 
53.79, 0.061732, , 
53.82, 0.061669, , 
53.85, 0.061672, , 
53.88, 0.061742, , 
53.91, 0.061862, , 
53.94, 0.061986, , 
53.97, 0.062087, , 
54.00, 0.062167, , 
54.03, 0.062332, , 
54.06, 0.062443, , 
54.09, 0.062557, , 
54.12, 0.062747, , 
54.15, 0.062941, , 
54.18, 0.063134, , 
54.21, 0.063439, , 
54.24, 0.063886, , 
54.27, 0.064213, , 
54.30, 0.064485, , 
54.33, 0.064780, , 
54.36, 0.065126, , 
54.38, 0.065361, 17, 0.586
54.39, 0.065586, , 
54.42, 0.065979, , 
54.45, 0.066474, , 
54.49, 0.066899, , 
54.51, 0.067270, , 
54.54, 0.067898, , 
54.57, 0.068447, , 
54.60, 0.069066, , 
54.63, 0.069665, , 
54.66, 0.070366, , 
54.69, 0.070617, , 
54.72, 0.071362, , 
54.75, 0.072085, , 
54.78, 0.072663, , 
54.81, 0.073437, , 
54.84, 0.073947, , 
54.87, 0.074655, , 
54.90, 0.075232, , 
54.93, 0.075831, , 
54.96, 0.076599, , 
54.99, 0.077122, , 
55.02, 0.077881, , 
55.05, 0.078642, , 
55.08, 0.079308, , 
55.11, 0.079961, , 
55.14, 0.080440, , 
55.17, 0.081125, , 
55.20, 0.081820, , 
55.23, 0.082407, , 
55.26, 0.083010, , 
55.29, 0.083495, , 
55.32, 0.083790, , 
55.35, 0.084469, , 
55.38, 0.084900, , 
55.41, 0.085382, , 
55.44, 0.085817, , 
55.47, 0.086286, , 
55.51, 0.086695, , 
55.53, 0.087082, , 
55.56, 0.087463, , 
55.59, 0.087745, , 
55.62, 0.087967, , 
55.65, 0.088126, , 
55.68, 0.088367, , 
55.71, 0.088545, , 
55.74, 0.088687, , 
55.77, 0.088770, , 
55.80, 0.088833, , 
55.83, 0.088871, , 
55.86, 0.088821, , 
55.89, 0.088719, , 
55.92, 0.088643, , 
55.95, 0.088535, , 
55.98, 0.088326, , 
56.01, 0.088126, , 
56.04, 0.087974, , 
56.07, 0.087767, , 
56.10, 0.087539, , 
56.13, 0.087330, , 
56.16, 0.087117, , 
56.19, 0.086841, , 
56.22, 0.086502, , 
56.25, 0.086194, , 
56.28, 0.085725, , 
56.31, 0.085335, , 
56.34, 0.085062, , 
56.37, 0.084760, , 
56.40, 0.084405, , 
56.43, 0.083955, , 
56.46, 0.083450, , 
56.49, 0.083041, , 
56.53, 0.082638, , 
56.55, 0.082366, , 
56.58, 0.081779, , 
56.61, 0.081224, , 
56.64, 0.080830, , 
56.67, 0.080390, , 
56.70, 0.079857, , 
56.73, 0.079536, , 
56.76, 0.078756, , 
56.79, 0.078188, , 
56.82, 0.077652, , 
56.85, 0.077129, , 
56.88, 0.076751, , 
56.91, 0.076133, , 
56.94, 0.075755, , 
56.97, 0.075283, , 
57.00, 0.074797, , 
57.03, 0.074531, , 
57.06, 0.073839, , 
57.09, 0.073468, , 
57.12, 0.072996, , 
57.15, 0.072615, , 
57.18, 0.072295, , 
57.21, 0.072028, , 
57.24, 0.071616, , 
57.27, 0.071292, , 
57.30, 0.071039, , 
57.33, 0.070702, , 
57.36, 0.070426, , 
57.39, 0.070128, , 
57.42, 0.069817, , 
57.45, 0.069608, , 
57.48, 0.069402, , 
57.51, 0.069291, , 
57.54, 0.069116, , 
57.57, 0.068885, , 
57.58, 0.068856, 18, 0.586
57.60, 0.068752, , 
57.63, 0.068663, , 
57.66, 0.068599, , 
57.70, 0.068565, , 
57.72, 0.068590, , 
57.75, 0.068590, , 
57.78, 0.068561, , 
57.81, 0.068558, , 
57.84, 0.068546, , 
57.87, 0.068584, , 
57.90, 0.068612, , 
57.93, 0.068729, , 
57.96, 0.068885, , 
57.99, 0.068986, , 
58.02, 0.069231, , 
58.05, 0.069465, , 
58.08, 0.069748, , 
58.11, 0.070001, , 
58.14, 0.070220, , 
58.17, 0.070629, , 
58.20, 0.070921, , 
58.23, 0.071229, , 
58.26, 0.071641, , 
58.29, 0.071955, , 
58.32, 0.072485, , 
58.35, 0.072910, , 
58.38, 0.073307, , 
58.41, 0.073801, , 
58.44, 0.074150, , 
58.47, 0.074721, , 
58.50, 0.075159, , 
58.53, 0.075536, , 
58.56, 0.076139, , 
58.59, 0.076609, , 
58.62, 0.077341, , 
58.65, 0.077817, , 
58.68, 0.078280, , 
58.71, 0.078826, , 
58.74, 0.079099, , 
58.77, 0.079847, , 
58.80, 0.080415, , 
58.83, 0.080957, , 
58.86, 0.081535, , 
58.89, 0.082001, , 
58.92, 0.082372, , 
58.95, 0.082902, , 
58.98, 0.083339, , 
59.01, 0.083834, , 
59.04, 0.084301, , 
59.07, 0.084732, , 
59.10, 0.085205, , 
59.13, 0.085544, , 
59.16, 0.085956, , 
59.19, 0.086273, , 
59.22, 0.086568, , 
59.25, 0.086921, , 
59.28, 0.087235, , 
59.31, 0.087523, , 
59.34, 0.087704, , 
59.37, 0.087929, , 
59.40, 0.088126, , 
59.43, 0.088256, , 
59.46, 0.088326, , 
59.49, 0.088348, , 
59.52, 0.088376, , 
59.55, 0.088380, , 
59.58, 0.088367, , 
59.61, 0.088376, , 
59.64, 0.088373, , 
59.67, 0.088313, , 
59.70, 0.088186, , 
59.73, 0.088056, , 
59.76, 0.087958, , 
59.79, 0.087809, , 
59.82, 0.087622, , 
59.85, 0.087390, , 
59.88, 0.087200, , 
59.91, 0.086940, , 
59.95, 0.086702, , 
59.97, 0.086515, , 
60.00, 0.086213, , 
60.03, 0.085921, , 
60.06, 0.085591, , 
60.09, 0.085309, , 
60.12, 0.084935, , 
60.15, 0.084722, , 
60.18, 0.084335, , 
60.21, 0.083974, , 
60.24, 0.083644, , 
60.27, 0.083203, , 
60.30, 0.082943, , 
60.33, 0.082575, , 
60.36, 0.082286, , 
60.39, 0.081963, , 
60.42, 0.081458, , 
60.45, 0.081176, , 
60.48, 0.080821, , 
60.51, 0.080421, , 
60.54, 0.080079, , 
60.57, 0.079714, , 
60.60, 0.079517, , 
60.63, 0.079140, , 
60.66, 0.078718, , 
60.69, 0.078451, , 
60.72, 0.078144, , 
60.75, 0.077934, , 
60.78, 0.077722, 19, 0.586
60.79, 0.077693, , 
60.81, 0.077532, , 
60.84, 0.077363, , 
60.87, 0.077199, , 
60.90, 0.077100, , 
60.93, 0.077046, , 
60.96, 0.077018, , 
60.99, 0.077002, , 
61.02, 0.076964, , 
61.05, 0.076964, , 
61.08, 0.076983, , 
61.11, 0.076983, , 
61.14, 0.077011, , 
61.17, 0.077138, , 
61.20, 0.077256, , 
61.23, 0.077354, , 
61.26, 0.077551, , 
61.29, 0.077741, , 
61.32, 0.077988, , 
61.35, 0.078201, , 
61.38, 0.078318, , 
61.41, 0.078613, , 
61.44, 0.078829, , 
61.47, 0.079140, , 
61.50, 0.079422, , 
61.53, 0.079647, , 
61.56, 0.080041, , 
61.59, 0.080301, , 
61.62, 0.080751, , 
61.65, 0.081163, , 
61.68, 0.081503, , 
61.71, 0.082077, , 
61.74, 0.082508, , 
61.77, 0.083006, , 
61.80, 0.083387, , 
61.83, 0.083796, , 
61.86, 0.084218, , 
61.89, 0.084735, , 
61.92, 0.085268, , 
61.95, 0.085715, , 
61.99, 0.086137, , 
62.01, 0.086495, , 
62.04, 0.087041, , 
62.07, 0.087555, , 
62.10, 0.087980, , 
62.13, 0.088373, , 
62.16, 0.088874, , 
62.19, 0.089112, , 
62.22, 0.089579, , 
62.25, 0.089858, , 
62.28, 0.090134, , 
62.31, 0.090429, , 
62.34, 0.090594, , 
62.37, 0.090889, , 
62.40, 0.091047, , 
62.43, 0.091206, , 
62.46, 0.091402, , 
62.49, 0.091548, , 
62.52, 0.091713, , 
62.55, 0.091796, , 
62.58, 0.091853, , 
62.61, 0.091859, , 
62.64, 0.091878, , 
62.67, 0.091875, , 
62.70, 0.091869, , 
62.73, 0.091885, , 
62.76, 0.091897, , 
62.79, 0.091831, , 
62.82, 0.091656, , 
62.85, 0.091580, , 
62.88, 0.091469, , 
62.91, 0.091250, , 
62.94, 0.091076, , 
62.97, 0.090822, , 
63.01, 0.090619, , 
63.03, 0.090441, , 
63.06, 0.090175, , 
63.09, 0.090054, , 
63.12, 0.089747, , 
63.15, 0.089496, , 
63.18, 0.089185, , 
63.21, 0.088906, , 
63.24, 0.088706, , 
63.27, 0.088386, , 
63.30, 0.088135, , 
63.33, 0.087897, , 
63.36, 0.087675, , 
63.39, 0.087507, , 
63.42, 0.087133, , 
63.45, 0.086870, , 
63.48, 0.086702, , 
63.51, 0.086486, , 
63.54, 0.086346, , 
63.57, 0.086131, , 
63.60, 0.086001, , 
63.63, 0.085886, , 
63.66, 0.085709, , 
63.69, 0.085620, , 
63.72, 0.085528, , 
63.75, 0.085500, , 
63.78, 0.085487, , 
63.81, 0.085595, , 
63.84, 0.085680, , 
63.87, 0.085848, , 
63.90, 0.085925, , 
63.93, 0.086004, , 
63.96, 0.086166, , 
63.98, 0.086270, 20, 0.585
63.99, 0.086365, , 
64.03, 0.086638, , 
64.05, 0.086879, , 
64.08, 0.087127, , 
64.11, 0.087406, , 
64.14, 0.087625, , 
64.17, 0.087844, , 
64.20, 0.088205, , 
64.24, 0.088567, , 
64.26, 0.088874, , 
64.29, 0.089144, , 
64.32, 0.089407, , 
64.35, 0.089867, , 
64.38, 0.090248, , 
64.41, 0.090590, , 
64.44, 0.090825, , 
64.47, 0.091133, , 
64.50, 0.091466, , 
64.53, 0.091736, , 
64.56, 0.092126, , 
64.59, 0.092408, , 
64.62, 0.092687, , 
64.65, 0.092982, , 
64.68, 0.093299, , 
64.71, 0.093569, , 
64.74, 0.093731, , 
64.77, 0.093921, , 
64.80, 0.094159, , 
64.83, 0.094340, , 
64.86, 0.094520, , 
64.89, 0.094647, , 
64.92, 0.094730, , 
64.95, 0.094895, , 
64.98, 0.095053, , 
65.01, 0.095155, , 
65.04, 0.095228, , 
65.07, 0.095266, , 
65.10, 0.095241, , 
65.13, 0.095149, , 
65.16, 0.095053, , 
65.19, 0.094958, , 
65.22, 0.094838, , 
65.26, 0.094746, , 
65.28, 0.094622, , 
65.31, 0.094492, , 
65.34, 0.094337, , 
65.37, 0.094137, , 
65.40, 0.094019, , 
65.43, 0.093778, , 
65.46, 0.093559, , 
65.49, 0.093347, , 
65.52, 0.093157, , 
65.55, 0.093017, , 
65.58, 0.092801, , 
65.61, 0.092608, , 
65.64, 0.092402, , 
65.67, 0.092208, , 
65.70, 0.092088, , 
65.73, 0.091878, , 
65.76, 0.091685, , 
65.79, 0.091571, , 
65.82, 0.091453, , 
65.85, 0.091377, , 
65.88, 0.091279, , 
65.91, 0.091120, , 
65.94, 0.091015, , 
65.97, 0.090943, , 
66.00, 0.090981, , 
66.03, 0.091104, , 
66.06, 0.091199, , 
66.09, 0.091247, , 
66.12, 0.091317, , 
66.15, 0.091342, , 
66.18, 0.091361, , 
66.21, 0.091526, , 
66.24, 0.091650, , 
66.28, 0.091767, , 
66.30, 0.091799, , 
66.33, 0.091897, , 
66.36, 0.092116, , 
66.39, 0.092310, , 
66.42, 0.092506, , 
66.45, 0.092640, , 
66.49, 0.092760, , 
66.51, 0.092988, , 
66.54, 0.093134, , 
66.57, 0.093385, , 
66.60, 0.093632, , 
66.63, 0.093804, , 
66.66, 0.094067, , 
66.69, 0.094203, , 
66.72, 0.094381, , 
66.75, 0.094562, , 
66.78, 0.094701, , 
66.81, 0.094952, , 
66.84, 0.095117, , 
66.87, 0.095260, , 
66.90, 0.095415, , 
66.93, 0.095516, , 
66.96, 0.095691, , 
66.99, 0.095751, , 
67.02, 0.095761, , 
67.05, 0.095786, , 
67.08, 0.095811, , 
67.11, 0.095818, , 
67.14, 0.095767, , 
67.17, 0.095608, , 
67.18, 0.095589, 21, 0.586
67.20, 0.095501, , 
67.23, 0.095440, , 
67.26, 0.095326, , 
67.30, 0.095193, , 
67.32, 0.095050, , 
67.35, 0.094847, , 
67.38, 0.094666, , 
67.41, 0.094368, , 
67.44, 0.094172, , 
67.47, 0.094013, , 
67.50, 0.093870, , 
67.53, 0.093747, , 
67.56, 0.093474, , 
67.59, 0.093268, , 
67.62, 0.093036, , 
67.65, 0.092896, , 
67.68, 0.092766, , 
67.71, 0.092563, , 
67.74, 0.092446, , 
67.77, 0.092326, , 
67.80, 0.092126, , 
67.83, 0.092040, , 
67.86, 0.091935, , 
67.89, 0.091894, , 
67.92, 0.091869, , 
67.95, 0.091869, , 
67.98, 0.091853, , 
68.01, 0.091847, , 
68.04, 0.091853, , 
68.07, 0.091840, , 
68.10, 0.091834, , 
68.13, 0.091837, , 
68.16, 0.091850, , 
68.19, 0.091859, , 
68.22, 0.091843, , 
68.25, 0.091837, , 
68.28, 0.091828, , 
68.31, 0.091818, , 
68.34, 0.091824, , 
68.37, 0.091815, , 
68.40, 0.091824, , 
68.43, 0.091840, , 
68.46, 0.091837, , 
68.49, 0.091824, , 
68.52, 0.091828, , 
68.55, 0.091834, , 
68.58, 0.091821, , 
68.61, 0.091834, , 
68.64, 0.091859, , 
68.67, 0.091853, , 
68.70, 0.091805, , 
68.73, 0.091808, , 
68.76, 0.091815, , 
68.79, 0.091840, , 
68.82, 0.091831, , 
68.85, 0.091818, , 
68.88, 0.091847, , 
68.91, 0.091774, , 
68.94, 0.091644, , 
68.97, 0.091520, , 
69.00, 0.091447, , 
69.03, 0.091361, , 
69.06, 0.091203, , 
69.09, 0.091050, , 
69.12, 0.090977, , 
69.15, 0.090914, , 
69.18, 0.090793, , 
69.21, 0.090632, , 
69.24, 0.090492, , 
69.27, 0.090375, , 
69.30, 0.090203, , 
69.33, 0.090067, , 
69.36, 0.090016, , 
69.39, 0.089924, , 
69.42, 0.089782, , 
69.45, 0.089617, , 
69.48, 0.089522, , 
69.51, 0.089449, , 
69.55, 0.089363, , 
69.57, 0.089169, , 
69.60, 0.089024, , 
69.63, 0.088970, , 
69.66, 0.088846, , 
69.69, 0.088760, , 
69.72, 0.088598, , 
69.75, 0.088484, , 
69.78, 0.088446, , 
69.81, 0.088427, , 
69.84, 0.088411, , 
69.87, 0.088380, , 
69.90, 0.088259, , 
69.93, 0.088142, , 
69.96, 0.088047, , 
69.99, 0.087996, , 
70.02, 0.087974, , 
70.05, 0.087913, , 
70.08, 0.087882, , 
70.11, 0.087758, , 
70.14, 0.087599, , 
70.17, 0.087555, , 
70.20, 0.087482, , 
70.23, 0.087428, , 
70.26, 0.087336, , 
70.29, 0.087181, , 
70.32, 0.087063, , 
70.35, 0.087003, , 
70.38, 0.086908, 22, 0.586
70.39, 0.086882, , 
70.41, 0.086743, , 
70.44, 0.086632, , 
70.47, 0.086549, , 
70.50, 0.086464, , 
70.53, 0.086346, , 
70.56, 0.086188, , 
70.59, 0.086039, , 
70.62, 0.085918, , 
70.65, 0.085763, , 
70.68, 0.085553, , 
70.71, 0.085490, , 
70.74, 0.085452, , 
70.77, 0.085398, , 
70.80, 0.085293, , 
70.83, 0.085163, , 
70.86, 0.085008, , 
70.89, 0.084840, , 
70.92, 0.084697, , 
70.95, 0.084586, , 
70.98, 0.084513, , 
71.01, 0.084424, , 
71.04, 0.084278, , 
71.07, 0.084174, , 
71.10, 0.084107, , 
71.13, 0.084025, , 
71.16, 0.083952, , 
71.19, 0.083875, , 
71.22, 0.083752, , 
71.25, 0.083669, , 
71.28, 0.083603, , 
71.31, 0.083450, , 
71.34, 0.083311, , 
71.37, 0.083152, , 
71.40, 0.083108, , 
71.43, 0.083082, , 
71.46, 0.083006, , 
71.49, 0.082889, , 
71.52, 0.082759, , 
71.55, 0.082626, , 
71.59, 0.082540, , 
71.61, 0.082347, , 
71.64, 0.082198, , 
71.67, 0.082112, , 
71.70, 0.081969, , 
71.73, 0.081874, , 
71.76, 0.081671, , 
71.79, 0.081585, , 
71.82, 0.081452, , 
71.85, 0.081281, , 
71.88, 0.081182, , 
71.91, 0.080938, , 
71.94, 0.080789, , 
71.97, 0.080672, , 
72.00, 0.080529, , 
72.03, 0.080412, , 
72.06, 0.080237, , 
72.09, 0.080164, , 
72.12, 0.080056, , 
72.15, 0.079895, , 
72.18, 0.079793, , 
72.21, 0.079631, , 
72.24, 0.079543, , 
72.27, 0.079447, , 
72.30, 0.079302, , 
72.33, 0.079206, , 
72.36, 0.079095, , 
72.39, 0.078994, , 
72.42, 0.078899, , 
72.45, 0.078743, , 
72.48, 0.078673, , 
72.51, 0.078569, , 
72.54, 0.078417, , 
72.57, 0.078277, , 
72.60, 0.078169, , 
72.63, 0.078137, , 
72.66, 0.078061, , 
72.69, 0.077922, , 
72.72, 0.077766, , 
72.75, 0.077643, , 
72.78, 0.077525, , 
72.81, 0.077329, , 
72.84, 0.077183, , 
72.87, 0.077126, , 
72.90, 0.077005, , 
72.93, 0.076900, , 
72.96, 0.076732, , 
72.99, 0.076621, , 
73.02, 0.076475, , 
73.05, 0.076307, , 
73.08, 0.076231, , 
73.11, 0.076047, , 
73.14, 0.075908, , 
73.17, 0.075784, , 
73.20, 0.075708, , 
73.23, 0.075667, , 
73.26, 0.075460, , 
73.29, 0.075324, , 
73.32, 0.075270, , 
73.35, 0.075216, , 
73.38, 0.075130, , 
73.41, 0.075016, , 
73.44, 0.074880, , 
73.47, 0.074775, , 
73.50, 0.074671, , 
73.53, 0.074556, , 
73.56, 0.074452, , 
73.58, 0.074376, 23, 0.585
73.59, 0.074306, , 
73.62, 0.074239, , 
73.65, 0.074173, , 
73.68, 0.074125, , 
73.71, 0.074036, , 
73.74, 0.073865, , 
73.77, 0.073703, , 
73.80, 0.073500, , 
73.83, 0.073373, , 
73.86, 0.073259, , 
73.89, 0.073173, , 
73.92, 0.073069, , 
73.95, 0.072913, , 
73.98, 0.072780, , 
74.01, 0.072691, , 
74.04, 0.072612, , 
74.07, 0.072485, , 
74.10, 0.072352, , 
74.13, 0.072219, , 
74.16, 0.072095, , 
74.19, 0.071879, , 
74.22, 0.071749, , 
74.25, 0.071591, , 
74.28, 0.071422, , 
74.31, 0.071302, , 
74.34, 0.071156, , 
74.37, 0.071074, , 
74.40, 0.071020, , 
74.43, 0.070896, , 
74.46, 0.070804, , 
74.49, 0.070658, , 
74.52, 0.070604, , 
74.55, 0.070484, , 
74.58, 0.070312, , 
74.61, 0.070154, , 
74.65, 0.070093, , 
74.67, 0.070036, , 
74.70, 0.070024, , 
74.73, 0.069976, , 
74.76, 0.069830, , 
74.79, 0.069760, , 
74.82, 0.069649, , 
74.85, 0.069561, , 
74.88, 0.069424, , 
74.91, 0.069275, , 
74.94, 0.069215, , 
74.97, 0.069091, , 
75.00, 0.068967, , 
75.03, 0.068818, , 
75.06, 0.068710, , 
75.09, 0.068660, , 
75.12, 0.068546, , 
75.15, 0.068390, , 
75.18, 0.068238, , 
75.21, 0.068120, , 
75.24, 0.068073, , 
75.27, 0.068003, , 
75.30, 0.067813, , 
75.33, 0.067676, , 
75.36, 0.067562, , 
75.39, 0.067559, , 
75.42, 0.067483, , 
75.45, 0.067232, , 
75.48, 0.067156, , 
75.51, 0.067121, , 
75.54, 0.067045, , 
75.57, 0.066985, , 
75.60, 0.066776, , 
75.63, 0.066703, , 
75.67, 0.066614, , 
75.69, 0.066519, , 
75.72, 0.066430, , 
75.75, 0.066233, , 
75.78, 0.066182, , 
75.81, 0.066078, , 
75.84, 0.065910, , 
75.88, 0.065818, , 
75.90, 0.065681, , 
75.93, 0.065596, , 
75.96, 0.065481, , 
75.99, 0.065351, , 
76.02, 0.065256, , 
76.05, 0.065031, , 
76.08, 0.064879, , 
76.11, 0.064726, , 
76.14, 0.064657, , 
76.17, 0.064612, , 
76.20, 0.064447, , 
76.23, 0.064295, , 
76.26, 0.064187, , 
76.29, 0.064137, , 
76.32, 0.064067, , 
76.35, 0.063873, , 
76.38, 0.063734, , 
76.41, 0.063616, , 
76.44, 0.063550, , 
76.47, 0.063470, , 
76.50, 0.063283, , 
76.53, 0.063166, , 
76.56, 0.063096, , 
76.59, 0.062966, , 
76.62, 0.062839, , 
76.65, 0.062722, , 
76.68, 0.062627, , 
76.71, 0.062541, , 
76.74, 0.062392, , 
76.77, 0.062278, , 
76.79, 0.062249, 24, 0.588
76.80, 0.062202, , 
76.83, 0.062097, , 
76.86, 0.061932, , 
76.89, 0.061811, , 
76.92, 0.061704, , 
76.95, 0.061650, , 
76.98, 0.061529, , 
77.01, 0.061339, , 
77.04, 0.061241, , 
77.07, 0.061190, , 
77.10, 0.061139, , 
77.13, 0.060993, , 
77.16, 0.060803, , 
77.19, 0.060727, , 
77.22, 0.060676, , 
77.25, 0.060635, , 
77.28, 0.060492, , 
77.31, 0.060362, , 
77.34, 0.060289, , 
77.37, 0.060216, , 
77.40, 0.060165, , 
77.43, 0.060070, , 
77.46, 0.059908, , 
77.49, 0.059772, , 
77.52, 0.059693, , 
77.55, 0.059639, , 
77.58, 0.059515, , 
77.61, 0.059337, , 
77.64, 0.059223, , 
77.67, 0.059169, , 
77.71, 0.059138, , 
77.73, 0.059052, , 
77.76, 0.058884, , 
77.79, 0.058785, , 
77.82, 0.058706, , 
77.85, 0.058633, , 
77.88, 0.058462, , 
77.91, 0.058322, , 
77.94, 0.058227, , 
77.97, 0.058170, , 
78.00, 0.058132, , 
78.03, 0.058034, , 
78.06, 0.057853, , 
78.09, 0.057720, , 
78.12, 0.057653, , 
78.15, 0.057644, , 
78.18, 0.057599, , 
78.21, 0.057399, , 
78.24, 0.057266, , 
78.27, 0.057209, , 
78.30, 0.057146, , 
78.33, 0.057016, , 
78.36, 0.056838, , 
78.39, 0.056736, , 
78.42, 0.056663, , 
78.45, 0.056597, , 
78.48, 0.056537, , 
78.51, 0.056362, , 
78.54, 0.056267, , 
78.57, 0.056194, , 
78.60, 0.056099, , 
78.63, 0.056004, , 
78.66, 0.055820, , 
78.69, 0.055677, , 
78.72, 0.055525, , 
78.75, 0.055388, , 
78.78, 0.055306, , 
78.81, 0.055138, , 
78.84, 0.055052, , 
78.87, 0.054928, , 
78.90, 0.054779, , 
78.94, 0.054719, , 
78.96, 0.054599, , 
78.99, 0.054500, , 
79.02, 0.054367, , 
79.05, 0.054199, , 
79.08, 0.054151, , 
79.11, 0.054135, , 
79.14, 0.054110, , 
79.17, 0.054028, , 
79.20, 0.053907, , 
79.23, 0.053840, , 
79.26, 0.053701, , 
79.29, 0.053653, , 
79.32, 0.053618, , 
79.35, 0.053533, , 
79.38, 0.053450, , 
79.41, 0.053292, , 
79.44, 0.053212, , 
79.47, 0.053117, , 
79.50, 0.052962, , 
79.53, 0.052876, , 
79.56, 0.052702, , 
79.59, 0.052546, , 
79.62, 0.052419, , 
79.65, 0.052293, , 
79.68, 0.052242, , 
79.71, 0.052064, , 
79.74, 0.051940, , 
79.77, 0.051823, , 
79.80, 0.051661, , 
79.83, 0.051582, , 
79.86, 0.051363, , 
79.89, 0.051230, , 
79.92, 0.051128, , 
79.96, 0.050976, , 
79.98, 0.050916, 25, 0.584
79.99, 0.050897, , 
80.01, 0.050757, , 
80.04, 0.050672, , 
80.07, 0.050649, , 
80.10, 0.050542, , 
80.13, 0.050405, , 
80.16, 0.050313, , 
80.19, 0.050212, , 
80.22, 0.050186, , 
80.25, 0.050018, , 
80.28, 0.049936, , 
80.31, 0.049863, , 
80.34, 0.049720, , 
80.37, 0.049660, , 
80.40, 0.049641, , 
80.43, 0.049644, , 
80.46, 0.049638, , 
80.49, 0.049603, , 
80.52, 0.049504, , 
80.55, 0.049390, , 
80.58, 0.049305, , 
80.61, 0.049235, , 
80.64, 0.049178, , 
80.67, 0.049124, , 
80.70, 0.048956, , 
80.73, 0.048851, , 
80.76, 0.048788, , 
80.79, 0.048724, , 
80.82, 0.048670, , 
80.85, 0.048594, , 
80.88, 0.048505, , 
80.91, 0.048397, , 
80.94, 0.048242, , 
80.97, 0.048172, , 
81.00, 0.048153, , 
81.03, 0.048125, , 
81.06, 0.048014, , 
81.09, 0.047836, , 
81.12, 0.047744, , 
81.15, 0.047703, , 
81.18, 0.047665, , 
81.21, 0.047579, , 
81.24, 0.047398, , 
81.27, 0.047290, , 
81.30, 0.047230, , 
81.33, 0.047183, , 
81.36, 0.047106, , 
81.39, 0.046989, , 
81.42, 0.046859, , 
81.45, 0.046748, , 
81.48, 0.046700, , 
81.51, 0.046596, , 
81.54, 0.046409, , 
81.57, 0.046282, , 
81.60, 0.046215, , 
81.63, 0.046152, , 
81.66, 0.046022, , 
81.69, 0.045844, , 
81.72, 0.045762, , 
81.75, 0.045736, , 
81.78, 0.045689, , 
81.81, 0.045606, , 
81.84, 0.045432, , 
81.87, 0.045378, , 
81.90, 0.045324, , 
81.93, 0.045276, , 
81.96, 0.045251, , 
82.00, 0.045200, , 
82.02, 0.045095, , 
82.05, 0.044984, , 
82.08, 0.044905, , 
82.11, 0.044867, , 
82.14, 0.044819, , 
82.17, 0.044654, , 
82.20, 0.044505, , 
82.23, 0.044423, , 
82.26, 0.044347, , 
82.29, 0.044255, , 
82.32, 0.044023, , 
82.35, 0.043890, , 
82.38, 0.043842, , 
82.41, 0.043750, , 
82.44, 0.043630, , 
82.47, 0.043408, , 
82.50, 0.043313, , 
82.53, 0.043218, , 
82.56, 0.043037, , 
82.59, 0.042951, , 
82.62, 0.042815, , 
82.65, 0.042675, , 
82.68, 0.042539, , 
82.71, 0.042374, , 
82.74, 0.042288, , 
82.77, 0.042142, , 
82.80, 0.042107, , 
82.83, 0.042057, , 
82.86, 0.041898, , 
82.89, 0.041806, , 
82.92, 0.041701, , 
82.95, 0.041651, , 
82.98, 0.041590, , 
83.01, 0.041467, , 
83.04, 0.041410, , 
83.07, 0.041283, , 
83.10, 0.041188, , 
83.13, 0.041140, , 
83.16, 0.041083, , 
83.18, 0.041007, 26, 0.585
83.20, 0.040972, , 
83.23, 0.040861, , 
83.25, 0.040763, , 
83.28, 0.040686, , 
83.31, 0.040648, , 
83.34, 0.040636, , 
83.37, 0.040575, , 
83.40, 0.040376, , 
83.43, 0.040299, , 
83.46, 0.040211, , 
83.49, 0.040049, , 
83.52, 0.039947, , 
83.55, 0.039767, , 
83.58, 0.039678, , 
83.61, 0.039554, , 
83.64, 0.039440, , 
83.67, 0.039357, , 
83.70, 0.039218, , 
83.73, 0.039129, , 
83.76, 0.038993, , 
83.79, 0.038853, , 
83.82, 0.038755, , 
83.85, 0.038606, , 
83.88, 0.038529, , 
83.91, 0.038526, , 
83.94, 0.038460, , 
83.97, 0.038380, , 
84.00, 0.038196, , 
84.03, 0.038079, , 
84.06, 0.038019, , 
84.09, 0.037990, , 
84.12, 0.037984, , 
84.15, 0.037965, , 
84.18, 0.037901, , 
84.21, 0.037756, , 
84.25, 0.037600, , 
84.27, 0.037511, , 
84.30, 0.037461, , 
84.33, 0.037422, , 
84.36, 0.037273, , 
84.39, 0.037153, , 
84.42, 0.037061, , 
84.45, 0.036982, , 
84.48, 0.036944, , 
84.51, 0.036880, , 
84.54, 0.036744, , 
84.57, 0.036601, , 
84.60, 0.036541, , 
84.63, 0.036446, , 
84.66, 0.036331, , 
84.69, 0.036154, , 
84.72, 0.036065, , 
84.75, 0.036020, , 
84.78, 0.035992, , 
84.81, 0.035982, , 
84.84, 0.035922, , 
84.87, 0.035884, , 
84.90, 0.035783, , 
84.93, 0.035678, , 
84.96, 0.035589, , 
84.99, 0.035519, , 
85.02, 0.035507, , 
85.05, 0.035475, , 
85.08, 0.035469, , 
85.11, 0.035475, , 
85.14, 0.035361, , 
85.17, 0.035208, , 
85.20, 0.035139, , 
85.23, 0.035110, , 
85.26, 0.035044, , 
85.29, 0.034971, , 
85.32, 0.034894, , 
85.35, 0.034799, , 
85.38, 0.034653, , 
85.41, 0.034555, , 
85.44, 0.034482, , 
85.47, 0.034476, , 
85.50, 0.034469, , 
85.53, 0.034447, , 
85.56, 0.034368, , 
85.59, 0.034203, , 
85.62, 0.034070, , 
85.65, 0.033981, , 
85.68, 0.033937, , 
85.71, 0.033908, , 
85.74, 0.033908, , 
85.77, 0.033876, , 
85.80, 0.033845, , 
85.83, 0.033838, , 
85.86, 0.033816, , 
85.89, 0.033841, , 
85.92, 0.033822, , 
85.95, 0.033810, , 
85.98, 0.033835, , 
86.01, 0.033841, , 
86.04, 0.033835, , 
86.07, 0.033819, , 
86.10, 0.033813, , 
86.13, 0.033800, , 
86.16, 0.033826, , 
86.19, 0.033832, , 
86.22, 0.033841, , 
86.25, 0.033832, , 
86.28, 0.033838, , 
86.31, 0.033794, , 
86.34, 0.033664, , 
86.37, 0.033518, , 
86.39, 0.033464, 27, 0.587
86.40, 0.033426, , 
86.43, 0.033407, , 
86.46, 0.033400, , 
86.49, 0.033340, , 
86.52, 0.033324, , 
86.55, 0.033350, , 
86.58, 0.033343, , 
86.61, 0.033328, , 
86.64, 0.033324, , 
86.67, 0.033347, , 
86.70, 0.033347, , 
86.73, 0.033340, , 
86.76, 0.033343, , 
86.79, 0.033388, , 
86.82, 0.033385, , 
86.85, 0.033362, , 
86.88, 0.033369, , 
86.91, 0.033381, , 
86.94, 0.033477, , 
86.97, 0.033594, , 
87.00, 0.033743, , 
87.03, 0.033800, , 
87.06, 0.033841, , 
87.09, 0.033879, , 
87.12, 0.033876, , 
87.15, 0.033927, , 
87.18, 0.033886, , 
87.21, 0.033819, , 
87.24, 0.033626, , 
87.27, 0.033527, , 
87.31, 0.033445, , 
87.33, 0.033388, , 
87.36, 0.033366, , 
87.39, 0.033388, , 
87.42, 0.033413, , 
87.45, 0.033369, , 
87.48, 0.033308, , 
87.51, 0.033258, , 
87.54, 0.033105, , 
87.57, 0.032991, , 
87.60, 0.032941, , 
87.63, 0.032902, , 
87.66, 0.032896, , 
87.69, 0.032849, , 
87.72, 0.032826, , 
87.75, 0.032868, , 
87.78, 0.032852, , 
87.81, 0.032849, , 
87.84, 0.032864, , 
87.87, 0.032883, , 
87.90, 0.032877, , 
87.93, 0.032871, , 
87.96, 0.032871, , 
87.99, 0.032868, , 
88.02, 0.032918, , 
88.05, 0.032852, , 
88.08, 0.032785, , 
88.11, 0.032731, , 
88.14, 0.032579, , 
88.17, 0.032471, , 
88.20, 0.032414, , 
88.23, 0.032414, , 
88.26, 0.032366, , 
88.29, 0.032357, , 
88.32, 0.032366, , 
88.35, 0.032366, , 
88.38, 0.032376, , 
88.41, 0.032382, , 
88.44, 0.032373, , 
88.47, 0.032357, , 
88.50, 0.032366, , 
88.54, 0.032347, , 
88.56, 0.032357, , 
88.59, 0.032347, , 
88.62, 0.032211, , 
88.65, 0.032081, , 
88.68, 0.032005, , 
88.71, 0.031945, , 
88.74, 0.031919, , 
88.77, 0.031872, , 
88.80, 0.031859, , 
88.83, 0.031875, , 
88.86, 0.031916, , 
88.89, 0.031998, , 
88.92, 0.032132, , 
88.95, 0.032243, , 
88.98, 0.032312, , 
89.01, 0.032297, , 
89.04, 0.032322, , 
89.07, 0.032338, , 
89.10, 0.032325, , 
89.13, 0.032344, , 
89.16, 0.032354, , 
89.19, 0.032338, , 
89.22, 0.032332, , 
89.25, 0.032347, , 
89.28, 0.032363, , 
89.31, 0.032351, , 
89.34, 0.032357, , 
89.37, 0.032360, , 
89.40, 0.032347, , 
89.43, 0.032357, , 
89.46, 0.032338, , 
89.49, 0.032322, , 
89.52, 0.032325, , 
89.56, 0.032322, , 
89.58, 0.032300, , 
89.61, 0.032293, , 
89.64, 0.032312, , 
89.67, 0.032347, , 
89.70, 0.032328, , 
89.73, 0.032316, , 
89.76, 0.032338, , 
89.79, 0.032347, , 
89.82, 0.032351, , 
89.85, 0.032344, , 
89.88, 0.032341, , 
89.91, 0.032332, , 
89.94, 0.032401, , 
89.97, 0.032427, , 
90.00, 0.032636, , 
90.03, 0.032741, , 
90.06, 0.032782, , 
90.09, 0.032807, , 
90.12, 0.032839, , 
90.15, 0.032845, , 
90.18, 0.032836, , 
90.21, 0.032845, , 
90.24, 0.032868, , 
90.27, 0.032864, , 
90.30, 0.032839, , 
90.33, 0.032874, , 
90.36, 0.032883, , 
90.39, 0.032883, , 
90.42, 0.032871, , 
90.45, 0.032833, , 
90.48, 0.032836, , 
90.51, 0.032855, , 
90.54, 0.032871, , 
90.58, 0.032874, , 
90.60, 0.032890, , 
90.63, 0.032899, , 
90.66, 0.032883, , 
90.69, 0.032880, , 
90.72, 0.032893, , 
90.75, 0.032922, , 
90.78, 0.032887, , 
90.81, 0.032874, , 
90.84, 0.032877, , 
90.87, 0.032864, , 
90.90, 0.032858, , 
90.93, 0.032874, , 
90.96, 0.032883, , 
90.99, 0.032880, , 
91.02, 0.032877, , 
91.05, 0.032880, , 
91.08, 0.032899, , 
91.11, 0.032912, , 
91.14, 0.032902, , 
91.17, 0.032972, , 
91.20, 0.033144, , 
91.23, 0.033236, , 
91.26, 0.033296, , 
91.29, 0.033356, , 
91.32, 0.033375, , 
91.35, 0.033397, , 
91.38, 0.033372, , 
91.41, 0.033394, , 
91.44, 0.033397, , 
91.47, 0.033388, , 
91.50, 0.033372, , 
91.53, 0.033391, , 
91.56, 0.033426, , 
91.60, 0.033394, , 
91.62, 0.033362, , 
91.65, 0.033375, , 
91.68, 0.033400, , 
91.71, 0.033366, , 
91.74, 0.033372, , 
91.77, 0.033366, , 
91.80, 0.033404, , 
91.83, 0.033524, , 
91.86, 0.033673, , 
91.89, 0.033772, , 
91.92, 0.033816, , 
91.95, 0.033873, , 
91.98, 0.033898, , 
92.01, 0.033883, , 
92.04, 0.033898, , 
92.07, 0.033898, , 
92.10, 0.033902, , 
92.13, 0.033908, , 
92.16, 0.033917, , 
92.19, 0.033889, , 
92.22, 0.033886, , 
92.25, 0.033911, , 
92.28, 0.033917, , 
92.31, 0.033911, , 
92.34, 0.033898, , 
92.37, 0.033898, , 
92.40, 0.033930, , 
92.43, 0.033933, , 
92.46, 0.033889, , 
92.49, 0.033902, , 
92.52, 0.033914, , 
92.55, 0.033911, , 
92.58, 0.033917, , 
92.61, 0.033924, , 
92.64, 0.033949, , 
92.67, 0.033952, , 
92.70, 0.033917, , 
92.73, 0.033914, , 
92.76, 0.033940, , 
92.79, 0.033911, , 
92.82, 0.033886, , 
92.85, 0.033911, , 
92.88, 0.033933, , 
92.91, 0.033930, , 
92.94, 0.033937, , 
92.97, 0.033937, , 
93.00, 0.033927, , 
93.03, 0.033921, , 
93.06, 0.033911, , 
93.09, 0.033959, , 
93.12, 0.034022, , 
93.15, 0.034111, , 
93.18, 0.034254, , 
93.21, 0.034352, , 
93.24, 0.034403, , 
93.27, 0.034412, , 
93.30, 0.034438, , 
93.33, 0.034473, , 
93.36, 0.034460, , 
93.39, 0.034463, , 
93.42, 0.034479, , 
93.45, 0.034501, , 
93.48, 0.034511, , 
93.51, 0.034469, , 
93.54, 0.034463, , 
93.57, 0.034460, , 
93.60, 0.034469, , 
93.63, 0.034488, , 
93.66, 0.034504, , 
93.69, 0.034501, , 
93.72, 0.034469, , 
93.75, 0.034469, , 
93.78, 0.034463, , 
93.81, 0.034485, , 
93.84, 0.034485, , 
93.87, 0.034469, , 
93.90, 0.034457, , 
93.93, 0.034466, , 
93.96, 0.034469, , 
93.99, 0.034454, , 
94.02, 0.034482, , 
94.05, 0.034530, , 
94.08, 0.034514, , 
94.11, 0.034488, , 
94.14, 0.034492, , 
94.17, 0.034479, , 
94.20, 0.034441, , 
94.23, 0.034438, , 
94.26, 0.034438, , 
94.29, 0.034454, , 
94.32, 0.034435, , 
94.35, 0.034431, , 
94.38, 0.034444, , 
94.41, 0.034447, , 
94.44, 0.034428, , 
94.47, 0.034457, , 
94.50, 0.034479, , 
94.53, 0.034476, , 
94.56, 0.034466, , 
94.59, 0.034444, , 
94.62, 0.034425, , 
94.65, 0.034409, , 
94.68, 0.034415, , 
94.71, 0.034447, , 
94.74, 0.034435, , 
94.77, 0.034425, , 
94.80, 0.034415, , 
94.83, 0.034422, , 
94.87, 0.034431, , 
94.89, 0.034460, , 
94.92, 0.034463, , 
94.95, 0.034447, , 
94.98, 0.034409, , 
95.01, 0.034346, , 
95.04, 0.034155, , 
95.07, 0.034057, , 
95.10, 0.034035, , 
95.13, 0.033975, , 
95.16, 0.033914, , 
95.19, 0.033892, , 
95.22, 0.033921, , 
95.25, 0.033927, , 
95.28, 0.033908, , 
95.31, 0.033914, , 
95.34, 0.033943, , 
95.37, 0.033930, , 
95.40, 0.033898, , 
95.43, 0.033879, , 
95.46, 0.033876, , 
95.49, 0.033873, , 
95.52, 0.033876, , 
95.55, 0.033873, , 
95.58, 0.033902, , 
95.61, 0.033886, , 
95.64, 0.033883, , 
95.67, 0.033889, , 
95.70, 0.033870, , 
95.73, 0.033832, , 
95.76, 0.033835, , 
95.79, 0.033832, , 
95.82, 0.033826, , 
95.85, 0.033857, , 
95.88, 0.033841, , 
95.91, 0.033832, , 
95.94, 0.033845, , 
95.97, 0.033813, , 
96.00, 0.033838, , 
