Gradient Profiler Text Data File: 20240906_yHG005_rep1_sample_2_30C.csv
Date: 2024-09-06
Time: 17:38:17

User: jared
Experiment name: 
UV Unit: EM-1
Rotor Manufacturer: Beckman
Rotor Model: SW28.1
Speed: 28 rpm
Gradient: sucrose 10.0% to 50.0% w/v
Time: 4
w2t:  x 10^0
Sample Volume: 18 ml
Number of Tubes: 6
Volume per mm: 0.183 ml/mm

Absorbance Units Full Scale (AUFS): 2.00
Event Mark-triggered gradient; (with distance; auto start and stop)
Delay: No Delay
UV Wavelength: 254 nm
Samples / sec: 10 Hz
EM1 Speed: 0.30 mm/sec
Distance: 3.20 mm
Number: 30
Dead Volume: 0.000000 ml; Distance due to Dead Volume: 0.00 mm
Total Distance: 96.00 mm

Data Columns:
Distance(mm), Absorbance, Fraction Number, Fraction Volume(ml)
0.00, 0.060057, 0, 0.000
0.03, 0.060089, , 
0.06, 0.060108, , 
0.09, 0.060089, , 
0.12, 0.060099, , 
0.15, 0.060115, , 
0.18, 0.060083, , 
0.21, 0.060102, , 
0.24, 0.060127, , 
0.27, 0.060254, , 
0.30, 0.060403, , 
0.33, 0.060638, , 
0.36, 0.060946, , 
0.39, 0.061253, , 
0.42, 0.061469, , 
0.46, 0.061704, , 
0.48, 0.061967, , 
0.51, 0.062221, , 
0.54, 0.062950, , 
0.57, 0.065567, , 
0.60, 0.073459, , 
0.63, 0.095602, , 
0.66, 0.128447, , 
0.69, 0.171395, , 
0.72, 0.220770, , 
0.75, 0.273881, , 
0.78, 0.338420, , 
0.81, 0.394966, , 
0.84, 0.461761, , 
0.88, 0.519252, , 
0.90, 0.567354, , 
0.93, 0.635205, , 
0.96, 0.693737, , 
0.99, 0.762352, , 
1.02, 0.821227, , 
1.05, 0.880117, , 
1.09, 0.947742, , 
1.11, 0.993618, , 
1.14, 1.049812, , 
1.17, 1.085839, , 
1.20, 1.110082, , 
1.23, 1.127144, , 
1.26, 1.135718, , 
1.29, 1.141151, , 
1.32, 1.144732, , 
1.35, 1.147305, , 
1.38, 1.149772, , 
1.41, 1.151679, , 
1.44, 1.153360, , 
1.47, 1.154993, , 
1.50, 1.156227, , 
1.53, 1.157385, , 
1.56, 1.158575, , 
1.59, 1.159957, , 
1.62, 1.161883, , 
1.65, 1.163665, , 
1.68, 1.165870, , 
1.71, 1.167849, , 
1.74, 1.169565, , 
1.77, 1.172020, , 
1.80, 1.174180, , 
1.83, 1.176724, , 
1.86, 1.178773, , 
1.89, 1.180566, , 
1.92, 1.182218, , 
1.95, 1.183201, , 
1.98, 1.184426, , 
2.01, 1.185479, , 
2.04, 1.186519, , 
2.07, 1.187750, , 
2.10, 1.188870, , 
2.13, 1.190249, , 
2.16, 1.191198, , 
2.19, 1.192260, , 
2.22, 1.193304, , 
2.25, 1.194053, , 
2.28, 1.194801, , 
2.31, 1.195398, , 
2.34, 1.196073, , 
2.37, 1.196892, , 
2.40, 1.197818, , 
2.43, 1.199080, , 
2.46, 1.200349, , 
2.49, 1.201776, , 
2.52, 1.203445, , 
2.55, 1.205335, , 
2.58, 1.207714, , 
2.61, 1.209643, , 
2.64, 1.211406, , 
2.67, 1.212570, , 
2.70, 1.213665, , 
2.73, 1.214861, , 
2.76, 1.216263, , 
2.79, 1.218051, , 
2.82, 1.219387, , 
2.85, 1.220437, , 
2.88, 1.221300, , 
2.91, 1.222112, , 
2.94, 1.223120, , 
2.97, 1.224430, , 
3.00, 1.225778, , 
3.03, 1.226993, , 
3.06, 1.227618, , 
3.09, 1.227926, , 
3.12, 1.228075, , 
3.15, 1.228386, , 
3.18, 1.229093, , 
3.19, 1.229198, 1, 0.583
3.21, 1.229718, , 
3.24, 1.230102, , 
3.27, 1.230067, , 
3.30, 1.229927, , 
3.33, 1.229692, , 
3.36, 1.229613, , 
3.39, 1.229702, , 
3.42, 1.229746, , 
3.45, 1.229521, , 
3.48, 1.228950, , 
3.51, 1.228316, , 
3.54, 1.227650, , 
3.57, 1.227247, , 
3.60, 1.226720, , 
3.63, 1.225931, , 
3.66, 1.224928, , 
3.69, 1.223507, , 
3.72, 1.222216, , 
3.75, 1.220979, , 
3.78, 1.219739, , 
3.81, 1.218397, , 
3.84, 1.216570, , 
3.87, 1.214861, , 
3.90, 1.213097, , 
3.93, 1.210972, , 
3.96, 1.209053, , 
4.00, 1.206620, , 
4.02, 1.204761, , 
4.05, 1.202363, , 
4.08, 1.199305, , 
4.11, 1.196638, , 
4.14, 1.193996, , 
4.17, 1.190732, , 
4.20, 1.187794, , 
4.23, 1.184765, , 
4.26, 1.181628, , 
4.29, 1.178453, , 
4.32, 1.174653, , 
4.35, 1.171319, , 
4.38, 1.167243, , 
4.41, 1.163488, , 
4.44, 1.160218, , 
4.47, 1.155463, , 
4.50, 1.151273, , 
4.53, 1.146169, , 
4.56, 1.141722, , 
4.59, 1.137113, , 
4.62, 1.131581, , 
4.65, 1.127493, , 
4.68, 1.121691, , 
4.71, 1.116743, , 
4.74, 1.111697, , 
4.77, 1.105435, , 
4.80, 1.099808, , 
4.83, 1.093138, , 
4.86, 1.088342, , 
4.89, 1.082550, , 
4.92, 1.075882, , 
4.95, 1.070192, , 
4.98, 1.063436, , 
5.01, 1.057488, , 
5.04, 1.051509, , 
5.07, 1.045505, , 
5.10, 1.039478, , 
5.13, 1.032414, , 
5.16, 1.026257, , 
5.19, 1.020069, , 
5.22, 1.012751, , 
5.25, 1.006414, , 
5.28, 1.000178, , 
5.31, 0.993935, , 
5.34, 0.987614, , 
5.37, 0.979934, , 
5.40, 0.973064, , 
5.43, 0.964706, , 
5.46, 0.957414, , 
5.50, 0.950144, , 
5.52, 0.942937, , 
5.55, 0.935759, , 
5.58, 0.927179, , 
5.61, 0.919620, , 
5.64, 0.911941, , 
5.67, 0.902951, , 
5.70, 0.896557, , 
5.73, 0.887596, , 
5.76, 0.879895, , 
5.79, 0.872101, , 
5.82, 0.862731, , 
5.85, 0.854675, , 
5.88, 0.845514, , 
5.91, 0.839148, , 
5.94, 0.831592, , 
5.97, 0.822809, , 
6.00, 0.815175, , 
6.03, 0.806125, , 
6.06, 0.798398, , 
6.09, 0.790881, , 
6.12, 0.783595, , 
6.15, 0.776426, , 
6.18, 0.767941, , 
6.21, 0.760671, , 
6.24, 0.753496, , 
6.27, 0.745170, , 
6.30, 0.738036, , 
6.33, 0.730963, , 
6.36, 0.723820, , 
6.39, 0.717707, 2, 0.585
6.39, 0.716473, , 
6.42, 0.707814, , 
6.45, 0.700316, , 
6.48, 0.692811, , 
6.51, 0.684034, , 
6.55, 0.676577, , 
6.57, 0.669221, , 
6.60, 0.661897, , 
6.63, 0.654478, , 
6.66, 0.646938, , 
6.69, 0.638016, , 
6.72, 0.630314, , 
6.75, 0.621331, , 
6.78, 0.613611, , 
6.81, 0.606004, , 
6.84, 0.598531, , 
6.87, 0.591211, , 
6.90, 0.582945, , 
6.93, 0.576176, , 
6.96, 0.569572, , 
6.99, 0.562038, , 
7.02, 0.555758, , 
7.05, 0.549617, , 
7.08, 0.543492, , 
7.11, 0.537418, , 
7.14, 0.530585, , 
7.17, 0.525126, , 
7.20, 0.519141, , 
7.23, 0.514028, , 
7.26, 0.509565, , 
7.29, 0.503066, , 
7.32, 0.497302, , 
7.35, 0.490492, , 
7.38, 0.484779, , 
7.41, 0.479105, , 
7.44, 0.472504, , 
7.47, 0.467759, , 
7.50, 0.461142, , 
7.53, 0.455528, , 
7.56, 0.450028, , 
7.59, 0.443833, , 
7.62, 0.438536, , 
7.65, 0.432078, , 
7.68, 0.427196, , 
7.71, 0.421166, , 
7.74, 0.414267, , 
7.77, 0.408840, , 
7.80, 0.403017, , 
7.83, 0.398278, , 
7.86, 0.393732, , 
7.89, 0.389295, , 
7.92, 0.384759, , 
7.95, 0.380236, , 
7.98, 0.375097, , 
8.01, 0.370913, , 
8.04, 0.366136, , 
8.07, 0.362038, , 
8.10, 0.358029, , 
8.13, 0.353452, , 
8.16, 0.350264, , 
8.19, 0.345953, , 
8.22, 0.342207, , 
8.25, 0.338300, , 
8.28, 0.333437, , 
8.31, 0.329025, , 
8.35, 0.323921, , 
8.37, 0.320311, , 
8.40, 0.315960, , 
8.43, 0.311021, , 
8.46, 0.306764, , 
8.49, 0.301756, , 
8.52, 0.297547, , 
8.55, 0.293537, , 
8.58, 0.289645, , 
8.61, 0.285639, , 
8.64, 0.280640, , 
8.67, 0.276161, , 
8.70, 0.271660, , 
8.73, 0.266706, , 
8.77, 0.262817, , 
8.79, 0.259245, , 
8.82, 0.255934, , 
8.85, 0.252568, , 
8.88, 0.249092, , 
8.91, 0.245095, , 
8.94, 0.241825, , 
8.97, 0.238647, , 
9.00, 0.235148, , 
9.03, 0.232284, , 
9.06, 0.228842, , 
9.09, 0.226359, , 
9.12, 0.223066, , 
9.15, 0.220465, , 
9.18, 0.217899, , 
9.21, 0.214765, , 
9.24, 0.211904, , 
9.28, 0.208510, , 
9.30, 0.206125, , 
9.33, 0.203264, , 
9.36, 0.199889, , 
9.39, 0.197171, , 
9.42, 0.194097, , 
9.45, 0.191385, , 
9.48, 0.189139, , 
9.51, 0.186021, , 
9.54, 0.183360, , 
9.57, 0.180134, , 
9.58, 0.179192, 3, 0.585
9.60, 0.177298, , 
9.63, 0.174529, , 
9.66, 0.171313, , 
9.69, 0.169308, , 
9.72, 0.166013, , 
9.75, 0.163742, , 
9.78, 0.161737, , 
9.81, 0.159475, , 
9.84, 0.157531, , 
9.87, 0.155434, , 
9.90, 0.153988, , 
9.93, 0.152189, , 
9.96, 0.150134, , 
9.99, 0.148428, , 
10.02, 0.146483, , 
10.05, 0.145011, , 
10.08, 0.143695, , 
10.11, 0.142385, , 
10.14, 0.140935, , 
10.17, 0.139343, , 
10.20, 0.137475, , 
10.23, 0.135905, , 
10.26, 0.134144, , 
10.29, 0.132590, , 
10.32, 0.131001, , 
10.35, 0.129478, , 
10.38, 0.127899, , 
10.41, 0.126072, , 
10.44, 0.124686, , 
10.47, 0.123344, , 
10.50, 0.121647, , 
10.53, 0.120089, , 
10.56, 0.118456, , 
10.59, 0.116826, , 
10.62, 0.115148, , 
10.65, 0.113609, , 
10.68, 0.112128, , 
10.71, 0.111049, , 
10.74, 0.109768, , 
10.77, 0.108645, , 
10.80, 0.107522, , 
10.84, 0.106253, , 
10.86, 0.105384, , 
10.89, 0.104325, , 
10.92, 0.103434, , 
10.95, 0.102542, , 
10.98, 0.101492, , 
11.01, 0.100636, , 
11.04, 0.099919, , 
11.07, 0.099136, , 
11.10, 0.098286, , 
11.13, 0.097305, , 
11.16, 0.096446, , 
11.19, 0.095459, , 
11.22, 0.094305, , 
11.25, 0.093353, , 
11.28, 0.092465, , 
11.31, 0.091590, , 
11.34, 0.090682, , 
11.37, 0.089658, , 
11.40, 0.088913, , 
11.43, 0.088012, , 
11.46, 0.087209, , 
11.49, 0.086515, , 
11.52, 0.085500, , 
11.55, 0.084532, , 
11.58, 0.083422, , 
11.61, 0.082664, , 
11.64, 0.082029, , 
11.67, 0.081217, , 
11.70, 0.080665, , 
11.73, 0.079901, , 
11.76, 0.079263, , 
11.79, 0.078661, , 
11.82, 0.077938, , 
11.85, 0.077395, , 
11.88, 0.076850, , 
11.91, 0.076374, , 
11.94, 0.075860, , 
11.97, 0.075289, , 
12.00, 0.074845, , 
12.03, 0.074255, , 
12.06, 0.073744, , 
12.09, 0.073249, , 
12.12, 0.072739, , 
12.15, 0.072152, , 
12.18, 0.071543, , 
12.21, 0.071096, , 
12.24, 0.070661, , 
12.27, 0.070097, , 
12.30, 0.069614, , 
12.33, 0.069056, , 
12.36, 0.068517, , 
12.39, 0.067908, , 
12.42, 0.067197, , 
12.45, 0.066674, , 
12.48, 0.065929, , 
12.51, 0.065269, , 
12.54, 0.064711, , 
12.57, 0.063991, , 
12.60, 0.063404, , 
12.63, 0.062738, , 
12.66, 0.062252, , 
12.69, 0.061821, , 
12.72, 0.061367, , 
12.75, 0.060825, , 
12.78, 0.060387, , 
12.79, 0.060324, 4, 0.586
12.81, 0.059940, , 
12.84, 0.059594, , 
12.87, 0.059042, , 
12.90, 0.058706, , 
12.93, 0.058430, , 
12.96, 0.058021, , 
12.99, 0.057593, , 
13.02, 0.057228, , 
13.05, 0.056790, , 
13.08, 0.056327, , 
13.11, 0.055867, , 
13.14, 0.055566, , 
13.17, 0.055195, , 
13.20, 0.054833, , 
13.23, 0.054491, , 
13.26, 0.054066, , 
13.29, 0.053739, , 
13.32, 0.053311, , 
13.35, 0.053006, , 
13.38, 0.052651, , 
13.41, 0.052207, , 
13.44, 0.051861, , 
13.47, 0.051363, , 
13.50, 0.051071, , 
13.53, 0.050811, , 
13.56, 0.050504, , 
13.59, 0.050256, , 
13.62, 0.050006, , 
13.65, 0.049834, , 
13.68, 0.049558, , 
13.71, 0.049254, , 
13.74, 0.049051, , 
13.77, 0.048715, , 
13.80, 0.048442, , 
13.83, 0.048280, , 
13.86, 0.048121, , 
13.89, 0.047922, , 
13.92, 0.047627, , 
13.95, 0.047433, , 
13.98, 0.047230, , 
14.01, 0.046891, , 
14.04, 0.046561, , 
14.07, 0.046317, , 
14.10, 0.046063, , 
14.13, 0.045882, , 
14.16, 0.045663, , 
14.19, 0.045460, , 
14.22, 0.045187, , 
14.25, 0.044896, , 
14.28, 0.044727, , 
14.31, 0.044566, , 
14.34, 0.044420, , 
14.37, 0.044150, , 
14.40, 0.043852, , 
14.43, 0.043624, , 
14.46, 0.043240, , 
14.49, 0.043021, , 
14.52, 0.042799, , 
14.55, 0.042640, , 
14.58, 0.042520, , 
14.61, 0.042260, , 
14.64, 0.042063, , 
14.67, 0.041882, , 
14.70, 0.041752, , 
14.73, 0.041597, , 
14.76, 0.041397, , 
14.79, 0.041172, , 
14.82, 0.040947, , 
14.85, 0.040696, , 
14.88, 0.040464, , 
14.91, 0.040328, , 
14.95, 0.040163, , 
14.97, 0.039951, , 
15.00, 0.039744, , 
15.03, 0.039579, , 
15.06, 0.039367, , 
15.09, 0.039081, , 
15.12, 0.038866, , 
15.15, 0.038637, , 
15.18, 0.038418, , 
15.21, 0.038219, , 
15.24, 0.038035, , 
15.27, 0.037879, , 
15.30, 0.037667, , 
15.33, 0.037429, , 
15.36, 0.037273, , 
15.39, 0.037067, , 
15.42, 0.036909, , 
15.45, 0.036750, , 
15.48, 0.036645, , 
15.51, 0.036569, , 
15.54, 0.036401, , 
15.58, 0.036271, , 
15.60, 0.036185, , 
15.63, 0.036090, , 
15.66, 0.036001, , 
15.69, 0.035960, , 
15.72, 0.035967, , 
15.75, 0.035944, , 
15.78, 0.035925, , 
15.81, 0.035932, , 
15.84, 0.035865, , 
15.87, 0.035779, , 
15.90, 0.035602, , 
15.93, 0.035500, , 
15.96, 0.035469, , 
15.99, 0.035475, 5, 0.586
15.99, 0.035478, , 
16.02, 0.035450, , 
16.05, 0.035459, , 
16.08, 0.035478, , 
16.11, 0.035383, , 
16.14, 0.035215, , 
16.17, 0.035120, , 
16.20, 0.035047, , 
16.23, 0.035009, , 
16.26, 0.034936, , 
16.29, 0.034894, , 
16.32, 0.034898, , 
16.35, 0.034898, , 
16.38, 0.034828, , 
16.41, 0.034888, , 
16.44, 0.035005, , 
16.47, 0.035123, , 
16.50, 0.035189, , 
16.53, 0.035285, , 
16.56, 0.035392, , 
16.59, 0.035354, , 
16.62, 0.035335, , 
16.65, 0.035339, , 
16.68, 0.035427, , 
16.71, 0.035535, , 
16.74, 0.035624, , 
16.77, 0.035754, , 
16.80, 0.035837, , 
16.83, 0.035837, , 
16.86, 0.035827, , 
16.89, 0.035852, , 
16.92, 0.035951, , 
16.95, 0.036033, , 
16.98, 0.036138, , 
17.01, 0.036296, , 
17.04, 0.036328, , 
17.07, 0.036303, , 
17.10, 0.036338, , 
17.13, 0.036496, , 
17.16, 0.036649, , 
17.19, 0.036737, , 
17.22, 0.036829, , 
17.25, 0.036899, , 
17.28, 0.036928, , 
17.31, 0.036950, , 
17.34, 0.037067, , 
17.37, 0.037216, , 
17.40, 0.037324, , 
17.43, 0.037343, , 
17.46, 0.037359, , 
17.49, 0.037407, , 
17.52, 0.037403, , 
17.55, 0.037388, , 
17.58, 0.037495, , 
17.61, 0.037657, , 
17.64, 0.037768, , 
17.67, 0.037825, , 
17.70, 0.037895, , 
17.73, 0.037889, , 
17.76, 0.037901, , 
17.79, 0.037898, , 
17.82, 0.037920, , 
17.85, 0.037924, , 
17.88, 0.037940, , 
17.91, 0.037920, , 
17.94, 0.037908, , 
17.97, 0.037876, , 
18.00, 0.037740, , 
18.03, 0.037594, , 
18.06, 0.037505, , 
18.09, 0.037470, , 
18.12, 0.037426, , 
18.15, 0.037321, , 
18.18, 0.037159, , 
18.21, 0.037048, , 
18.24, 0.036937, , 
18.27, 0.036855, , 
18.30, 0.036725, , 
18.33, 0.036576, , 
18.36, 0.036385, , 
18.39, 0.036249, , 
18.42, 0.036093, , 
18.45, 0.035938, , 
18.48, 0.035805, , 
18.51, 0.035634, , 
18.54, 0.035383, , 
18.57, 0.035170, , 
18.60, 0.034983, , 
18.63, 0.034879, , 
18.66, 0.034710, , 
18.69, 0.034492, , 
18.72, 0.034279, , 
18.75, 0.034044, , 
18.78, 0.033822, , 
18.81, 0.033537, , 
18.85, 0.033274, , 
18.87, 0.033105, , 
18.90, 0.032852, , 
18.93, 0.032623, , 
18.96, 0.032363, , 
18.99, 0.032173, , 
19.02, 0.031948, , 
19.05, 0.031643, , 
19.08, 0.031507, , 
19.11, 0.031393, , 
19.14, 0.031183, , 
19.17, 0.030990, , 
19.18, 0.030895, 6, 0.585
19.20, 0.030746, , 
19.23, 0.030622, , 
19.26, 0.030371, , 
19.29, 0.030149, , 
19.32, 0.030000, , 
19.35, 0.029842, , 
19.38, 0.029664, , 
19.41, 0.029375, , 
19.44, 0.029169, , 
19.47, 0.029017, , 
19.50, 0.028776, , 
19.53, 0.028576, , 
19.56, 0.028440, , 
19.59, 0.028268, , 
19.62, 0.028049, , 
19.65, 0.027862, , 
19.68, 0.027653, , 
19.71, 0.027466, , 
19.74, 0.027218, , 
19.77, 0.027053, , 
19.80, 0.026895, , 
19.83, 0.026739, , 
19.86, 0.026549, , 
19.89, 0.026454, , 
19.92, 0.026356, , 
19.95, 0.026153, , 
19.98, 0.026042, , 
20.01, 0.025940, , 
20.04, 0.025826, , 
20.07, 0.025680, , 
20.10, 0.025569, , 
20.13, 0.025493, , 
20.16, 0.025452, , 
20.19, 0.025372, , 
20.22, 0.025242, , 
20.25, 0.025093, , 
20.28, 0.025033, , 
20.31, 0.024947, , 
20.34, 0.024887, , 
20.37, 0.024839, , 
20.40, 0.024690, , 
20.43, 0.024576, , 
20.46, 0.024443, , 
20.49, 0.024414, , 
20.52, 0.024424, , 
20.55, 0.024430, , 
20.58, 0.024376, , 
20.61, 0.024262, , 
20.64, 0.024126, , 
20.67, 0.024024, , 
20.70, 0.023935, , 
20.73, 0.023951, , 
20.76, 0.023961, , 
20.79, 0.023907, , 
20.82, 0.023853, , 
20.85, 0.023732, , 
20.88, 0.023593, , 
20.91, 0.023469, , 
20.94, 0.023450, , 
20.97, 0.023431, , 
21.00, 0.023409, , 
21.03, 0.023371, , 
21.06, 0.023323, , 
21.09, 0.023180, , 
21.12, 0.023082, , 
21.15, 0.022936, , 
21.18, 0.022908, , 
21.21, 0.022952, , 
21.24, 0.022924, , 
21.27, 0.022879, , 
21.30, 0.022898, , 
21.33, 0.022860, , 
21.36, 0.022743, , 
21.39, 0.022594, , 
21.42, 0.022502, , 
21.45, 0.022470, , 
21.48, 0.022400, , 
21.51, 0.022353, , 
21.54, 0.022378, , 
21.57, 0.022375, , 
21.60, 0.022273, , 
21.63, 0.022169, , 
21.66, 0.022083, , 
21.69, 0.021972, , 
21.72, 0.021883, , 
21.75, 0.021877, , 
21.78, 0.021902, , 
21.81, 0.021890, , 
21.84, 0.021829, , 
21.87, 0.021813, , 
21.90, 0.021823, , 
21.93, 0.021855, , 
21.96, 0.021823, , 
21.99, 0.021810, , 
22.02, 0.021851, , 
22.05, 0.021870, , 
22.08, 0.021807, , 
22.11, 0.021747, , 
22.14, 0.021642, , 
22.17, 0.021509, , 
22.20, 0.021404, , 
22.23, 0.021392, , 
22.26, 0.021404, , 
22.29, 0.021347, , 
22.32, 0.021312, , 
22.35, 0.021319, , 
22.38, 0.021315, , 
22.39, 0.021325, 7, 0.587
22.41, 0.021360, , 
22.44, 0.021328, , 
22.47, 0.021395, , 
22.50, 0.021464, , 
22.53, 0.021461, , 
22.56, 0.021401, , 
22.59, 0.021382, , 
22.62, 0.021398, , 
22.65, 0.021334, , 
22.68, 0.021293, , 
22.71, 0.021350, , 
22.74, 0.021376, , 
22.77, 0.021360, , 
22.80, 0.021347, , 
22.83, 0.021369, , 
22.86, 0.021347, , 
22.89, 0.021303, , 
22.92, 0.021331, , 
22.95, 0.021363, , 
22.98, 0.021363, , 
23.01, 0.021334, , 
23.04, 0.021328, , 
23.07, 0.021341, , 
23.10, 0.021334, , 
23.13, 0.021468, , 
23.16, 0.021601, , 
23.19, 0.021734, , 
23.22, 0.021788, , 
23.25, 0.021794, , 
23.28, 0.021826, , 
23.31, 0.021890, , 
23.34, 0.021874, , 
23.37, 0.021880, , 
23.40, 0.021890, , 
23.43, 0.021912, , 
23.46, 0.021890, , 
23.49, 0.021807, , 
23.52, 0.021883, , 
23.55, 0.021921, , 
23.58, 0.021810, , 
23.61, 0.021839, , 
23.64, 0.021940, , 
23.67, 0.022054, , 
23.70, 0.022175, , 
23.73, 0.022321, , 
23.76, 0.022368, , 
23.79, 0.022381, , 
23.82, 0.022368, , 
23.85, 0.022426, , 
23.88, 0.022670, , 
23.91, 0.022784, , 
23.94, 0.022847, , 
23.97, 0.023073, , 
24.00, 0.023282, , 
24.03, 0.023517, , 
24.06, 0.023691, , 
24.09, 0.023916, , 
24.12, 0.024157, , 
24.15, 0.024440, , 
24.18, 0.024747, , 
24.21, 0.025049, , 
24.25, 0.025353, , 
24.27, 0.025629, , 
24.30, 0.025981, , 
24.33, 0.026330, , 
24.36, 0.026860, , 
24.39, 0.027279, , 
24.42, 0.027726, , 
24.45, 0.028176, , 
24.48, 0.028703, , 
24.51, 0.029090, , 
24.54, 0.029578, , 
24.57, 0.030003, , 
24.60, 0.030549, , 
24.63, 0.031177, , 
24.66, 0.031723, , 
24.69, 0.032347, , 
24.72, 0.033074, , 
24.75, 0.033740, , 
24.78, 0.034492, , 
24.81, 0.035025, , 
24.84, 0.035640, , 
24.87, 0.036319, , 
24.90, 0.036909, , 
24.93, 0.037708, , 
24.96, 0.038323, , 
24.99, 0.038948, , 
25.02, 0.039668, , 
25.05, 0.040318, , 
25.08, 0.041000, , 
25.11, 0.041616, , 
25.14, 0.042206, , 
25.17, 0.042970, , 
25.20, 0.043551, , 
25.23, 0.044071, , 
25.26, 0.044620, , 
25.29, 0.045187, , 
25.32, 0.045727, , 
25.35, 0.046161, , 
25.38, 0.046704, , 
25.41, 0.047170, , 
25.44, 0.047544, , 
25.47, 0.047985, , 
25.50, 0.048290, , 
25.53, 0.048699, , 
25.56, 0.049019, , 
25.59, 0.049270, 8, 0.585
25.60, 0.049308, , 
25.62, 0.049546, , 
25.65, 0.049803, , 
25.68, 0.049993, , 
25.71, 0.050145, , 
25.74, 0.050364, , 
25.77, 0.050478, , 
25.80, 0.050535, , 
25.83, 0.050548, , 
25.86, 0.050551, , 
25.89, 0.050573, , 
25.92, 0.050557, , 
25.95, 0.050557, , 
25.98, 0.050589, , 
26.01, 0.050599, , 
26.04, 0.050580, , 
26.07, 0.050557, , 
26.10, 0.050596, , 
26.13, 0.050557, , 
26.16, 0.050358, , 
26.19, 0.050237, , 
26.22, 0.050139, , 
26.25, 0.049996, , 
26.28, 0.049793, , 
26.31, 0.049688, , 
26.34, 0.049574, , 
26.37, 0.049368, , 
26.40, 0.049203, , 
26.43, 0.049038, , 
26.46, 0.048895, , 
26.49, 0.048702, , 
26.52, 0.048439, , 
26.55, 0.048280, , 
26.58, 0.048185, , 
26.61, 0.048033, , 
26.64, 0.047795, , 
26.67, 0.047576, , 
26.70, 0.047398, , 
26.73, 0.047221, , 
26.76, 0.047002, , 
26.79, 0.046856, , 
26.82, 0.046694, , 
26.85, 0.046437, , 
26.88, 0.046212, , 
26.91, 0.045984, , 
26.94, 0.045787, , 
26.97, 0.045606, , 
27.00, 0.045406, , 
27.03, 0.045270, , 
27.06, 0.045105, , 
27.09, 0.044835, , 
27.12, 0.044559, , 
27.15, 0.044398, , 
27.18, 0.044191, , 
27.21, 0.043925, , 
27.24, 0.043738, , 
27.27, 0.043617, , 
27.30, 0.043484, , 
27.33, 0.043268, , 
27.36, 0.043024, , 
27.39, 0.042808, , 
27.42, 0.042593, , 
27.45, 0.042301, , 
27.48, 0.042085, , 
27.51, 0.041904, , 
27.54, 0.041657, , 
27.57, 0.041410, , 
27.60, 0.041238, , 
27.63, 0.041089, , 
27.66, 0.040924, , 
27.69, 0.040718, , 
27.72, 0.040499, , 
27.75, 0.040325, , 
27.78, 0.040049, , 
27.81, 0.039808, , 
27.84, 0.039602, , 
27.87, 0.039383, , 
27.90, 0.039170, , 
27.93, 0.038853, , 
27.96, 0.038644, , 
27.99, 0.038428, , 
28.02, 0.038162, , 
28.05, 0.037876, , 
28.08, 0.037730, , 
28.11, 0.037622, , 
28.14, 0.037413, , 
28.17, 0.037219, , 
28.20, 0.037032, , 
28.23, 0.036833, , 
28.26, 0.036617, , 
28.29, 0.036499, , 
28.32, 0.036401, , 
28.36, 0.036293, , 
28.38, 0.036097, , 
28.41, 0.036001, , 
28.44, 0.035982, , 
28.47, 0.035833, , 
28.50, 0.035678, , 
28.53, 0.035583, , 
28.56, 0.035526, , 
28.59, 0.035399, , 
28.62, 0.035170, , 
28.65, 0.035044, , 
28.68, 0.034980, , 
28.71, 0.034936, , 
28.74, 0.034885, , 
28.77, 0.034879, , 
28.79, 0.034879, 9, 0.585
28.80, 0.034894, , 
28.83, 0.034869, , 
28.86, 0.034780, , 
28.89, 0.034691, , 
28.92, 0.034580, , 
28.95, 0.034479, , 
28.98, 0.034393, , 
29.01, 0.034390, , 
29.04, 0.034428, , 
29.07, 0.034514, , 
29.10, 0.034628, , 
29.13, 0.034723, , 
29.16, 0.034787, , 
29.20, 0.034793, , 
29.22, 0.034796, , 
29.25, 0.034841, , 
29.28, 0.034942, , 
29.31, 0.035047, , 
29.34, 0.035177, , 
29.37, 0.035294, , 
29.40, 0.035316, , 
29.43, 0.035354, , 
29.46, 0.035481, , 
29.49, 0.035643, , 
29.52, 0.035792, , 
29.55, 0.035846, , 
29.58, 0.035929, , 
29.61, 0.036106, , 
29.64, 0.036338, , 
29.67, 0.036512, , 
29.70, 0.036741, , 
29.73, 0.037077, , 
29.76, 0.037223, , 
29.79, 0.037413, , 
29.82, 0.037679, , 
29.85, 0.037974, , 
29.88, 0.038336, , 
29.91, 0.038672, , 
29.94, 0.039151, , 
29.97, 0.039557, , 
30.00, 0.040001, , 
30.03, 0.040525, , 
30.06, 0.041038, , 
30.09, 0.041708, , 
30.12, 0.042310, , 
30.15, 0.042986, , 
30.18, 0.043741, , 
30.21, 0.044591, , 
30.24, 0.045717, , 
30.27, 0.046799, , 
30.30, 0.048029, , 
30.33, 0.049536, , 
30.36, 0.050884, , 
30.39, 0.052362, , 
30.42, 0.054018, , 
30.45, 0.055845, , 
30.48, 0.058180, , 
30.51, 0.060390, , 
30.54, 0.063394, , 
30.57, 0.066141, , 
30.60, 0.068514, , 
30.63, 0.072095, , 
30.66, 0.075432, , 
30.69, 0.079650, , 
30.72, 0.083530, , 
30.75, 0.087720, , 
30.78, 0.092947, , 
30.81, 0.096858, , 
30.84, 0.102650, , 
30.87, 0.107877, , 
30.90, 0.113270, , 
30.93, 0.119871, , 
30.96, 0.125663, , 
30.99, 0.132723, , 
31.02, 0.137938, , 
31.05, 0.144310, , 
31.08, 0.151834, , 
31.11, 0.158352, , 
31.14, 0.164966, , 
31.17, 0.172769, , 
31.20, 0.179538, , 
31.23, 0.186335, , 
31.26, 0.193133, , 
31.29, 0.201021, , 
31.32, 0.207765, , 
31.35, 0.214401, , 
31.38, 0.220935, , 
31.41, 0.228389, , 
31.44, 0.234641, , 
31.47, 0.240728, , 
31.50, 0.247573, , 
31.53, 0.253146, , 
31.56, 0.258490, , 
31.59, 0.263654, , 
31.62, 0.268641, , 
31.65, 0.274062, , 
31.68, 0.278480, , 
31.71, 0.282537, , 
31.74, 0.286943, , 
31.77, 0.290378, , 
31.80, 0.293490, , 
31.83, 0.296798, , 
31.86, 0.298876, , 
31.89, 0.301353, , 
31.92, 0.303132, , 
31.95, 0.304610, , 
31.98, 0.305800, , 
31.99, 0.305958, 10, 0.585
32.01, 0.306745, , 
32.04, 0.307284, , 
32.07, 0.307706, , 
32.10, 0.307779, , 
32.13, 0.307567, , 
32.16, 0.307100, , 
32.19, 0.306463, , 
32.22, 0.305581, , 
32.25, 0.304258, , 
32.28, 0.302923, , 
32.31, 0.301438, , 
32.34, 0.299434, , 
32.37, 0.297486, , 
32.40, 0.295846, , 
32.43, 0.293264, , 
32.46, 0.290495, , 
32.49, 0.288053, , 
32.52, 0.285430, , 
32.55, 0.282775, , 
32.58, 0.280053, , 
32.61, 0.276697, , 
32.64, 0.273798, , 
32.67, 0.270858, , 
32.70, 0.267308, , 
32.73, 0.264159, , 
32.76, 0.260968, , 
32.79, 0.257311, , 
32.82, 0.254120, , 
32.85, 0.250805, , 
32.88, 0.248182, , 
32.91, 0.244242, , 
32.94, 0.240379, , 
32.97, 0.237058, , 
33.00, 0.233768, , 
33.03, 0.230156, , 
33.06, 0.226635, , 
33.09, 0.223361, , 
33.12, 0.220218, , 
33.15, 0.217106, , 
33.18, 0.214010, , 
33.21, 0.210436, , 
33.24, 0.207362, , 
33.27, 0.203765, , 
33.30, 0.200714, , 
33.33, 0.197631, , 
33.36, 0.194135, , 
33.39, 0.191661, , 
33.42, 0.188708, , 
33.45, 0.185368, , 
33.48, 0.182082, , 
33.51, 0.179217, , 
33.54, 0.176337, , 
33.57, 0.173495, , 
33.60, 0.170739, , 
33.63, 0.168024, , 
33.66, 0.164934, , 
33.69, 0.162229, , 
33.72, 0.159225, , 
33.75, 0.156722, , 
33.78, 0.154625, , 
33.81, 0.151733, , 
33.84, 0.149351, , 
33.87, 0.146566, , 
33.90, 0.144209, , 
33.93, 0.141900, , 
33.96, 0.139315, , 
33.99, 0.137503, , 
34.02, 0.134975, , 
34.05, 0.132917, , 
34.08, 0.130842, , 
34.11, 0.128384, , 
34.14, 0.126329, , 
34.17, 0.124314, , 
34.20, 0.121996, , 
34.23, 0.120007, , 
34.26, 0.118034, , 
34.29, 0.116150, , 
34.32, 0.114339, , 
34.35, 0.112198, , 
34.38, 0.110440, , 
34.41, 0.108559, , 
34.44, 0.106923, , 
34.47, 0.105527, , 
34.50, 0.103554, , 
34.53, 0.101933, , 
34.56, 0.100103, , 
34.59, 0.098558, , 
34.62, 0.097064, , 
34.65, 0.095421, , 
34.68, 0.094229, , 
34.71, 0.092506, , 
34.74, 0.091088, , 
34.77, 0.089782, , 
34.80, 0.088367, , 
34.83, 0.087133, , 
34.86, 0.085630, , 
34.89, 0.084865, , 
34.92, 0.083425, , 
34.95, 0.082191, , 
34.98, 0.080830, , 
35.01, 0.079819, , 
35.04, 0.078582, , 
35.07, 0.077516, , 
35.10, 0.076323, , 
35.13, 0.075521, , 
35.16, 0.074620, , 
35.18, 0.073839, 11, 0.585
35.19, 0.073535, , 
35.22, 0.072656, , 
35.25, 0.071838, , 
35.28, 0.070852, , 
35.31, 0.070017, , 
35.34, 0.069243, , 
35.37, 0.068485, , 
35.40, 0.067892, , 
35.43, 0.067032, , 
35.46, 0.066281, , 
35.49, 0.065580, , 
35.52, 0.064771, , 
35.55, 0.064079, , 
35.58, 0.063318, , 
35.61, 0.062814, , 
35.64, 0.062217, , 
35.67, 0.061564, , 
35.70, 0.061050, , 
35.73, 0.060406, , 
35.76, 0.059839, , 
35.79, 0.059344, , 
35.82, 0.058887, , 
35.85, 0.058354, , 
35.88, 0.057717, , 
35.91, 0.057146, , 
35.94, 0.056629, , 
35.97, 0.056051, , 
36.00, 0.055553, , 
36.03, 0.055103, , 
36.06, 0.054684, , 
36.09, 0.054307, , 
36.12, 0.053926, , 
36.15, 0.053596, , 
36.18, 0.053285, , 
36.21, 0.052810, , 
36.24, 0.052372, , 
36.27, 0.051982, , 
36.30, 0.051560, , 
36.33, 0.051094, , 
36.36, 0.050580, , 
36.39, 0.050132, , 
36.42, 0.049717, , 
36.45, 0.049400, , 
36.48, 0.049108, , 
36.51, 0.048673, , 
36.54, 0.048324, , 
36.57, 0.047836, , 
36.60, 0.047373, , 
36.63, 0.047056, , 
36.66, 0.046751, , 
36.69, 0.046453, , 
36.72, 0.046044, , 
36.75, 0.045774, , 
36.78, 0.045520, , 
36.81, 0.045216, , 
36.84, 0.044965, , 
36.87, 0.044740, , 
36.90, 0.044604, , 
36.93, 0.044382, , 
36.96, 0.044068, , 
36.99, 0.043862, , 
37.02, 0.043636, , 
37.05, 0.043398, , 
37.08, 0.043164, , 
37.11, 0.042938, , 
37.14, 0.042729, , 
37.17, 0.042437, , 
37.20, 0.042215, , 
37.23, 0.041993, , 
37.26, 0.041739, , 
37.29, 0.041590, , 
37.32, 0.041400, , 
37.35, 0.041140, , 
37.38, 0.040921, , 
37.41, 0.040569, , 
37.44, 0.040379, , 
37.47, 0.040192, , 
37.50, 0.039801, , 
37.53, 0.039459, , 
37.56, 0.039148, , 
37.59, 0.038939, , 
37.62, 0.038580, , 
37.66, 0.038231, , 
37.68, 0.037993, , 
37.71, 0.037781, , 
37.74, 0.037457, , 
37.77, 0.037235, , 
37.80, 0.036953, , 
37.83, 0.036801, , 
37.86, 0.036588, , 
37.89, 0.036287, , 
37.92, 0.036141, , 
37.95, 0.035935, , 
37.98, 0.035779, , 
38.01, 0.035611, , 
38.04, 0.035494, , 
38.07, 0.035408, , 
38.10, 0.035285, , 
38.13, 0.035148, , 
38.16, 0.035012, , 
38.19, 0.034847, , 
38.22, 0.034663, , 
38.25, 0.034492, , 
38.28, 0.034387, , 
38.31, 0.034298, , 
38.34, 0.034168, , 
38.37, 0.034003, , 
38.39, 0.033921, 12, 0.587
38.40, 0.033889, , 
38.43, 0.033762, , 
38.46, 0.033588, , 
38.49, 0.033505, , 
38.52, 0.033432, , 
38.55, 0.033296, , 
38.58, 0.033105, , 
38.61, 0.032947, , 
38.64, 0.032858, , 
38.67, 0.032757, , 
38.71, 0.032607, , 
38.73, 0.032455, , 
38.76, 0.032376, , 
38.79, 0.032293, , 
38.82, 0.032195, , 
38.85, 0.032100, , 
38.88, 0.032021, , 
38.92, 0.031938, , 
38.94, 0.031821, , 
38.97, 0.031805, , 
39.00, 0.031795, , 
39.03, 0.031729, , 
39.06, 0.031589, , 
39.09, 0.031481, , 
39.12, 0.031361, , 
39.15, 0.031272, , 
39.18, 0.031247, , 
39.21, 0.031285, , 
39.24, 0.031285, , 
39.27, 0.031158, , 
39.30, 0.031022, , 
39.33, 0.030955, , 
39.36, 0.030876, , 
39.39, 0.030828, , 
39.42, 0.030761, , 
39.45, 0.030660, , 
39.48, 0.030504, , 
39.51, 0.030333, , 
39.54, 0.030298, , 
39.57, 0.030333, , 
39.60, 0.030340, , 
39.63, 0.030276, , 
39.66, 0.030235, , 
39.69, 0.030118, , 
39.72, 0.029937, , 
39.75, 0.029876, , 
39.78, 0.029838, , 
39.81, 0.029807, , 
39.84, 0.029788, , 
39.87, 0.029737, , 
39.90, 0.029791, , 
39.93, 0.029800, , 
39.96, 0.029756, , 
39.99, 0.029778, , 
40.02, 0.029727, , 
40.05, 0.029639, , 
40.08, 0.029474, , 
40.11, 0.029344, , 
40.14, 0.029321, , 
40.17, 0.029261, , 
40.20, 0.029207, , 
40.24, 0.029233, , 
40.26, 0.029255, , 
40.29, 0.029271, , 
40.32, 0.029245, , 
40.35, 0.029233, , 
40.38, 0.029207, , 
40.41, 0.029185, , 
40.45, 0.029198, , 
40.47, 0.029229, , 
40.50, 0.029350, , 
40.53, 0.029537, , 
40.56, 0.029616, , 
40.59, 0.029680, , 
40.62, 0.029759, , 
40.65, 0.029813, , 
40.68, 0.029908, , 
40.71, 0.030060, , 
40.74, 0.030156, , 
40.77, 0.030210, , 
40.80, 0.030346, , 
40.83, 0.030568, , 
40.86, 0.030809, , 
40.89, 0.030942, , 
40.92, 0.031085, , 
40.95, 0.031266, , 
40.98, 0.031488, , 
41.01, 0.031783, , 
41.04, 0.032062, , 
41.07, 0.032306, , 
41.10, 0.032563, , 
41.13, 0.032823, , 
41.16, 0.033207, , 
41.19, 0.033626, , 
41.22, 0.034079, , 
41.25, 0.034406, , 
41.29, 0.034695, , 
41.31, 0.035012, , 
41.34, 0.035411, , 
41.37, 0.035871, , 
41.40, 0.036534, , 
41.43, 0.037121, , 
41.46, 0.037743, , 
41.49, 0.038114, , 
41.52, 0.038618, , 
41.55, 0.039319, , 
41.58, 0.039897, , 
41.59, 0.040096, 13, 0.585
41.61, 0.040642, , 
41.64, 0.041330, , 
41.67, 0.041974, , 
41.70, 0.042545, , 
41.73, 0.043132, , 
41.76, 0.043896, , 
41.79, 0.044591, , 
41.82, 0.045317, , 
41.85, 0.046126, , 
41.88, 0.046881, , 
41.91, 0.047658, , 
41.94, 0.048391, , 
41.97, 0.049073, , 
42.00, 0.049999, , 
42.03, 0.050799, , 
42.06, 0.051658, , 
42.09, 0.052385, , 
42.12, 0.053022, , 
42.15, 0.053977, , 
42.18, 0.054738, , 
42.21, 0.055604, , 
42.24, 0.056327, , 
42.27, 0.057066, , 
42.30, 0.057910, , 
42.33, 0.058497, , 
42.36, 0.059290, , 
42.39, 0.059962, , 
42.42, 0.060625, , 
42.45, 0.061333, , 
42.48, 0.061853, , 
42.51, 0.062468, , 
42.54, 0.062953, , 
42.57, 0.063518, , 
42.60, 0.064079, , 
42.63, 0.064447, , 
42.66, 0.064818, , 
42.69, 0.065250, , 
42.72, 0.065624, , 
42.75, 0.065878, , 
42.78, 0.066106, , 
42.81, 0.066366, , 
42.84, 0.066496, , 
42.87, 0.066560, , 
42.90, 0.066582, , 
42.93, 0.066642, , 
42.96, 0.066658, , 
42.99, 0.066623, , 
43.02, 0.066550, , 
43.05, 0.066404, , 
43.08, 0.066249, , 
43.11, 0.065970, , 
43.14, 0.065751, , 
43.17, 0.065513, , 
43.20, 0.065190, , 
43.23, 0.064926, , 
43.26, 0.064606, , 
43.29, 0.064314, , 
43.32, 0.063921, , 
43.35, 0.063413, , 
43.38, 0.063039, , 
43.41, 0.062620, , 
43.44, 0.062237, , 
43.47, 0.061910, , 
43.50, 0.061561, , 
43.53, 0.061177, , 
43.56, 0.060685, , 
43.59, 0.060327, , 
43.62, 0.059902, , 
43.65, 0.059467, , 
43.68, 0.058992, , 
43.71, 0.058544, , 
43.74, 0.058097, , 
43.77, 0.057678, , 
43.80, 0.057136, , 
43.83, 0.056781, , 
43.86, 0.056365, , 
43.89, 0.055845, , 
43.92, 0.055401, , 
43.95, 0.054894, , 
43.98, 0.054497, , 
44.01, 0.054047, , 
44.04, 0.053596, , 
44.07, 0.053177, , 
44.10, 0.052670, , 
44.13, 0.052223, , 
44.16, 0.051874, , 
44.19, 0.051506, , 
44.22, 0.051173, , 
44.25, 0.050786, , 
44.28, 0.050408, , 
44.31, 0.050113, , 
44.34, 0.049806, , 
44.37, 0.049450, , 
44.40, 0.049117, , 
44.43, 0.048816, , 
44.46, 0.048518, , 
44.49, 0.048198, , 
44.52, 0.047884, , 
44.55, 0.047598, , 
44.58, 0.047275, , 
44.61, 0.046983, , 
44.64, 0.046697, , 
44.67, 0.046431, , 
44.70, 0.046164, , 
44.73, 0.045781, , 
44.77, 0.045489, , 
44.79, 0.045330, 14, 0.585
44.79, 0.045302, , 
44.82, 0.045026, , 
44.85, 0.044785, , 
44.88, 0.044547, , 
44.91, 0.044360, , 
44.94, 0.044115, , 
44.98, 0.043785, , 
45.00, 0.043573, , 
45.03, 0.043360, , 
45.06, 0.043100, , 
45.09, 0.042856, , 
45.12, 0.042571, , 
45.15, 0.042406, , 
45.19, 0.042206, , 
45.21, 0.042047, , 
45.24, 0.041898, , 
45.27, 0.041698, , 
45.30, 0.041454, , 
45.33, 0.041264, , 
45.36, 0.041124, , 
45.40, 0.040931, , 
45.42, 0.040740, , 
45.45, 0.040493, , 
45.48, 0.040296, , 
45.51, 0.040163, , 
45.54, 0.039976, , 
45.57, 0.039773, , 
45.61, 0.039662, , 
45.63, 0.039506, , 
45.66, 0.039291, , 
45.69, 0.039180, , 
45.72, 0.039050, , 
45.75, 0.038955, , 
45.78, 0.038660, , 
45.82, 0.038507, , 
45.84, 0.038453, , 
45.87, 0.038231, , 
45.90, 0.038060, , 
45.93, 0.037974, , 
45.96, 0.037886, , 
45.99, 0.037743, , 
46.02, 0.037638, , 
46.05, 0.037492, , 
46.08, 0.037359, , 
46.11, 0.037197, , 
46.14, 0.037045, , 
46.17, 0.036931, , 
46.20, 0.036839, , 
46.23, 0.036680, , 
46.26, 0.036550, , 
46.29, 0.036506, , 
46.32, 0.036350, , 
46.35, 0.036211, , 
46.38, 0.036071, , 
46.41, 0.035998, , 
46.45, 0.035941, , 
46.47, 0.035887, , 
46.50, 0.035859, , 
46.53, 0.035773, , 
46.56, 0.035618, , 
46.59, 0.035503, , 
46.62, 0.035478, , 
46.65, 0.035475, , 
46.68, 0.035399, , 
46.71, 0.035199, , 
46.74, 0.035078, , 
46.77, 0.034999, , 
46.80, 0.034983, , 
46.83, 0.034904, , 
46.86, 0.034764, , 
46.89, 0.034679, , 
46.92, 0.034552, , 
46.95, 0.034482, , 
46.98, 0.034457, , 
47.01, 0.034441, , 
47.04, 0.034355, , 
47.07, 0.034232, , 
47.10, 0.034108, , 
47.13, 0.034051, , 
47.16, 0.033990, , 
47.19, 0.033927, , 
47.22, 0.033943, , 
47.25, 0.033962, , 
47.28, 0.033943, , 
47.31, 0.033822, , 
47.34, 0.033667, , 
47.37, 0.033572, , 
47.40, 0.033477, , 
47.43, 0.033423, , 
47.46, 0.033442, , 
47.49, 0.033407, , 
47.52, 0.033397, , 
47.55, 0.033324, , 
47.58, 0.033213, , 
47.61, 0.033093, , 
47.64, 0.032947, , 
47.67, 0.032871, , 
47.70, 0.032858, , 
47.73, 0.032855, , 
47.76, 0.032823, , 
47.79, 0.032798, , 
47.82, 0.032839, , 
47.85, 0.032845, , 
47.88, 0.032833, , 
47.91, 0.032833, , 
47.94, 0.032842, , 
47.97, 0.032817, , 
47.99, 0.032753, 15, 0.587
48.00, 0.032747, , 
48.03, 0.032757, , 
48.06, 0.032782, , 
48.09, 0.032798, , 
48.12, 0.032810, , 
48.15, 0.032804, , 
48.18, 0.032836, , 
48.21, 0.032788, , 
48.24, 0.032763, , 
48.27, 0.032757, , 
48.30, 0.032788, , 
48.33, 0.032782, , 
48.36, 0.032855, , 
48.39, 0.033010, , 
48.42, 0.033140, , 
48.45, 0.033185, , 
48.48, 0.033191, , 
48.51, 0.033242, , 
48.54, 0.033305, , 
48.57, 0.033423, , 
48.60, 0.033565, , 
48.63, 0.033734, , 
48.66, 0.033911, , 
48.69, 0.034048, , 
48.72, 0.034257, , 
48.75, 0.034466, , 
48.78, 0.034730, , 
48.81, 0.034945, , 
48.84, 0.035158, , 
48.87, 0.035561, , 
48.90, 0.035840, , 
48.93, 0.036055, , 
48.96, 0.036331, , 
48.99, 0.036734, , 
49.02, 0.037197, , 
49.05, 0.037578, , 
49.08, 0.038038, , 
49.11, 0.038701, , 
49.14, 0.039259, , 
49.17, 0.039865, , 
49.20, 0.040680, , 
49.23, 0.041254, , 
49.26, 0.042057, , 
49.29, 0.042767, , 
49.32, 0.043487, , 
49.35, 0.044391, , 
49.38, 0.045159, , 
49.42, 0.046107, , 
49.44, 0.046849, , 
49.47, 0.047747, , 
49.50, 0.048822, , 
49.53, 0.049809, , 
49.56, 0.051021, , 
49.59, 0.051975, , 
49.63, 0.052848, , 
49.65, 0.053742, , 
49.68, 0.054779, , 
49.71, 0.055807, , 
49.74, 0.056924, , 
49.77, 0.057866, , 
49.80, 0.058919, , 
49.83, 0.059781, , 
49.86, 0.060609, , 
49.89, 0.061472, , 
49.92, 0.062379, , 
49.95, 0.063397, , 
49.98, 0.064225, , 
50.01, 0.065006, , 
50.04, 0.065827, , 
50.07, 0.066455, , 
50.10, 0.066982, , 
50.13, 0.067502, , 
50.16, 0.068016, , 
50.19, 0.068511, , 
50.22, 0.068853, , 
50.25, 0.069250, , 
50.28, 0.069510, , 
50.31, 0.069646, , 
50.34, 0.069767, , 
50.37, 0.069973, , 
50.40, 0.070160, , 
50.43, 0.070147, , 
50.46, 0.070106, , 
50.49, 0.070036, , 
50.52, 0.069998, , 
50.55, 0.069821, , 
50.58, 0.069684, , 
50.61, 0.069541, , 
50.64, 0.069231, , 
50.67, 0.068910, , 
50.70, 0.068650, , 
50.73, 0.068434, , 
50.76, 0.068105, , 
50.79, 0.067651, , 
50.82, 0.067261, , 
50.85, 0.066757, , 
50.88, 0.066335, , 
50.91, 0.065878, , 
50.94, 0.065437, , 
50.97, 0.065041, , 
51.00, 0.064520, , 
51.03, 0.064076, , 
51.06, 0.063629, , 
51.09, 0.063163, , 
51.12, 0.062722, , 
51.15, 0.062259, , 
51.18, 0.061856, , 
51.19, 0.061792, 16, 0.585
51.21, 0.061437, , 
51.24, 0.060927, , 
51.27, 0.060492, , 
51.30, 0.060048, , 
51.33, 0.059613, , 
51.36, 0.059220, , 
51.39, 0.058674, , 
51.42, 0.058265, , 
51.45, 0.057745, , 
51.48, 0.057279, , 
51.51, 0.056832, , 
51.54, 0.056340, , 
51.57, 0.055915, , 
51.60, 0.055537, , 
51.63, 0.054998, , 
51.66, 0.054586, , 
51.69, 0.054189, , 
51.72, 0.053704, , 
51.75, 0.053380, , 
51.78, 0.053105, , 
51.81, 0.052686, , 
51.85, 0.052302, , 
51.87, 0.051988, , 
51.90, 0.051712, , 
51.93, 0.051312, , 
51.96, 0.050922, , 
51.99, 0.050608, , 
52.02, 0.050329, , 
52.05, 0.050069, , 
52.08, 0.049707, , 
52.11, 0.049400, , 
52.14, 0.049165, , 
52.17, 0.048854, , 
52.20, 0.048562, , 
52.23, 0.048251, , 
52.26, 0.048077, , 
52.29, 0.047795, , 
52.32, 0.047443, , 
52.35, 0.047221, , 
52.38, 0.047021, , 
52.41, 0.046726, , 
52.44, 0.046494, , 
52.47, 0.046310, , 
52.50, 0.046110, , 
52.53, 0.045876, , 
52.56, 0.045581, , 
52.59, 0.045419, , 
52.62, 0.045264, , 
52.65, 0.045089, , 
52.68, 0.044927, , 
52.71, 0.044715, , 
52.74, 0.044537, , 
52.77, 0.044261, , 
52.80, 0.044033, , 
52.83, 0.043827, , 
52.86, 0.043557, , 
52.89, 0.043386, , 
52.92, 0.043237, , 
52.95, 0.043103, , 
52.98, 0.042923, , 
53.01, 0.042758, , 
53.04, 0.042628, , 
53.07, 0.042494, , 
53.10, 0.042377, , 
53.13, 0.042155, , 
53.16, 0.041974, , 
53.19, 0.041863, , 
53.22, 0.041689, , 
53.25, 0.041492, , 
53.28, 0.041387, , 
53.31, 0.041314, , 
53.34, 0.041197, , 
53.37, 0.041051, , 
53.40, 0.040937, , 
53.43, 0.040880, , 
53.46, 0.040772, , 
53.49, 0.040632, , 
53.52, 0.040474, , 
53.55, 0.040344, , 
53.58, 0.040290, , 
53.61, 0.040138, , 
53.64, 0.040011, , 
53.67, 0.039843, , 
53.70, 0.039716, , 
53.73, 0.039649, , 
53.76, 0.039592, , 
53.79, 0.039570, , 
53.82, 0.039478, , 
53.85, 0.039345, , 
53.88, 0.039288, , 
53.91, 0.039189, , 
53.94, 0.039100, , 
53.97, 0.039062, , 
54.00, 0.039053, , 
54.03, 0.038910, , 
54.06, 0.038771, , 
54.09, 0.038688, , 
54.12, 0.038615, , 
54.15, 0.038555, , 
54.18, 0.038529, , 
54.21, 0.038555, , 
54.24, 0.038558, , 
54.27, 0.038533, , 
54.30, 0.038488, , 
54.33, 0.038501, , 
54.36, 0.038514, , 
54.38, 0.038504, 17, 0.585
54.39, 0.038485, , 
54.42, 0.038453, , 
54.45, 0.038517, , 
54.48, 0.038590, , 
54.51, 0.038574, , 
54.54, 0.038529, , 
54.57, 0.038574, , 
54.60, 0.038656, , 
54.63, 0.038824, , 
54.66, 0.038907, , 
54.69, 0.038967, , 
54.72, 0.039021, , 
54.75, 0.039078, , 
54.78, 0.039240, , 
54.81, 0.039380, , 
54.84, 0.039503, , 
54.87, 0.039697, , 
54.90, 0.039865, , 
54.93, 0.040185, , 
54.96, 0.040471, , 
54.99, 0.040772, , 
55.02, 0.041073, , 
55.05, 0.041397, , 
55.08, 0.041885, , 
55.11, 0.042203, , 
55.14, 0.042748, , 
55.17, 0.043211, , 
55.20, 0.043601, , 
55.23, 0.044090, , 
55.26, 0.044635, , 
55.29, 0.045333, , 
55.32, 0.045812, , 
55.35, 0.046447, , 
55.38, 0.047252, , 
55.41, 0.047693, , 
55.44, 0.048505, , 
55.47, 0.049324, , 
55.50, 0.050082, , 
55.53, 0.051024, , 
55.56, 0.051357, , 
55.59, 0.052270, , 
55.62, 0.053260, , 
55.65, 0.054062, , 
55.68, 0.054979, , 
55.71, 0.055823, , 
55.74, 0.056857, , 
55.77, 0.057466, , 
55.80, 0.058186, , 
55.84, 0.059074, , 
55.86, 0.059870, , 
55.89, 0.060625, , 
55.92, 0.061463, , 
55.95, 0.062173, , 
55.98, 0.062814, , 
56.01, 0.063394, , 
56.04, 0.063968, , 
56.07, 0.064682, , 
56.10, 0.065215, , 
56.13, 0.065776, , 
56.16, 0.066192, , 
56.19, 0.066525, , 
56.22, 0.066928, , 
56.25, 0.067191, , 
56.28, 0.067492, , 
56.31, 0.067765, , 
56.34, 0.067984, , 
56.37, 0.068159, , 
56.40, 0.068311, , 
56.43, 0.068444, , 
56.46, 0.068495, , 
56.49, 0.068485, , 
56.52, 0.068504, , 
56.55, 0.068514, , 
56.58, 0.068431, , 
56.61, 0.068251, , 
56.65, 0.068168, , 
56.67, 0.068054, , 
56.70, 0.067873, , 
56.73, 0.067676, , 
56.76, 0.067461, , 
56.79, 0.067283, , 
56.82, 0.067007, , 
56.85, 0.066807, , 
56.88, 0.066585, , 
56.91, 0.066259, , 
56.94, 0.065903, , 
56.97, 0.065523, , 
57.00, 0.065250, , 
57.03, 0.064942, , 
57.06, 0.064558, , 
57.09, 0.064162, , 
57.12, 0.063702, , 
57.15, 0.063496, , 
57.18, 0.062884, , 
57.21, 0.062325, , 
57.24, 0.061900, , 
57.27, 0.061482, , 
57.30, 0.061279, , 
57.33, 0.060635, , 
57.36, 0.060070, , 
57.39, 0.059670, , 
57.42, 0.059153, , 
57.45, 0.058709, , 
57.48, 0.058345, , 
57.51, 0.057840, , 
57.54, 0.057380, , 
57.57, 0.056854, , 
57.60, 0.056743, 18, 0.589
57.61, 0.056648, , 
57.63, 0.056080, , 
57.66, 0.055445, , 
57.69, 0.055141, , 
57.72, 0.054814, , 
57.75, 0.054491, , 
57.78, 0.054116, , 
57.81, 0.053679, , 
57.84, 0.053289, , 
57.87, 0.052822, , 
57.90, 0.052543, , 
57.93, 0.052229, , 
57.96, 0.051880, , 
57.99, 0.051477, , 
58.02, 0.051065, , 
58.05, 0.050818, , 
58.08, 0.050513, , 
58.11, 0.050142, , 
58.14, 0.049853, , 
58.17, 0.049581, , 
58.20, 0.049247, , 
58.23, 0.048952, , 
58.26, 0.048600, , 
58.29, 0.048464, , 
58.32, 0.048245, , 
58.35, 0.047944, , 
58.38, 0.047725, , 
58.41, 0.047439, , 
58.44, 0.047214, , 
58.47, 0.046995, , 
58.50, 0.046748, , 
58.53, 0.046545, , 
58.56, 0.046355, , 
58.59, 0.046221, , 
58.62, 0.046050, , 
58.65, 0.045841, , 
58.68, 0.045619, , 
58.71, 0.045368, , 
58.74, 0.045203, , 
58.77, 0.045054, , 
58.80, 0.044892, , 
58.83, 0.044680, , 
58.86, 0.044417, , 
58.89, 0.044245, , 
58.92, 0.044115, , 
58.95, 0.044033, , 
58.98, 0.043934, , 
59.01, 0.043849, , 
59.04, 0.043690, , 
59.07, 0.043573, , 
59.10, 0.043462, , 
59.13, 0.043351, , 
59.16, 0.043180, , 
59.19, 0.043081, , 
59.22, 0.043062, , 
59.25, 0.043065, , 
59.28, 0.043021, , 
59.31, 0.042983, , 
59.34, 0.043034, , 
59.37, 0.043056, , 
59.40, 0.043015, , 
59.43, 0.043015, , 
59.46, 0.043062, , 
59.49, 0.043059, , 
59.52, 0.043015, , 
59.55, 0.042983, , 
59.58, 0.043040, , 
59.61, 0.043116, , 
59.64, 0.043180, , 
59.67, 0.043294, , 
59.70, 0.043427, , 
59.73, 0.043500, , 
59.76, 0.043630, , 
59.79, 0.043817, , 
59.82, 0.044007, , 
59.85, 0.044195, , 
59.88, 0.044398, , 
59.91, 0.044626, , 
59.94, 0.044905, , 
59.97, 0.045133, , 
60.00, 0.045460, , 
60.03, 0.045771, , 
60.06, 0.046041, , 
60.09, 0.046380, , 
60.12, 0.046704, , 
60.15, 0.047230, , 
60.18, 0.047706, , 
60.21, 0.048125, , 
60.24, 0.048686, , 
60.27, 0.049175, , 
60.30, 0.049828, , 
60.33, 0.050329, , 
60.36, 0.050821, , 
60.39, 0.051503, , 
60.42, 0.052134, , 
60.46, 0.052848, , 
60.48, 0.053358, , 
60.51, 0.054148, , 
60.54, 0.054789, , 
60.57, 0.055350, , 
60.60, 0.055994, , 
60.63, 0.056632, , 
60.66, 0.057244, , 
60.69, 0.057904, , 
60.72, 0.058529, , 
60.75, 0.059198, , 
60.78, 0.059693, , 
60.79, 0.059772, 19, 0.583
60.81, 0.060241, , 
60.84, 0.060787, , 
60.87, 0.061301, , 
60.90, 0.061919, , 
60.93, 0.062259, , 
60.96, 0.062658, , 
60.99, 0.063023, , 
61.02, 0.063416, , 
61.05, 0.063686, , 
61.08, 0.063924, , 
61.11, 0.064229, , 
61.14, 0.064457, , 
61.17, 0.064644, , 
61.20, 0.064841, , 
61.23, 0.064945, , 
61.26, 0.065050, , 
61.29, 0.065152, , 
61.32, 0.065224, , 
61.35, 0.065221, , 
61.38, 0.065129, , 
61.41, 0.065047, , 
61.44, 0.065002, , 
61.47, 0.064977, , 
61.50, 0.064850, , 
61.53, 0.064692, , 
61.56, 0.064492, , 
61.59, 0.064305, , 
61.62, 0.064092, , 
61.65, 0.063832, , 
61.68, 0.063654, , 
61.71, 0.063467, , 
61.74, 0.063087, , 
61.77, 0.062827, , 
61.80, 0.062487, , 
61.83, 0.062135, , 
61.86, 0.061761, , 
61.89, 0.061320, , 
61.92, 0.061050, , 
61.95, 0.060736, , 
61.98, 0.060384, , 
62.01, 0.060007, , 
62.04, 0.059572, , 
62.07, 0.059191, , 
62.10, 0.058713, , 
62.13, 0.058427, , 
62.16, 0.058081, , 
62.19, 0.057748, , 
62.22, 0.057330, , 
62.25, 0.056828, , 
62.28, 0.056441, , 
62.31, 0.056026, , 
62.34, 0.055556, , 
62.37, 0.055154, , 
62.40, 0.054722, , 
62.43, 0.054415, , 
62.46, 0.054056, , 
62.49, 0.053666, , 
62.52, 0.053285, , 
62.55, 0.052873, , 
62.58, 0.052489, , 
62.61, 0.052201, , 
62.64, 0.051893, , 
62.67, 0.051566, , 
62.70, 0.051217, , 
62.73, 0.051005, , 
62.76, 0.050824, , 
62.79, 0.050510, , 
62.82, 0.050190, , 
62.85, 0.049936, , 
62.89, 0.049790, , 
62.91, 0.049571, , 
62.94, 0.049330, , 
62.97, 0.049105, , 
63.00, 0.048918, , 
63.03, 0.048746, , 
63.06, 0.048565, , 
63.09, 0.048445, , 
63.12, 0.048290, , 
63.15, 0.048169, , 
63.18, 0.048080, , 
63.21, 0.047960, , 
63.24, 0.047842, , 
63.27, 0.047681, , 
63.30, 0.047636, , 
63.33, 0.047649, , 
63.36, 0.047627, , 
63.39, 0.047611, , 
63.42, 0.047611, , 
63.45, 0.047633, , 
63.48, 0.047703, , 
63.51, 0.047823, , 
63.54, 0.047903, , 
63.57, 0.048023, , 
63.60, 0.048102, , 
63.63, 0.048248, , 
63.66, 0.048435, , 
63.69, 0.048616, , 
63.72, 0.048845, , 
63.75, 0.049022, , 
63.78, 0.049286, , 
63.81, 0.049774, , 
63.84, 0.050155, , 
63.87, 0.050465, , 
63.90, 0.050795, , 
63.94, 0.051163, , 
63.96, 0.051522, , 
63.99, 0.051890, 20, 0.587
64.00, 0.051953, , 
64.02, 0.052229, , 
64.05, 0.052851, , 
64.08, 0.053333, , 
64.11, 0.053945, , 
64.14, 0.054538, , 
64.17, 0.055033, , 
64.20, 0.055499, , 
64.23, 0.055975, , 
64.26, 0.056527, , 
64.29, 0.056987, , 
64.32, 0.057469, , 
64.35, 0.057821, , 
64.38, 0.058272, , 
64.41, 0.058770, , 
64.44, 0.059188, , 
64.47, 0.059705, , 
64.50, 0.060178, , 
64.53, 0.060603, , 
64.56, 0.060949, , 
64.59, 0.061272, , 
64.62, 0.061685, , 
64.65, 0.062008, , 
64.68, 0.062246, , 
64.71, 0.062544, , 
64.74, 0.062804, , 
64.77, 0.063052, , 
64.80, 0.063153, , 
64.83, 0.063369, , 
64.86, 0.063569, , 
64.89, 0.063597, , 
64.92, 0.063616, , 
64.95, 0.063626, , 
64.99, 0.063680, , 
65.01, 0.063696, , 
65.04, 0.063670, , 
65.07, 0.063623, , 
65.10, 0.063537, , 
65.13, 0.063416, , 
65.16, 0.063267, , 
65.19, 0.063141, , 
65.22, 0.063004, , 
65.25, 0.062776, , 
65.28, 0.062582, , 
65.31, 0.062325, , 
65.34, 0.062081, , 
65.37, 0.061862, , 
65.41, 0.061564, , 
65.43, 0.061307, , 
65.46, 0.061031, , 
65.49, 0.060736, , 
65.52, 0.060444, , 
65.55, 0.060070, , 
65.58, 0.059689, , 
65.61, 0.059528, , 
65.64, 0.059087, , 
65.67, 0.058770, , 
65.70, 0.058456, , 
65.73, 0.058151, , 
65.76, 0.057742, , 
65.79, 0.057374, , 
65.82, 0.057073, , 
65.85, 0.056648, , 
65.88, 0.056308, , 
65.91, 0.055962, , 
65.94, 0.055655, , 
65.97, 0.055347, , 
66.00, 0.054957, , 
66.03, 0.054684, , 
66.06, 0.054456, , 
66.09, 0.054208, , 
66.12, 0.053948, , 
66.15, 0.053644, , 
66.18, 0.053450, , 
66.21, 0.053130, , 
66.24, 0.052936, , 
66.27, 0.052794, , 
66.30, 0.052524, , 
66.33, 0.052308, , 
66.36, 0.052143, , 
66.39, 0.052020, , 
66.42, 0.051880, , 
66.45, 0.051750, , 
66.48, 0.051671, , 
66.51, 0.051636, , 
66.54, 0.051633, , 
66.57, 0.051585, , 
66.60, 0.051572, , 
66.63, 0.051598, , 
66.66, 0.051630, , 
66.69, 0.051763, , 
66.72, 0.051931, , 
66.75, 0.052077, , 
66.78, 0.052242, , 
66.81, 0.052378, , 
66.84, 0.052575, , 
66.87, 0.052857, , 
66.90, 0.052959, , 
66.93, 0.053279, , 
66.96, 0.053606, , 
66.99, 0.053888, , 
67.02, 0.054215, , 
67.05, 0.054602, , 
67.08, 0.054887, , 
67.11, 0.055287, , 
67.14, 0.055585, , 
67.17, 0.055874, , 
67.19, 0.056102, 21, 0.585
67.20, 0.056318, , 
67.23, 0.056740, , 
67.26, 0.057108, , 
67.29, 0.057387, , 
67.32, 0.057745, , 
67.35, 0.058135, , 
67.38, 0.058408, , 
67.41, 0.058684, , 
67.44, 0.059052, , 
67.47, 0.059360, , 
67.50, 0.059626, , 
67.53, 0.059864, , 
67.56, 0.060051, , 
67.59, 0.060216, , 
67.62, 0.060378, , 
67.66, 0.060536, , 
67.68, 0.060714, , 
67.71, 0.060946, , 
67.74, 0.061063, , 
67.77, 0.061085, , 
67.80, 0.061133, , 
67.83, 0.061190, , 
67.86, 0.061171, , 
67.89, 0.061149, , 
67.92, 0.061177, , 
67.95, 0.061187, , 
67.98, 0.061117, , 
68.01, 0.060961, , 
68.04, 0.060860, , 
68.07, 0.060762, , 
68.10, 0.060549, , 
68.13, 0.060302, , 
68.16, 0.060121, , 
68.19, 0.059969, , 
68.22, 0.059699, , 
68.25, 0.059464, , 
68.28, 0.059271, , 
68.31, 0.059042, , 
68.34, 0.058760, , 
68.37, 0.058475, , 
68.40, 0.058237, , 
68.43, 0.057920, , 
68.46, 0.057621, , 
68.49, 0.057244, , 
68.52, 0.056993, , 
68.55, 0.056714, , 
68.58, 0.056305, , 
68.61, 0.056099, , 
68.64, 0.055810, , 
68.67, 0.055544, , 
68.70, 0.055312, , 
68.73, 0.055039, , 
68.76, 0.054817, , 
68.79, 0.054567, , 
68.82, 0.054367, , 
68.85, 0.054129, , 
68.88, 0.053913, , 
68.91, 0.053650, , 
68.94, 0.053444, , 
68.97, 0.053330, , 
69.00, 0.053301, , 
69.03, 0.053244, , 
69.06, 0.053092, , 
69.09, 0.052936, , 
69.12, 0.052867, , 
69.15, 0.052771, , 
69.18, 0.052635, , 
69.21, 0.052648, , 
69.24, 0.052695, , 
69.27, 0.052765, , 
69.30, 0.052879, , 
69.33, 0.053006, , 
69.36, 0.053120, , 
69.39, 0.053260, , 
69.42, 0.053387, , 
69.45, 0.053501, , 
69.48, 0.053631, , 
69.51, 0.053799, , 
69.54, 0.053970, , 
69.57, 0.054193, , 
69.60, 0.054418, , 
69.63, 0.054624, , 
69.66, 0.054808, , 
69.69, 0.055090, , 
69.72, 0.055338, , 
69.75, 0.055471, , 
69.78, 0.055633, , 
69.81, 0.055823, , 
69.84, 0.056020, , 
69.87, 0.056223, , 
69.90, 0.056368, , 
69.93, 0.056559, , 
69.96, 0.056740, , 
69.99, 0.056895, , 
70.02, 0.056996, , 
70.05, 0.057079, , 
70.08, 0.057146, , 
70.11, 0.057149, , 
70.14, 0.057171, , 
70.17, 0.057272, , 
70.20, 0.057263, , 
70.23, 0.057158, , 
70.26, 0.057136, , 
70.29, 0.057155, , 
70.32, 0.057142, , 
70.35, 0.057088, , 
70.38, 0.057047, 22, 0.584
70.39, 0.057047, , 
70.41, 0.057009, , 
70.44, 0.056911, , 
70.47, 0.056803, , 
70.50, 0.056644, , 
70.53, 0.056530, , 
70.56, 0.056324, , 
70.59, 0.056007, , 
70.62, 0.055775, , 
70.65, 0.055610, , 
70.68, 0.055398, , 
70.71, 0.055204, , 
70.75, 0.055046, , 
70.77, 0.054909, , 
70.80, 0.054678, , 
70.83, 0.054396, , 
70.86, 0.054202, , 
70.89, 0.053990, , 
70.92, 0.053742, , 
70.95, 0.053542, , 
70.98, 0.053292, , 
71.01, 0.053139, , 
71.04, 0.052927, , 
71.07, 0.052645, , 
71.10, 0.052476, , 
71.13, 0.052289, , 
71.16, 0.052137, , 
71.19, 0.051934, , 
71.22, 0.051782, , 
71.25, 0.051760, , 
71.28, 0.051709, , 
71.31, 0.051680, , 
71.34, 0.051642, , 
71.37, 0.051626, , 
71.40, 0.051645, , 
71.43, 0.051592, , 
71.46, 0.051649, , 
71.49, 0.051671, , 
71.52, 0.051639, , 
71.55, 0.051699, , 
71.58, 0.051874, , 
71.61, 0.052007, , 
71.65, 0.052042, , 
71.67, 0.052109, , 
71.70, 0.052286, , 
71.73, 0.052438, , 
71.76, 0.052546, , 
71.79, 0.052657, , 
71.82, 0.052867, , 
71.85, 0.053019, , 
71.88, 0.053066, , 
71.91, 0.053120, , 
71.94, 0.053187, , 
71.97, 0.053355, , 
72.00, 0.053450, , 
72.03, 0.053533, , 
72.06, 0.053650, , 
72.09, 0.053637, , 
72.12, 0.053612, , 
72.15, 0.053647, , 
72.18, 0.053653, , 
72.21, 0.053663, , 
72.24, 0.053650, , 
72.27, 0.053685, , 
72.30, 0.053675, , 
72.33, 0.053618, , 
72.36, 0.053466, , 
72.39, 0.053390, , 
72.42, 0.053317, , 
72.45, 0.053219, , 
72.48, 0.053155, , 
72.51, 0.053028, , 
72.54, 0.052940, , 
72.57, 0.052822, , 
72.60, 0.052629, , 
72.63, 0.052476, , 
72.66, 0.052378, , 
72.69, 0.052226, , 
72.72, 0.052010, , 
72.75, 0.051887, , 
72.78, 0.051817, , 
72.81, 0.051601, , 
72.85, 0.051430, , 
72.87, 0.051309, , 
72.90, 0.051182, , 
72.93, 0.051008, , 
72.96, 0.050792, , 
72.99, 0.050668, , 
73.02, 0.050500, , 
73.05, 0.050361, , 
73.08, 0.050243, , 
73.11, 0.050123, , 
73.14, 0.050050, , 
73.17, 0.049891, , 
73.20, 0.049774, , 
73.23, 0.049720, , 
73.27, 0.049685, , 
73.29, 0.049650, , 
73.32, 0.049641, , 
73.35, 0.049688, , 
73.38, 0.049688, , 
73.41, 0.049660, , 
73.44, 0.049657, , 
73.48, 0.049736, , 
73.50, 0.049837, , 
73.53, 0.049920, , 
73.56, 0.050050, , 
73.58, 0.050079, 23, 0.585
73.59, 0.050104, , 
73.62, 0.050180, , 
73.65, 0.050304, , 
73.68, 0.050335, , 
73.71, 0.050551, , 
73.74, 0.050599, , 
73.77, 0.050621, , 
73.80, 0.050640, , 
73.83, 0.050634, , 
73.86, 0.050653, , 
73.90, 0.050662, , 
73.92, 0.050776, , 
73.95, 0.050935, , 
73.98, 0.050935, , 
74.01, 0.050805, , 
74.04, 0.050735, , 
74.07, 0.050713, , 
74.10, 0.050662, , 
74.13, 0.050656, , 
74.16, 0.050668, , 
74.19, 0.050665, , 
74.22, 0.050605, , 
74.25, 0.050469, , 
74.28, 0.050351, , 
74.32, 0.050259, , 
74.34, 0.050190, , 
74.37, 0.050123, , 
74.40, 0.050059, , 
74.43, 0.049936, , 
74.46, 0.049780, , 
74.49, 0.049653, , 
74.52, 0.049628, , 
74.55, 0.049612, , 
74.58, 0.049501, , 
74.61, 0.049327, , 
74.64, 0.049232, , 
74.67, 0.049203, , 
74.70, 0.049175, , 
74.74, 0.049108, , 
74.76, 0.049035, , 
74.79, 0.048895, , 
74.82, 0.048743, , 
74.85, 0.048686, , 
74.88, 0.048673, , 
74.91, 0.048651, , 
74.94, 0.048619, , 
74.97, 0.048591, , 
75.00, 0.048559, , 
75.03, 0.048600, , 
75.06, 0.048572, , 
75.09, 0.048578, , 
75.12, 0.048604, , 
75.15, 0.048588, , 
75.18, 0.048562, , 
75.21, 0.048645, , 
75.24, 0.048791, , 
75.27, 0.048937, , 
75.30, 0.048978, , 
75.33, 0.049041, , 
75.36, 0.049098, , 
75.39, 0.049124, , 
75.42, 0.049098, , 
75.45, 0.049095, , 
75.48, 0.049111, , 
75.51, 0.049121, , 
75.54, 0.049083, , 
75.57, 0.049098, , 
75.60, 0.049130, , 
75.63, 0.049111, , 
75.66, 0.049076, , 
75.69, 0.049105, , 
75.72, 0.049162, , 
75.75, 0.049124, , 
75.78, 0.049060, , 
75.81, 0.049070, , 
75.84, 0.049133, , 
75.87, 0.049105, , 
75.90, 0.049057, , 
75.93, 0.049089, , 
75.96, 0.049098, , 
75.99, 0.049092, , 
76.02, 0.049041, , 
76.05, 0.048997, , 
76.08, 0.048902, , 
76.11, 0.048724, , 
76.14, 0.048648, , 
76.17, 0.048629, , 
76.20, 0.048623, , 
76.23, 0.048559, , 
76.26, 0.048537, , 
76.29, 0.048461, , 
76.32, 0.048331, , 
76.35, 0.048156, , 
76.38, 0.048071, , 
76.41, 0.047982, , 
76.44, 0.047868, , 
76.47, 0.047760, , 
76.50, 0.047655, , 
76.53, 0.047570, , 
76.56, 0.047446, , 
76.59, 0.047262, , 
76.62, 0.047103, , 
76.66, 0.047046, , 
76.68, 0.046891, , 
76.71, 0.046643, , 
76.74, 0.046485, , 
76.77, 0.046351, , 
76.79, 0.046237, 24, 0.587
76.80, 0.046161, , 
76.83, 0.045885, , 
76.87, 0.045650, , 
76.89, 0.045511, , 
76.92, 0.045283, , 
76.95, 0.044915, , 
76.98, 0.044642, , 
77.01, 0.044398, , 
77.04, 0.044011, , 
77.07, 0.043687, , 
77.10, 0.043427, , 
77.13, 0.043151, , 
77.16, 0.042834, , 
77.19, 0.042440, , 
77.22, 0.042165, , 
77.25, 0.041854, , 
77.29, 0.041759, , 
77.31, 0.041283, , 
77.34, 0.040778, , 
77.37, 0.040471, , 
77.40, 0.040062, , 
77.43, 0.039795, , 
77.46, 0.039503, , 
77.50, 0.039256, , 
77.52, 0.039024, , 
77.55, 0.038691, , 
77.58, 0.038425, , 
77.61, 0.038184, , 
77.64, 0.037816, , 
77.67, 0.037549, , 
77.71, 0.037315, , 
77.73, 0.037188, , 
77.76, 0.037004, , 
77.79, 0.036779, , 
77.82, 0.036661, , 
77.85, 0.036461, , 
77.88, 0.036255, , 
77.91, 0.036074, , 
77.94, 0.035986, , 
77.97, 0.035884, , 
78.00, 0.035681, , 
78.03, 0.035561, , 
78.06, 0.035567, , 
78.09, 0.035434, , 
78.12, 0.035205, , 
78.15, 0.035091, , 
78.18, 0.035031, , 
78.21, 0.034955, , 
78.24, 0.034860, , 
78.27, 0.034774, , 
78.30, 0.034657, , 
78.33, 0.034523, , 
78.36, 0.034403, , 
78.39, 0.034374, , 
78.42, 0.034349, , 
78.45, 0.034333, , 
78.48, 0.034254, , 
78.51, 0.034216, , 
78.54, 0.034095, , 
78.57, 0.033997, , 
78.60, 0.033845, , 
78.63, 0.033797, , 
78.66, 0.033845, , 
78.69, 0.033835, , 
78.72, 0.033730, , 
78.75, 0.033610, , 
78.78, 0.033467, , 
78.81, 0.033397, , 
78.84, 0.033343, , 
78.87, 0.033331, , 
78.90, 0.033340, , 
78.93, 0.033191, , 
78.96, 0.033061, , 
78.99, 0.032979, , 
79.02, 0.032896, , 
79.06, 0.032763, , 
79.08, 0.032595, , 
79.11, 0.032481, , 
79.14, 0.032360, , 
79.17, 0.032332, , 
79.20, 0.032271, , 
79.23, 0.032198, , 
79.26, 0.032046, , 
79.29, 0.031881, , 
79.32, 0.031821, , 
79.36, 0.031837, , 
79.38, 0.031780, , 
79.41, 0.031596, , 
79.44, 0.031443, , 
79.47, 0.031374, , 
79.50, 0.031336, , 
79.53, 0.031301, , 
79.56, 0.031282, , 
79.59, 0.031307, , 
79.62, 0.031234, , 
79.65, 0.031018, , 
79.68, 0.030917, , 
79.71, 0.030920, , 
79.74, 0.030857, , 
79.77, 0.030812, , 
79.80, 0.030819, , 
79.83, 0.030765, , 
79.86, 0.030654, , 
79.89, 0.030479, , 
79.92, 0.030397, , 
79.95, 0.030384, , 
79.98, 0.030349, , 
80.01, 0.030349, 25, 0.589
80.02, 0.030340, , 
80.04, 0.030330, , 
80.07, 0.030368, , 
80.10, 0.030324, , 
80.13, 0.030171, , 
80.16, 0.030054, , 
80.19, 0.029940, , 
80.22, 0.029870, , 
80.25, 0.029826, , 
80.28, 0.029838, , 
80.31, 0.029848, , 
80.34, 0.029838, , 
80.37, 0.029724, , 
80.40, 0.029610, , 
80.43, 0.029451, , 
80.46, 0.029350, , 
80.49, 0.029359, , 
80.52, 0.029315, , 
80.55, 0.029318, , 
80.58, 0.029290, , 
80.61, 0.029258, , 
80.64, 0.029286, , 
80.67, 0.029306, , 
80.70, 0.029283, , 
80.73, 0.029267, , 
80.76, 0.029290, , 
80.79, 0.029302, , 
80.82, 0.029233, , 
80.85, 0.029083, , 
80.88, 0.028979, , 
80.91, 0.028871, , 
80.94, 0.028833, , 
80.97, 0.028817, , 
81.00, 0.028823, , 
81.03, 0.028788, , 
81.06, 0.028792, , 
81.09, 0.028823, , 
81.12, 0.028836, , 
81.16, 0.028798, , 
81.18, 0.028808, , 
81.21, 0.028842, , 
81.24, 0.028833, , 
81.27, 0.028814, , 
81.30, 0.028779, , 
81.33, 0.028782, , 
81.37, 0.028693, , 
81.39, 0.028573, , 
81.42, 0.028449, , 
81.45, 0.028411, , 
81.48, 0.028405, , 
81.51, 0.028367, , 
81.54, 0.028319, , 
81.57, 0.028351, , 
81.60, 0.028370, , 
81.63, 0.028357, , 
81.66, 0.028329, , 
81.69, 0.028316, , 
81.72, 0.028367, , 
81.75, 0.028351, , 
81.78, 0.028329, , 
81.81, 0.028363, , 
81.84, 0.028363, , 
81.87, 0.028354, , 
81.90, 0.028341, , 
81.93, 0.028402, , 
81.96, 0.028443, , 
81.99, 0.028373, , 
82.02, 0.028421, , 
82.05, 0.028398, , 
82.08, 0.028367, , 
82.11, 0.028373, , 
82.14, 0.028338, , 
82.17, 0.028389, , 
82.20, 0.028408, , 
82.23, 0.028357, , 
82.26, 0.028348, , 
82.29, 0.028370, , 
82.32, 0.028405, , 
82.35, 0.028379, , 
82.38, 0.028382, , 
82.41, 0.028379, , 
82.44, 0.028265, , 
82.47, 0.028113, , 
82.50, 0.028030, , 
82.53, 0.027983, , 
82.56, 0.027938, , 
82.59, 0.027900, , 
82.62, 0.027910, , 
82.65, 0.027967, , 
82.68, 0.027942, , 
82.71, 0.027891, , 
82.74, 0.027935, , 
82.77, 0.027904, , 
82.80, 0.027926, , 
82.83, 0.027875, , 
82.86, 0.027894, , 
82.89, 0.027910, , 
82.92, 0.027888, , 
82.95, 0.027846, , 
82.98, 0.027859, , 
83.01, 0.027923, , 
83.04, 0.027881, , 
83.07, 0.027862, , 
83.10, 0.027891, , 
83.13, 0.027919, , 
83.16, 0.027853, , 
83.19, 0.027850, 26, 0.582
83.19, 0.027846, , 
83.22, 0.027907, , 
83.25, 0.027929, , 
83.28, 0.027910, , 
83.31, 0.027878, , 
83.34, 0.027945, , 
83.37, 0.027948, , 
83.40, 0.027878, , 
83.43, 0.027881, , 
83.46, 0.027872, , 
83.49, 0.027881, , 
83.52, 0.027865, , 
83.55, 0.027862, , 
83.58, 0.027859, , 
83.61, 0.027850, , 
83.64, 0.027802, , 
83.67, 0.027859, , 
83.70, 0.027881, , 
83.73, 0.027884, , 
83.76, 0.027923, , 
83.79, 0.027831, , 
83.82, 0.027758, , 
83.85, 0.027653, , 
83.88, 0.027498, , 
83.91, 0.027456, , 
83.94, 0.027450, , 
83.97, 0.027437, , 
84.00, 0.027383, , 
84.03, 0.027367, , 
84.06, 0.027409, , 
84.09, 0.027412, , 
84.12, 0.027342, , 
84.15, 0.027320, , 
84.18, 0.027361, , 
84.21, 0.027355, , 
84.24, 0.027367, , 
84.27, 0.027358, , 
84.30, 0.027367, , 
84.33, 0.027323, , 
84.36, 0.027307, , 
84.39, 0.027288, , 
84.42, 0.027358, , 
84.45, 0.027326, , 
84.48, 0.027279, , 
84.51, 0.027288, , 
84.54, 0.027329, , 
84.57, 0.027320, , 
84.60, 0.027250, , 
84.63, 0.027269, , 
84.66, 0.027301, , 
84.69, 0.027304, , 
84.72, 0.027250, , 
84.75, 0.027269, , 
84.78, 0.027256, , 
84.81, 0.027304, , 
84.84, 0.027317, , 
84.87, 0.027310, , 
84.90, 0.027307, , 
84.93, 0.027310, , 
84.96, 0.027253, , 
84.99, 0.027288, , 
85.02, 0.027326, , 
85.05, 0.027317, , 
85.08, 0.027323, , 
85.11, 0.027367, , 
85.14, 0.027393, , 
85.17, 0.027371, , 
85.20, 0.027342, , 
85.23, 0.027364, , 
85.26, 0.027396, , 
85.30, 0.027367, , 
85.32, 0.027333, , 
85.35, 0.027374, , 
85.38, 0.027342, , 
85.41, 0.027285, , 
85.44, 0.027285, , 
85.47, 0.027301, , 
85.50, 0.027307, , 
85.53, 0.027291, , 
85.56, 0.027307, , 
85.59, 0.027361, , 
85.62, 0.027396, , 
85.65, 0.027352, , 
85.68, 0.027294, , 
85.71, 0.027342, , 
85.74, 0.027358, , 
85.77, 0.027288, , 
85.80, 0.027314, , 
85.83, 0.027374, , 
85.86, 0.027314, , 
85.89, 0.027256, , 
85.92, 0.027298, , 
85.95, 0.027310, , 
85.98, 0.027339, , 
86.01, 0.027291, , 
86.04, 0.027314, , 
86.07, 0.027352, , 
86.10, 0.027339, , 
86.13, 0.027304, , 
86.16, 0.027288, , 
86.19, 0.027326, , 
86.22, 0.027301, , 
86.25, 0.027272, , 
86.28, 0.027266, , 
86.31, 0.027329, , 
86.34, 0.027339, , 
86.37, 0.027301, , 
86.38, 0.027288, 27, 0.584
86.40, 0.027323, , 
86.43, 0.027393, , 
86.47, 0.027396, , 
86.49, 0.027377, , 
86.52, 0.027358, , 
86.55, 0.027355, , 
86.58, 0.027329, , 
86.61, 0.027304, , 
86.64, 0.027317, , 
86.67, 0.027342, , 
86.70, 0.027263, , 
86.73, 0.027237, , 
86.76, 0.027275, , 
86.79, 0.027282, , 
86.82, 0.027193, , 
86.85, 0.027174, , 
86.88, 0.027298, , 
86.91, 0.027304, , 
86.95, 0.027310, , 
86.97, 0.027244, , 
87.00, 0.027237, , 
87.03, 0.027253, , 
87.06, 0.027237, , 
87.09, 0.027225, , 
87.12, 0.027260, , 
87.15, 0.027250, , 
87.18, 0.027203, , 
87.21, 0.027196, , 
87.24, 0.027215, , 
87.27, 0.027244, , 
87.30, 0.027263, , 
87.33, 0.027244, , 
87.36, 0.027253, , 
87.39, 0.027294, , 
87.42, 0.027222, , 
87.45, 0.027136, , 
87.48, 0.027072, , 
87.51, 0.026901, , 
87.54, 0.026857, , 
87.57, 0.026800, , 
87.60, 0.026809, , 
87.63, 0.026797, , 
87.66, 0.026743, , 
87.69, 0.026743, , 
87.72, 0.026793, , 
87.75, 0.026768, , 
87.78, 0.026774, , 
87.81, 0.026809, , 
87.84, 0.026838, , 
87.87, 0.026819, , 
87.90, 0.026800, , 
87.93, 0.026800, , 
87.96, 0.026844, , 
87.99, 0.026825, , 
88.03, 0.026812, , 
88.05, 0.026816, , 
88.08, 0.026784, , 
88.11, 0.026781, , 
88.14, 0.026787, , 
88.17, 0.026831, , 
88.20, 0.026869, , 
88.23, 0.026812, , 
88.26, 0.026781, , 
88.29, 0.026809, , 
88.32, 0.026879, , 
88.35, 0.026847, , 
88.38, 0.026800, , 
88.41, 0.026790, , 
88.44, 0.026819, , 
88.47, 0.026841, , 
88.50, 0.026822, , 
88.53, 0.026835, , 
88.56, 0.026847, , 
88.59, 0.026809, , 
88.62, 0.026816, , 
88.65, 0.026847, , 
88.68, 0.026831, , 
88.71, 0.026793, , 
88.74, 0.026774, , 
88.77, 0.026854, , 
88.81, 0.026866, , 
88.83, 0.026809, , 
88.86, 0.026803, , 
88.89, 0.026825, , 
88.92, 0.026847, , 
88.95, 0.026831, , 
88.98, 0.026869, , 
89.01, 0.027015, , 
89.04, 0.027117, , 
89.07, 0.027253, , 
89.10, 0.027425, , 
89.13, 0.027653, , 
89.16, 0.027827, , 
89.19, 0.027989, , 
89.22, 0.028141, , 
89.25, 0.028186, , 
89.28, 0.028224, , 
89.31, 0.028243, , 
89.34, 0.028265, , 
89.37, 0.028287, , 
89.40, 0.028417, , 
89.43, 0.031434, , 
89.46, 0.039782, , 
89.49, 0.058633, , 
89.52, 0.085465, , 
89.55, 0.105153, , 
89.58, 0.120870, , 
89.61, 0.129145, , 
89.64, 0.134363, , 
89.67, 0.137725, , 
89.70, 0.139892, , 
89.73, 0.141510, , 
89.76, 0.142391, , 
89.79, 0.143086, , 
89.82, 0.143533, , 
89.85, 0.144072, , 
89.88, 0.144599, , 
89.91, 0.145049, , 
89.94, 0.144786, , 
89.97, 0.139819, , 
90.00, 0.125694, , 
90.03, 0.104284, , 
90.06, 0.082768, , 
90.09, 0.063968, , 
90.12, 0.053936, , 
90.15, 0.047884, , 
90.18, 0.043903, , 
90.21, 0.042168, , 
90.25, 0.041974, , 
90.27, 0.041419, , 
90.30, 0.041438, , 
90.33, 0.041844, , 
90.36, 0.042196, , 
90.39, 0.042628, , 
90.42, 0.043170, , 
90.45, 0.043532, , 
90.48, 0.043763, , 
90.51, 0.043903, , 
90.54, 0.043893, , 
90.57, 0.043804, , 
90.60, 0.043716, , 
90.63, 0.043589, , 
90.66, 0.043494, , 
90.69, 0.043392, , 
90.72, 0.043240, , 
90.75, 0.043088, , 
90.78, 0.042929, , 
90.81, 0.042802, , 
90.84, 0.042643, , 
90.87, 0.042444, , 
90.91, 0.042409, , 
90.93, 0.042231, , 
90.96, 0.042082, , 
90.99, 0.041984, , 
91.02, 0.041831, , 
91.05, 0.041698, , 
91.08, 0.041590, , 
91.11, 0.041549, , 
91.14, 0.041562, , 
91.17, 0.041562, , 
91.20, 0.041498, , 
91.23, 0.041365, , 
91.26, 0.041267, , 
91.29, 0.041153, , 
91.32, 0.041092, , 
91.35, 0.041080, , 
91.38, 0.041064, , 
91.41, 0.041029, , 
91.44, 0.040985, , 
91.47, 0.041000, , 
91.50, 0.041007, , 
91.53, 0.041007, , 
91.56, 0.040997, , 
91.59, 0.041019, , 
91.62, 0.041096, , 
91.65, 0.041089, , 
91.68, 0.041026, , 
91.71, 0.041054, , 
91.75, 0.041048, , 
91.77, 0.041007, , 
91.80, 0.040991, , 
91.83, 0.041000, , 
91.86, 0.041026, , 
91.89, 0.041004, , 
91.92, 0.040988, , 
91.95, 0.041032, , 
91.98, 0.041058, , 
92.01, 0.041026, , 
92.04, 0.041000, , 
92.07, 0.041013, , 
92.10, 0.041029, , 
92.13, 0.041016, , 
92.16, 0.040988, , 
92.19, 0.040985, , 
92.22, 0.040988, , 
92.25, 0.040953, , 
92.28, 0.040905, , 
92.31, 0.040839, , 
92.34, 0.040731, , 
92.37, 0.040575, , 
92.40, 0.040499, , 
92.43, 0.040480, , 
92.46, 0.040483, , 
92.49, 0.040455, , 
92.52, 0.040442, , 
92.55, 0.040464, , 
92.58, 0.040480, , 
92.61, 0.040477, , 
92.64, 0.040515, , 
92.67, 0.040509, , 
92.70, 0.040499, , 
92.73, 0.040449, , 
92.76, 0.040461, , 
92.79, 0.040525, , 
92.82, 0.040509, , 
92.85, 0.040452, , 
92.88, 0.040388, , 
92.91, 0.040328, , 
92.94, 0.040214, , 
92.97, 0.040093, , 
93.00, 0.040043, , 
93.03, 0.040055, , 
93.06, 0.040027, , 
93.09, 0.039954, , 
93.12, 0.039989, , 
93.15, 0.040011, , 
93.18, 0.039992, , 
93.21, 0.039979, , 
93.24, 0.040008, , 
93.27, 0.040043, , 
93.30, 0.040023, , 
93.33, 0.040001, , 
93.36, 0.040030, , 
93.39, 0.040043, , 
93.42, 0.040036, , 
93.45, 0.039973, , 
93.48, 0.039970, , 
93.51, 0.040049, , 
93.54, 0.040036, , 
93.57, 0.039973, , 
93.60, 0.040011, , 
93.63, 0.039992, , 
93.66, 0.039989, , 
93.69, 0.039966, , 
93.72, 0.039989, , 
93.75, 0.039979, , 
93.78, 0.039840, , 
93.81, 0.039700, , 
93.84, 0.039621, , 
93.87, 0.039554, , 
93.91, 0.039541, , 
93.93, 0.039430, , 
93.96, 0.039395, , 
93.99, 0.039405, , 
94.02, 0.039367, , 
94.06, 0.039357, , 
94.08, 0.039373, , 
94.11, 0.039383, , 
94.14, 0.039364, , 
94.17, 0.039361, , 
94.21, 0.039357, , 
94.23, 0.039399, , 
94.26, 0.039405, , 
94.29, 0.039310, , 
94.32, 0.039202, , 
94.35, 0.039081, , 
94.38, 0.039008, , 
94.41, 0.038986, , 
94.44, 0.038980, , 
94.47, 0.039008, , 
94.50, 0.039002, , 
94.53, 0.038989, , 
94.56, 0.039015, , 
94.59, 0.039021, , 
94.63, 0.039037, , 
94.65, 0.039012, , 
94.68, 0.038999, , 
94.71, 0.039002, , 
94.74, 0.038983, , 
94.77, 0.038983, , 
94.80, 0.038967, , 
94.83, 0.038964, , 
94.86, 0.038967, , 
94.89, 0.038948, , 
94.92, 0.039021, , 
94.95, 0.039018, , 
94.98, 0.038980, , 
95.01, 0.038986, , 
95.04, 0.038999, , 
95.07, 0.039027, , 
95.10, 0.038964, , 
95.13, 0.038961, , 
95.16, 0.039012, , 
95.19, 0.038964, , 
95.22, 0.038796, , 
95.25, 0.038698, , 
95.29, 0.038675, , 
95.31, 0.038580, , 
95.34, 0.038504, , 
95.37, 0.038482, , 
95.40, 0.038491, , 
95.43, 0.038472, , 
95.46, 0.038418, , 
95.49, 0.038428, , 
95.52, 0.038482, , 
95.55, 0.038482, , 
95.58, 0.038472, , 
95.61, 0.038504, , 
95.64, 0.038517, , 
95.67, 0.038479, , 
95.71, 0.038438, , 
95.73, 0.038469, , 
95.76, 0.038485, , 
95.79, 0.038466, , 
95.82, 0.038418, , 
95.85, 0.038472, , 
95.88, 0.038526, , 
95.92, 0.038510, , 
95.94, 0.038491, , 
95.97, 0.038491, , 
96.00, 0.038510, , 
