Gradient Profiler Text Data File: 20240906_yHG008_rep2_sample_4_30C.csv
Date: 2024-09-06
Time: 18:09:11

User: jared
Experiment name: 
UV Unit: EM-1
Rotor Manufacturer: Beckman
Rotor Model: SW28.1
Speed: 28 rpm
Gradient: sucrose 10.0% to 50.0% w/v
Time: 4
w2t:  x 10^0
Sample Volume: 18 ml
Number of Tubes: 6
Volume per mm: 0.183 ml/mm

Absorbance Units Full Scale (AUFS): 2.00
Event Mark-triggered gradient; (with distance; auto start and stop)
Delay: No Delay
UV Wavelength: 254 nm
Samples / sec: 10 Hz
EM1 Speed: 0.30 mm/sec
Distance: 3.20 mm
Number: 30
Dead Volume: 0.000000 ml; Distance due to Dead Volume: 0.00 mm
Total Distance: 96.00 mm

Data Columns:
Distance(mm), Absorbance, Fraction Number, Fraction Volume(ml)
0.00, 0.060476, 0, 0.000
0.03, 0.060495, , 
0.06, 0.060540, , 
0.09, 0.060549, , 
0.12, 0.060559, , 
0.15, 0.060565, , 
0.18, 0.060549, , 
0.21, 0.060476, , 
0.24, 0.060508, , 
0.27, 0.060654, , 
0.30, 0.060774, , 
0.33, 0.060901, , 
0.36, 0.061038, , 
0.39, 0.061247, , 
0.42, 0.061358, , 
0.45, 0.061402, , 
0.48, 0.061517, , 
0.51, 0.061691, , 
0.54, 0.061995, , 
0.57, 0.063131, , 
0.60, 0.067124, , 
0.63, 0.080719, , 
0.66, 0.105540, , 
0.69, 0.151051, , 
0.72, 0.200701, , 
0.75, 0.246637, , 
0.78, 0.315132, , 
0.81, 0.376001, , 
0.84, 0.448299, , 
0.87, 0.510929, , 
0.90, 0.573771, , 
0.93, 0.647655, , 
0.96, 0.700804, , 
0.99, 0.775360, , 
1.02, 0.839437, , 
1.05, 0.903722, , 
1.08, 0.978529, , 
1.11, 1.041327, , 
1.14, 1.100021, , 
1.17, 1.149956, , 
1.20, 1.187414, , 
1.23, 1.215847, , 
1.26, 1.230784, , 
1.29, 1.241628, , 
1.32, 1.247823, , 
1.35, 1.252502, , 
1.38, 1.256924, , 
1.41, 1.259800, , 
1.44, 1.263071, , 
1.47, 1.266877, , 
1.50, 1.270138, , 
1.53, 1.273909, , 
1.56, 1.277135, , 
1.59, 1.280294, , 
1.62, 1.283441, , 
1.65, 1.286695, , 
1.68, 1.290578, , 
1.71, 1.293848, , 
1.74, 1.297077, , 
1.77, 1.300782, , 
1.80, 1.303916, , 
1.83, 1.306993, , 
1.86, 1.309984, , 
1.89, 1.312826, , 
1.92, 1.315772, , 
1.95, 1.317872, , 
1.98, 1.319997, , 
2.01, 1.321840, , 
2.04, 1.323429, , 
2.07, 1.325948, , 
2.10, 1.328333, , 
2.13, 1.331115, , 
2.16, 1.333297, , 
2.19, 1.335277, , 
2.22, 1.337396, , 
2.25, 1.339032, , 
2.28, 1.341494, , 
2.31, 1.343571, , 
2.34, 1.345503, , 
2.37, 1.347593, , 
2.40, 1.349363, , 
2.43, 1.351809, , 
2.46, 1.353953, , 
2.49, 1.356836, , 
2.52, 1.360183, , 
2.55, 1.362625, , 
2.58, 1.364855, , 
2.61, 1.366152, , 
2.64, 1.367795, , 
2.67, 1.369283, , 
2.70, 1.370733, , 
2.73, 1.372246, , 
2.76, 1.373169, , 
2.79, 1.373822, , 
2.82, 1.374225, , 
2.85, 1.374780, , 
2.88, 1.375532, , 
2.91, 1.376141, , 
2.94, 1.376696, , 
2.97, 1.376943, , 
3.00, 1.376931, , 
3.03, 1.376851, , 
3.06, 1.376807, , 
3.09, 1.376816, , 
3.12, 1.376693, , 
3.15, 1.376410, , 
3.18, 1.375827, , 
3.19, 1.375700, 1, 0.584
3.21, 1.375138, , 
3.24, 1.374463, , 
3.27, 1.373879, , 
3.30, 1.373245, , 
3.33, 1.372233, , 
3.36, 1.370999, , 
3.39, 1.369622, , 
3.42, 1.368214, , 
3.45, 1.366539, , 
3.48, 1.364998, , 
3.51, 1.362892, , 
3.55, 1.360842, , 
3.57, 1.358949, , 
3.60, 1.355993, , 
3.63, 1.353338, , 
3.66, 1.350175, , 
3.69, 1.347295, , 
3.72, 1.344142, , 
3.75, 1.340805, , 
3.78, 1.337338, , 
3.81, 1.333110, , 
3.84, 1.329332, , 
3.87, 1.325441, , 
3.90, 1.320711, , 
3.93, 1.316334, , 
3.96, 1.311703, , 
3.99, 1.306954, , 
4.02, 1.302063, , 
4.05, 1.296119, , 
4.08, 1.290774, , 
4.11, 1.284335, , 
4.14, 1.278639, , 
4.17, 1.272828, , 
4.20, 1.266928, , 
4.23, 1.259912, , 
4.26, 1.254830, , 
4.29, 1.247497, , 
4.32, 1.241045, , 
4.35, 1.234485, , 
4.38, 1.226606, , 
4.41, 1.219717, , 
4.45, 1.211631, , 
4.47, 1.205798, , 
4.50, 1.198785, , 
4.53, 1.190383, , 
4.56, 1.183021, , 
4.59, 1.174349, , 
4.62, 1.166856, , 
4.65, 1.159295, , 
4.68, 1.151638, , 
4.71, 1.143930, , 
4.74, 1.134766, , 
4.77, 1.126804, , 
4.80, 1.118916, , 
4.83, 1.109746, , 
4.86, 1.101756, , 
4.89, 1.093607, , 
4.92, 1.085350, , 
4.95, 1.076891, , 
4.98, 1.066817, , 
5.01, 1.058189, , 
5.04, 1.048236, , 
5.07, 1.039719, , 
5.10, 1.032604, , 
5.13, 1.022549, , 
5.16, 1.013823, , 
5.19, 1.003686, , 
5.22, 0.995068, , 
5.25, 0.986465, , 
5.28, 0.976299, , 
5.31, 0.968982, , 
5.34, 0.958530, , 
5.37, 0.949579, , 
5.40, 0.940796, , 
5.43, 0.930658, , 
5.46, 0.922097, , 
5.50, 0.912122, , 
5.52, 0.904975, , 
5.55, 0.896344, , 
5.58, 0.886242, , 
5.61, 0.877747, , 
5.64, 0.868060, , 
5.67, 0.859804, , 
5.70, 0.851519, , 
5.73, 0.843253, , 
5.76, 0.835085, , 
5.79, 0.825617, , 
5.82, 0.817509, , 
5.85, 0.809427, , 
5.88, 0.799978, , 
5.91, 0.791820, , 
5.94, 0.783614, , 
5.97, 0.775446, , 
6.00, 0.767354, , 
6.03, 0.757988, , 
6.06, 0.750140, , 
6.09, 0.741148, , 
6.12, 0.733523, , 
6.15, 0.727182, , 
6.18, 0.718269, , 
6.21, 0.710681, , 
6.24, 0.701740, , 
6.27, 0.693956, , 
6.30, 0.686235, , 
6.33, 0.677411, , 
6.36, 0.671226, , 
6.38, 0.665177, 2, 0.585
6.39, 0.662798, , 
6.42, 0.655778, , 
6.45, 0.648914, , 
6.48, 0.641064, , 
6.51, 0.634393, , 
6.55, 0.626765, , 
6.57, 0.621395, , 
6.60, 0.614937, , 
6.63, 0.607283, , 
6.66, 0.600961, , 
6.69, 0.593856, , 
6.72, 0.588054, , 
6.75, 0.582278, , 
6.78, 0.576322, , 
6.81, 0.570200, , 
6.84, 0.562958, , 
6.87, 0.556716, , 
6.90, 0.549557, , 
6.93, 0.544428, , 
6.96, 0.538303, , 
6.99, 0.531118, , 
7.02, 0.524974, , 
7.05, 0.517955, , 
7.08, 0.512023, , 
7.11, 0.506127, , 
7.14, 0.500239, , 
7.17, 0.493309, , 
7.20, 0.487155, , 
7.23, 0.480815, , 
7.26, 0.474547, , 
7.29, 0.468504, , 
7.32, 0.461710, , 
7.35, 0.456102, , 
7.38, 0.450767, , 
7.41, 0.445438, , 
7.44, 0.439139, , 
7.47, 0.433772, , 
7.50, 0.427656, , 
7.54, 0.422502, , 
7.56, 0.418232, , 
7.59, 0.412266, , 
7.62, 0.407289, , 
7.65, 0.401608, , 
7.68, 0.396800, , 
7.71, 0.392073, , 
7.74, 0.387430, , 
7.77, 0.382802, , 
7.80, 0.378066, , 
7.83, 0.372411, , 
7.86, 0.367548, , 
7.89, 0.361988, , 
7.92, 0.357265, , 
7.95, 0.351926, , 
7.98, 0.348063, , 
8.01, 0.343321, , 
8.04, 0.337941, , 
8.07, 0.333561, , 
8.10, 0.329307, , 
8.13, 0.324349, , 
8.16, 0.319877, , 
8.19, 0.315373, , 
8.22, 0.310916, , 
8.25, 0.305730, , 
8.28, 0.301426, , 
8.31, 0.297344, , 
8.34, 0.292804, , 
8.37, 0.288919, , 
8.40, 0.284982, , 
8.43, 0.281075, , 
8.46, 0.277233, , 
8.49, 0.272799, , 
8.52, 0.269116, , 
8.55, 0.265456, , 
8.58, 0.261168, , 
8.61, 0.258161, , 
8.64, 0.254088, , 
8.67, 0.250745, , 
8.70, 0.247458, , 
8.73, 0.243659, , 
8.76, 0.240395, , 
8.79, 0.236639, , 
8.83, 0.233461, , 
8.85, 0.230841, , 
8.88, 0.227203, , 
8.91, 0.224132, , 
8.94, 0.220649, , 
8.97, 0.217674, , 
9.00, 0.214762, , 
9.03, 0.211482, , 
9.07, 0.208780, , 
9.09, 0.205982, , 
9.12, 0.203175, , 
9.15, 0.200336, , 
9.18, 0.196996, , 
9.21, 0.194119, , 
9.24, 0.191366, , 
9.27, 0.188296, , 
9.31, 0.185676, , 
9.33, 0.183043, , 
9.36, 0.180493, , 
9.39, 0.178063, , 
9.42, 0.175322, , 
9.45, 0.172978, , 
9.48, 0.170254, , 
9.51, 0.168360, , 
9.54, 0.166070, , 
9.57, 0.163491, , 
9.60, 0.161800, 3, 0.588
9.60, 0.161477, , 
9.63, 0.159285, , 
9.66, 0.157391, , 
9.69, 0.155491, , 
9.72, 0.153671, , 
9.75, 0.151796, , 
9.78, 0.149658, , 
9.81, 0.147860, , 
9.84, 0.146052, , 
9.88, 0.144044, , 
9.90, 0.142556, , 
9.93, 0.140529, , 
9.96, 0.138861, , 
9.99, 0.136980, , 
10.02, 0.135381, , 
10.05, 0.133808, , 
10.08, 0.131924, , 
10.11, 0.130452, , 
10.14, 0.128336, , 
10.17, 0.126627, , 
10.20, 0.125003, , 
10.23, 0.123195, , 
10.26, 0.121701, , 
10.30, 0.120083, , 
10.32, 0.118900, , 
10.35, 0.117444, , 
10.38, 0.115785, , 
10.41, 0.114355, , 
10.44, 0.113032, , 
10.47, 0.111687, , 
10.50, 0.110088, , 
10.53, 0.108864, , 
10.56, 0.107465, , 
10.59, 0.106368, , 
10.62, 0.105356, , 
10.65, 0.104350, , 
10.68, 0.103329, , 
10.71, 0.102168, , 
10.74, 0.101312, , 
10.77, 0.100087, , 
10.80, 0.099063, , 
10.83, 0.097949, , 
10.86, 0.097001, , 
10.89, 0.095995, , 
10.92, 0.094831, , 
10.95, 0.093848, , 
10.98, 0.092988, , 
11.01, 0.092189, , 
11.04, 0.091380, , 
11.07, 0.090254, , 
11.10, 0.089176, , 
11.13, 0.087964, , 
11.17, 0.086981, , 
11.19, 0.086191, , 
11.22, 0.085176, , 
11.25, 0.084320, , 
11.28, 0.083270, , 
11.31, 0.082331, , 
11.34, 0.081408, , 
11.37, 0.080700, , 
11.40, 0.079898, , 
11.43, 0.078946, , 
11.46, 0.078118, , 
11.49, 0.077360, , 
11.52, 0.076501, , 
11.55, 0.075774, , 
11.58, 0.075134, , 
11.61, 0.074569, , 
11.64, 0.073954, , 
11.67, 0.073230, , 
11.70, 0.072621, , 
11.73, 0.071971, , 
11.76, 0.071375, , 
11.80, 0.070813, , 
11.82, 0.070303, , 
11.85, 0.069827, , 
11.88, 0.069300, , 
11.91, 0.068831, , 
11.94, 0.068377, , 
11.97, 0.067854, , 
12.00, 0.067293, , 
12.03, 0.066712, , 
12.06, 0.066157, , 
12.09, 0.065605, , 
12.12, 0.064964, , 
12.15, 0.064387, , 
12.18, 0.063702, , 
12.22, 0.063115, , 
12.24, 0.062614, , 
12.27, 0.061938, , 
12.30, 0.061358, , 
12.33, 0.060787, , 
12.36, 0.060118, , 
12.39, 0.059585, , 
12.42, 0.058957, , 
12.46, 0.058364, , 
12.48, 0.057954, , 
12.51, 0.057504, , 
12.54, 0.057139, , 
12.57, 0.056790, , 
12.60, 0.056299, , 
12.63, 0.055902, , 
12.66, 0.055528, , 
12.69, 0.055293, , 
12.72, 0.054970, , 
12.75, 0.054595, , 
12.78, 0.054342, , 
12.79, 0.054265, 4, 0.584
12.81, 0.053986, , 
12.84, 0.053663, , 
12.87, 0.053415, , 
12.90, 0.053212, , 
12.93, 0.053003, , 
12.96, 0.052676, , 
12.99, 0.052280, , 
13.02, 0.051871, , 
13.05, 0.051544, , 
13.08, 0.051138, , 
13.11, 0.050833, , 
13.14, 0.050516, , 
13.17, 0.050066, , 
13.20, 0.049647, , 
13.23, 0.049136, , 
13.26, 0.048841, , 
13.29, 0.048442, , 
13.32, 0.048014, , 
13.35, 0.047681, , 
13.38, 0.047300, , 
13.41, 0.046951, , 
13.44, 0.046586, , 
13.47, 0.046310, , 
13.50, 0.046069, , 
13.53, 0.045806, , 
13.56, 0.045527, , 
13.59, 0.045295, , 
13.62, 0.045007, , 
13.65, 0.044838, , 
13.68, 0.044740, , 
13.71, 0.044654, , 
13.74, 0.044566, , 
13.77, 0.044379, , 
13.80, 0.044160, , 
13.83, 0.043957, , 
13.86, 0.043830, , 
13.89, 0.043728, , 
13.92, 0.043592, , 
13.95, 0.043417, , 
13.98, 0.043310, , 
14.01, 0.043075, , 
14.04, 0.042834, , 
14.07, 0.042710, , 
14.10, 0.042491, , 
14.13, 0.042314, , 
14.16, 0.042054, , 
14.19, 0.041847, , 
14.22, 0.041686, , 
14.25, 0.041410, , 
14.28, 0.041245, , 
14.31, 0.041092, , 
14.34, 0.040851, , 
14.37, 0.040686, , 
14.40, 0.040439, , 
14.43, 0.040271, , 
14.46, 0.040166, , 
14.49, 0.039912, , 
14.52, 0.039706, , 
14.55, 0.039614, , 
14.58, 0.039557, , 
14.61, 0.039500, , 
14.64, 0.039462, , 
14.67, 0.039424, , 
14.70, 0.039313, , 
14.73, 0.039135, , 
14.76, 0.039050, , 
14.79, 0.038996, , 
14.82, 0.038986, , 
14.85, 0.038926, , 
14.88, 0.038897, , 
14.91, 0.038853, , 
14.94, 0.038736, , 
14.97, 0.038577, , 
15.00, 0.038495, , 
15.03, 0.038380, , 
15.06, 0.038301, , 
15.09, 0.038016, , 
15.12, 0.037800, , 
15.15, 0.037660, , 
15.18, 0.037489, , 
15.21, 0.037296, , 
15.24, 0.037105, , 
15.27, 0.036934, , 
15.30, 0.036737, , 
15.33, 0.036509, , 
15.36, 0.036325, , 
15.39, 0.036214, , 
15.42, 0.036049, , 
15.45, 0.035922, , 
15.48, 0.035849, , 
15.51, 0.035890, , 
15.54, 0.035827, , 
15.57, 0.035681, , 
15.60, 0.035532, , 
15.63, 0.035484, , 
15.66, 0.035415, , 
15.69, 0.035307, , 
15.72, 0.035307, , 
15.75, 0.035396, , 
15.78, 0.035358, , 
15.81, 0.035332, , 
15.84, 0.035373, , 
15.87, 0.035364, , 
15.90, 0.035364, , 
15.93, 0.035358, , 
15.96, 0.035396, , 
15.98, 0.035386, 5, 0.585
15.99, 0.035389, , 
16.02, 0.035415, , 
16.05, 0.035450, , 
16.08, 0.035462, , 
16.11, 0.035503, , 
16.14, 0.035481, , 
16.17, 0.035459, , 
16.20, 0.035443, , 
16.23, 0.035453, , 
16.26, 0.035443, , 
16.29, 0.035431, , 
16.32, 0.035465, , 
16.35, 0.035513, , 
16.38, 0.035580, , 
16.41, 0.035678, , 
16.44, 0.035859, , 
16.47, 0.035906, , 
16.50, 0.035925, , 
16.53, 0.035960, , 
16.56, 0.036011, , 
16.59, 0.036157, , 
16.62, 0.036223, , 
16.65, 0.036281, , 
16.68, 0.036433, , 
16.71, 0.036560, , 
16.75, 0.036693, , 
16.77, 0.036775, , 
16.80, 0.036864, , 
16.83, 0.037010, , 
16.86, 0.037121, , 
16.89, 0.037289, , 
16.92, 0.037429, , 
16.95, 0.037499, , 
16.98, 0.037448, , 
17.01, 0.037495, , 
17.04, 0.037737, , 
17.07, 0.037867, , 
17.10, 0.037946, , 
17.13, 0.037940, , 
17.16, 0.037949, , 
17.19, 0.037952, , 
17.22, 0.037981, , 
17.25, 0.038108, , 
17.28, 0.038314, , 
17.31, 0.038384, , 
17.34, 0.038374, , 
17.38, 0.038444, , 
17.40, 0.038498, , 
17.43, 0.038460, , 
17.46, 0.038428, , 
17.49, 0.038425, , 
17.52, 0.038444, , 
17.55, 0.038368, , 
17.59, 0.038231, , 
17.61, 0.038143, , 
17.64, 0.038066, , 
17.67, 0.037965, , 
17.70, 0.037886, , 
17.73, 0.037806, , 
17.76, 0.037695, , 
17.79, 0.037524, , 
17.82, 0.037448, , 
17.85, 0.037384, , 
17.88, 0.037204, , 
17.91, 0.037010, , 
17.94, 0.036801, , 
17.97, 0.036538, , 
18.00, 0.036325, , 
18.03, 0.036144, , 
18.06, 0.035897, , 
18.09, 0.035706, , 
18.12, 0.035434, , 
18.15, 0.035180, , 
18.18, 0.034898, , 
18.22, 0.034717, , 
18.24, 0.034542, , 
18.27, 0.034276, , 
18.30, 0.034035, , 
18.33, 0.033806, , 
18.36, 0.033575, , 
18.39, 0.033324, , 
18.42, 0.033064, , 
18.46, 0.032887, , 
18.48, 0.032687, , 
18.51, 0.032404, , 
18.54, 0.032157, , 
18.57, 0.031938, , 
18.60, 0.031726, , 
18.63, 0.031481, , 
18.66, 0.031317, , 
18.69, 0.031225, , 
18.72, 0.031018, , 
18.75, 0.030784, , 
18.78, 0.030562, , 
18.81, 0.030381, , 
18.84, 0.030146, , 
18.87, 0.029851, , 
18.90, 0.029578, , 
18.93, 0.029274, , 
18.96, 0.029077, , 
18.99, 0.028868, , 
19.02, 0.028719, , 
19.05, 0.028557, , 
19.08, 0.028281, , 
19.11, 0.028078, , 
19.14, 0.027884, , 
19.17, 0.027669, , 
19.20, 0.027542, 6, 0.588
19.20, 0.027510, , 
19.23, 0.027339, , 
19.26, 0.027190, , 
19.29, 0.027136, , 
19.32, 0.027003, , 
19.35, 0.026768, , 
19.38, 0.026625, , 
19.41, 0.026463, , 
19.44, 0.026292, , 
19.47, 0.026115, , 
19.51, 0.026045, , 
19.53, 0.026010, , 
19.56, 0.025908, , 
19.59, 0.025801, , 
19.62, 0.025693, , 
19.65, 0.025559, , 
19.68, 0.025452, , 
19.71, 0.025353, , 
19.74, 0.025280, , 
19.77, 0.025144, , 
19.80, 0.025023, , 
19.83, 0.024919, , 
19.86, 0.024798, , 
19.89, 0.024665, , 
19.92, 0.024513, , 
19.95, 0.024449, , 
19.98, 0.024437, , 
20.01, 0.024373, , 
20.04, 0.024180, , 
20.07, 0.024069, , 
20.10, 0.024031, , 
20.13, 0.023977, , 
20.16, 0.023888, , 
20.19, 0.023856, , 
20.22, 0.023786, , 
20.25, 0.023647, , 
20.28, 0.023514, , 
20.31, 0.023460, , 
20.34, 0.023447, , 
20.37, 0.023418, , 
20.40, 0.023374, , 
20.43, 0.023393, , 
20.46, 0.023422, , 
20.49, 0.023282, , 
20.52, 0.023057, , 
20.55, 0.022993, , 
20.58, 0.022977, , 
20.61, 0.022927, , 
20.64, 0.022882, , 
20.67, 0.022863, , 
20.70, 0.022889, , 
20.73, 0.022898, , 
20.76, 0.022835, , 
20.79, 0.022914, , 
20.82, 0.022914, , 
20.85, 0.022882, , 
20.88, 0.022889, , 
20.91, 0.022914, , 
20.94, 0.022882, , 
20.97, 0.022774, , 
21.00, 0.022613, , 
21.03, 0.022524, , 
21.06, 0.022505, , 
21.09, 0.022451, , 
21.13, 0.022384, , 
21.15, 0.022451, , 
21.18, 0.022473, , 
21.21, 0.022394, , 
21.24, 0.022397, , 
21.27, 0.022422, , 
21.30, 0.022429, , 
21.33, 0.022397, , 
21.36, 0.022391, , 
21.39, 0.022403, , 
21.42, 0.022419, , 
21.45, 0.022378, , 
21.48, 0.022397, , 
21.51, 0.022426, , 
21.54, 0.022372, , 
21.57, 0.022407, , 
21.60, 0.022394, , 
21.63, 0.022429, , 
21.66, 0.022416, , 
21.69, 0.022460, , 
21.72, 0.022606, , 
21.75, 0.022730, , 
21.78, 0.022784, , 
21.81, 0.022835, , 
21.84, 0.022857, , 
21.87, 0.022828, , 
21.90, 0.022828, , 
21.93, 0.022825, , 
21.96, 0.022905, , 
21.99, 0.022892, , 
22.02, 0.022863, , 
22.05, 0.022825, , 
22.08, 0.022822, , 
22.11, 0.022876, , 
22.14, 0.022857, , 
22.17, 0.022857, , 
22.20, 0.022892, , 
22.23, 0.022854, , 
22.26, 0.022813, , 
22.29, 0.022800, , 
22.32, 0.022882, , 
22.35, 0.022987, , 
22.38, 0.023069, , 
22.39, 0.023095, 7, 0.585
22.41, 0.023165, , 
22.44, 0.023295, , 
22.48, 0.023355, , 
22.50, 0.023371, , 
22.53, 0.023345, , 
22.56, 0.023387, , 
22.59, 0.023387, , 
22.62, 0.023336, , 
22.65, 0.023361, , 
22.68, 0.023482, , 
22.71, 0.023602, , 
22.74, 0.023659, , 
22.77, 0.023748, , 
22.80, 0.023837, , 
22.83, 0.023907, , 
22.86, 0.023881, , 
22.89, 0.023840, , 
22.92, 0.023866, , 
22.95, 0.023980, , 
22.98, 0.024135, , 
23.01, 0.024227, , 
23.04, 0.024316, , 
23.07, 0.024354, , 
23.10, 0.024399, , 
23.13, 0.024554, , 
23.16, 0.024738, , 
23.19, 0.024824, , 
23.22, 0.024973, , 
23.25, 0.025134, , 
23.28, 0.025391, , 
23.31, 0.025629, , 
23.34, 0.025807, , 
23.37, 0.026042, , 
23.40, 0.026343, , 
23.43, 0.026581, , 
23.46, 0.026857, , 
23.49, 0.027123, , 
23.52, 0.027466, , 
23.55, 0.027799, , 
23.58, 0.028170, , 
23.61, 0.028646, , 
23.64, 0.029074, , 
23.67, 0.029407, , 
23.70, 0.030003, , 
23.73, 0.030485, , 
23.76, 0.030847, , 
23.79, 0.031345, , 
23.82, 0.031767, , 
23.85, 0.032566, , 
23.88, 0.033150, , 
23.91, 0.033721, , 
23.94, 0.034447, , 
23.97, 0.035116, , 
24.00, 0.035795, , 
24.03, 0.036407, , 
24.06, 0.037042, , 
24.09, 0.037863, , 
24.12, 0.038580, , 
24.15, 0.039262, , 
24.18, 0.040039, , 
24.21, 0.040788, , 
24.24, 0.041511, , 
24.27, 0.042222, , 
24.30, 0.043015, , 
24.33, 0.043735, , 
24.36, 0.044439, , 
24.39, 0.045260, , 
24.42, 0.045853, , 
24.45, 0.046783, , 
24.48, 0.047478, , 
24.51, 0.048090, , 
24.54, 0.048873, , 
24.57, 0.049482, , 
24.61, 0.050136, , 
24.63, 0.050615, , 
24.66, 0.051205, , 
24.69, 0.051861, , 
24.72, 0.052483, , 
24.75, 0.053152, , 
24.78, 0.053698, , 
24.81, 0.054104, , 
24.84, 0.054627, , 
24.87, 0.055017, , 
24.90, 0.055417, , 
24.93, 0.055750, , 
24.96, 0.056051, , 
24.99, 0.056346, , 
25.02, 0.056533, , 
25.05, 0.056835, , 
25.08, 0.057060, , 
25.11, 0.057228, , 
25.14, 0.057380, , 
25.17, 0.057501, , 
25.20, 0.057615, , 
25.23, 0.057739, , 
25.26, 0.057900, , 
25.29, 0.057989, , 
25.32, 0.057916, , 
25.35, 0.057774, , 
25.39, 0.057707, , 
25.41, 0.057640, , 
25.44, 0.057580, , 
25.47, 0.057520, , 
25.50, 0.057472, , 
25.53, 0.057326, , 
25.56, 0.057139, , 
25.59, 0.057038, 8, 0.585
25.59, 0.057009, , 
25.62, 0.056882, , 
25.65, 0.056663, , 
25.68, 0.056492, , 
25.71, 0.056273, , 
25.74, 0.056051, , 
25.77, 0.055823, , 
25.81, 0.055506, , 
25.83, 0.055322, , 
25.86, 0.055093, , 
25.89, 0.054855, , 
25.92, 0.054605, , 
25.95, 0.054383, , 
25.98, 0.054215, , 
26.02, 0.053847, , 
26.04, 0.053587, , 
26.07, 0.053355, , 
26.10, 0.053057, , 
26.13, 0.052813, , 
26.16, 0.052521, , 
26.19, 0.052346, , 
26.22, 0.052181, , 
26.25, 0.051877, , 
26.28, 0.051617, , 
26.31, 0.051442, , 
26.34, 0.051211, , 
26.37, 0.050906, , 
26.40, 0.050583, , 
26.43, 0.050339, , 
26.46, 0.050063, , 
26.49, 0.049815, , 
26.52, 0.049590, , 
26.55, 0.049339, , 
26.58, 0.049111, , 
26.61, 0.048746, , 
26.65, 0.048486, , 
26.67, 0.048299, , 
26.70, 0.048017, , 
26.73, 0.047734, , 
26.76, 0.047471, , 
26.79, 0.047290, , 
26.82, 0.047027, , 
26.85, 0.046672, , 
26.88, 0.046434, , 
26.91, 0.046168, , 
26.94, 0.045847, , 
26.97, 0.045622, , 
27.00, 0.045381, , 
27.03, 0.045172, , 
27.06, 0.044959, , 
27.09, 0.044667, , 
27.12, 0.044458, , 
27.15, 0.044233, , 
27.18, 0.043973, , 
27.21, 0.043738, , 
27.24, 0.043490, , 
27.27, 0.043322, , 
27.30, 0.043091, , 
27.33, 0.042812, , 
27.36, 0.042599, , 
27.39, 0.042380, , 
27.42, 0.042139, , 
27.45, 0.041857, , 
27.48, 0.041679, , 
27.51, 0.041511, , 
27.54, 0.041251, , 
27.57, 0.041032, , 
27.60, 0.040877, , 
27.63, 0.040731, , 
27.66, 0.040461, , 
27.69, 0.040236, , 
27.72, 0.040154, , 
27.75, 0.040046, , 
27.78, 0.039897, , 
27.81, 0.039722, , 
27.84, 0.039633, , 
27.87, 0.039494, , 
27.91, 0.039269, , 
27.93, 0.039139, , 
27.96, 0.039034, , 
27.99, 0.038942, , 
28.02, 0.038866, , 
28.05, 0.038774, , 
28.08, 0.038682, , 
28.11, 0.038615, , 
28.14, 0.038479, , 
28.17, 0.038422, , 
28.20, 0.038418, , 
28.23, 0.038409, , 
28.26, 0.038374, , 
28.29, 0.038377, , 
28.32, 0.038406, , 
28.35, 0.038396, , 
28.38, 0.038377, , 
28.41, 0.038361, , 
28.44, 0.038422, , 
28.47, 0.038403, , 
28.50, 0.038377, , 
28.53, 0.038412, , 
28.56, 0.038444, , 
28.59, 0.038425, , 
28.62, 0.038390, , 
28.65, 0.038380, , 
28.68, 0.038393, , 
28.71, 0.038406, , 
28.74, 0.038520, , 
28.77, 0.038694, , 
28.79, 0.038748, 9, 0.586
28.80, 0.038796, , 
28.83, 0.038878, , 
28.86, 0.038935, , 
28.89, 0.039094, , 
28.92, 0.039234, , 
28.95, 0.039313, , 
28.98, 0.039342, , 
29.01, 0.039433, , 
29.04, 0.039630, , 
29.07, 0.039744, , 
29.10, 0.039982, , 
29.13, 0.040214, , 
29.16, 0.040439, , 
29.19, 0.040667, , 
29.22, 0.040861, , 
29.25, 0.041146, , 
29.28, 0.041394, , 
29.31, 0.041657, , 
29.35, 0.041993, , 
29.37, 0.042368, , 
29.40, 0.042827, , 
29.43, 0.043230, , 
29.46, 0.043789, , 
29.49, 0.044318, , 
29.52, 0.044915, , 
29.55, 0.045435, , 
29.58, 0.046237, , 
29.61, 0.047202, , 
29.64, 0.048102, , 
29.67, 0.049022, , 
29.70, 0.050199, , 
29.73, 0.051290, , 
29.76, 0.052454, , 
29.79, 0.053758, , 
29.82, 0.055290, , 
29.85, 0.056924, , 
29.88, 0.058928, , 
29.91, 0.060844, , 
29.94, 0.063017, , 
29.97, 0.065710, , 
30.00, 0.068203, , 
30.03, 0.071289, , 
30.06, 0.074217, , 
30.10, 0.077449, , 
30.12, 0.080840, , 
30.15, 0.084431, , 
30.18, 0.088881, , 
30.21, 0.092979, , 
30.24, 0.097293, , 
30.27, 0.102663, , 
30.30, 0.107541, , 
30.33, 0.112677, , 
30.36, 0.117961, , 
30.39, 0.123468, , 
30.42, 0.130132, , 
30.45, 0.136025, , 
30.48, 0.143108, , 
30.52, 0.149347, , 
30.54, 0.154689, , 
30.57, 0.162222, , 
30.60, 0.168579, , 
30.63, 0.174977, , 
30.66, 0.182478, , 
30.69, 0.188917, , 
30.73, 0.196447, , 
30.75, 0.201894, , 
30.78, 0.209481, , 
30.81, 0.215831, , 
30.84, 0.222016, , 
30.87, 0.229112, , 
30.90, 0.235180, , 
30.93, 0.239884, , 
30.96, 0.246694, , 
30.99, 0.252156, , 
31.02, 0.258208, , 
31.05, 0.263112, , 
31.08, 0.268584, , 
31.11, 0.273040, , 
31.14, 0.276605, , 
31.17, 0.281379, , 
31.20, 0.285201, , 
31.23, 0.288732, , 
31.26, 0.292532, , 
31.29, 0.295491, , 
31.32, 0.298612, , 
31.35, 0.300595, , 
31.38, 0.302723, , 
31.41, 0.304763, , 
31.44, 0.306181, , 
31.47, 0.307579, , 
31.50, 0.308582, , 
31.53, 0.309286, , 
31.56, 0.309749, , 
31.59, 0.310031, , 
31.62, 0.310111, , 
31.65, 0.309895, , 
31.68, 0.309422, , 
31.71, 0.308696, , 
31.74, 0.307938, , 
31.77, 0.306923, , 
31.80, 0.305594, , 
31.83, 0.304493, , 
31.86, 0.302707, , 
31.89, 0.300966, , 
31.92, 0.299180, , 
31.95, 0.296966, , 
31.98, 0.294892, , 
31.99, 0.294524, 10, 0.585
32.01, 0.292437, , 
32.04, 0.290340, , 
32.07, 0.288056, , 
32.10, 0.285176, , 
32.13, 0.282578, , 
32.16, 0.279558, , 
32.19, 0.276923, , 
32.22, 0.274207, , 
32.25, 0.271426, , 
32.28, 0.268603, , 
32.31, 0.265332, , 
32.34, 0.262509, , 
32.37, 0.259601, , 
32.40, 0.256191, , 
32.43, 0.253187, , 
32.46, 0.250129, , 
32.49, 0.247135, , 
32.52, 0.244223, , 
32.55, 0.241321, , 
32.58, 0.237863, , 
32.61, 0.234929, , 
32.64, 0.231580, , 
32.67, 0.228754, , 
32.70, 0.225842, , 
32.73, 0.222438, , 
32.76, 0.220034, , 
32.79, 0.216688, , 
32.82, 0.213814, , 
32.85, 0.210984, , 
32.88, 0.207673, , 
32.91, 0.204837, , 
32.95, 0.201580, , 
32.97, 0.199280, , 
33.00, 0.196517, , 
33.03, 0.193282, , 
33.06, 0.190525, , 
33.09, 0.187281, , 
33.12, 0.184521, , 
33.15, 0.181853, , 
33.18, 0.179198, , 
33.21, 0.176528, , 
33.24, 0.173549, , 
33.27, 0.171040, , 
33.30, 0.168487, , 
33.33, 0.165559, , 
33.36, 0.163101, , 
33.39, 0.160646, , 
33.42, 0.158213, , 
33.45, 0.155843, , 
33.48, 0.153249, , 
33.51, 0.151000, , 
33.54, 0.148383, , 
33.57, 0.146194, , 
33.60, 0.144402, , 
33.63, 0.141862, , 
33.66, 0.139730, , 
33.69, 0.137389, , 
33.72, 0.135423, , 
33.75, 0.133421, , 
33.78, 0.131090, , 
33.81, 0.129485, , 
33.84, 0.127207, , 
33.87, 0.125285, , 
33.90, 0.123417, , 
33.93, 0.121330, , 
33.96, 0.119582, , 
33.99, 0.117498, , 
34.02, 0.116017, , 
34.05, 0.114275, , 
34.08, 0.112293, , 
34.11, 0.110539, , 
34.14, 0.108835, , 
34.17, 0.106961, , 
34.20, 0.105359, , 
34.23, 0.103719, , 
34.26, 0.102146, , 
34.29, 0.100674, , 
34.32, 0.098983, , 
34.35, 0.097489, , 
34.38, 0.095789, , 
34.41, 0.094425, , 
34.44, 0.093306, , 
34.47, 0.091755, , 
34.50, 0.090518, , 
34.54, 0.089141, , 
34.56, 0.087939, , 
34.59, 0.086692, , 
34.62, 0.085281, , 
34.65, 0.084126, , 
34.68, 0.083171, , 
34.71, 0.081852, , 
34.74, 0.080723, , 
34.77, 0.079514, , 
34.80, 0.078699, , 
34.83, 0.077424, , 
34.86, 0.076212, , 
34.89, 0.075226, , 
34.92, 0.074236, , 
34.95, 0.073310, , 
34.98, 0.072374, , 
35.01, 0.071245, , 
35.04, 0.070246, , 
35.07, 0.069256, , 
35.10, 0.068197, , 
35.13, 0.067400, , 
35.16, 0.066620, , 
35.19, 0.065830, , 
35.20, 0.065697, 11, 0.588
35.22, 0.065047, , 
35.25, 0.064165, , 
35.28, 0.063423, , 
35.31, 0.062674, , 
35.34, 0.061976, , 
35.37, 0.061412, , 
35.40, 0.060641, , 
35.43, 0.060048, , 
35.46, 0.059448, , 
35.49, 0.058751, , 
35.52, 0.058170, , 
35.55, 0.057482, , 
35.58, 0.056892, , 
35.61, 0.056416, , 
35.64, 0.055769, , 
35.67, 0.055227, , 
35.70, 0.054656, , 
35.73, 0.054012, , 
35.76, 0.053460, , 
35.79, 0.052892, , 
35.82, 0.052524, , 
35.85, 0.051978, , 
35.88, 0.051484, , 
35.91, 0.050957, , 
35.94, 0.050561, , 
35.97, 0.050158, , 
36.00, 0.049701, , 
36.03, 0.049225, , 
36.06, 0.048762, , 
36.09, 0.048321, , 
36.12, 0.047877, , 
36.15, 0.047474, , 
36.18, 0.047189, , 
36.21, 0.046849, , 
36.24, 0.046450, , 
36.27, 0.046066, , 
36.30, 0.045758, , 
36.33, 0.045463, , 
36.36, 0.045061, , 
36.39, 0.044788, , 
36.42, 0.044563, , 
36.45, 0.044182, , 
36.48, 0.043849, , 
36.51, 0.043554, , 
36.54, 0.043335, , 
36.57, 0.043065, , 
36.60, 0.042694, , 
36.63, 0.042431, , 
36.66, 0.042171, , 
36.69, 0.041854, , 
36.72, 0.041521, , 
36.75, 0.041213, , 
36.78, 0.040921, , 
36.81, 0.040639, , 
36.84, 0.040445, , 
36.87, 0.040138, , 
36.90, 0.039833, , 
36.93, 0.039519, , 
36.96, 0.039243, , 
36.99, 0.038951, , 
37.02, 0.038672, , 
37.06, 0.038301, , 
37.08, 0.038060, , 
37.11, 0.037816, , 
37.14, 0.037572, , 
37.17, 0.037305, , 
37.20, 0.037026, , 
37.23, 0.036842, , 
37.26, 0.036658, , 
37.29, 0.036373, , 
37.32, 0.036154, , 
37.35, 0.035919, , 
37.38, 0.035681, , 
37.41, 0.035434, , 
37.44, 0.035189, , 
37.47, 0.035056, , 
37.50, 0.034888, , 
37.53, 0.034669, , 
37.56, 0.034533, , 
37.59, 0.034403, , 
37.62, 0.034219, , 
37.65, 0.033990, , 
37.68, 0.033908, , 
37.71, 0.033791, , 
37.74, 0.033623, , 
37.77, 0.033448, , 
37.80, 0.033289, , 
37.83, 0.033125, , 
37.86, 0.032963, , 
37.89, 0.032830, , 
37.92, 0.032680, , 
37.95, 0.032535, , 
37.98, 0.032376, , 
38.01, 0.032141, , 
38.04, 0.031967, , 
38.07, 0.031897, , 
38.10, 0.031789, , 
38.13, 0.031681, , 
38.16, 0.031564, , 
38.19, 0.031380, , 
38.22, 0.031291, , 
38.25, 0.031205, , 
38.28, 0.031101, , 
38.31, 0.031022, , 
38.34, 0.030841, , 
38.37, 0.030711, , 
38.39, 0.030666, 12, 0.585
38.40, 0.030666, , 
38.43, 0.030524, , 
38.46, 0.030390, , 
38.49, 0.030308, , 
38.52, 0.030286, , 
38.55, 0.030254, , 
38.58, 0.030102, , 
38.61, 0.029937, , 
38.64, 0.029838, , 
38.67, 0.029759, , 
38.70, 0.029632, , 
38.73, 0.029470, , 
38.76, 0.029375, , 
38.79, 0.029293, , 
38.82, 0.029217, , 
38.85, 0.029125, , 
38.88, 0.028995, , 
38.91, 0.028890, , 
38.94, 0.028766, , 
38.97, 0.028681, , 
39.00, 0.028700, , 
39.03, 0.028706, , 
39.06, 0.028668, , 
39.09, 0.028633, , 
39.12, 0.028633, , 
39.15, 0.028598, , 
39.18, 0.028503, , 
39.21, 0.028357, , 
39.24, 0.028335, , 
39.27, 0.028294, , 
39.30, 0.028221, , 
39.33, 0.028240, , 
39.36, 0.028249, , 
39.39, 0.028240, , 
39.42, 0.028221, , 
39.46, 0.028208, , 
39.48, 0.028148, , 
39.51, 0.028049, , 
39.54, 0.027881, , 
39.57, 0.027761, , 
39.60, 0.027777, , 
39.63, 0.027748, , 
39.66, 0.027758, , 
39.69, 0.027808, , 
39.72, 0.027739, , 
39.75, 0.027704, , 
39.78, 0.027662, , 
39.81, 0.027488, , 
39.84, 0.027434, , 
39.88, 0.027314, , 
39.90, 0.027288, , 
39.93, 0.027269, , 
39.96, 0.027260, , 
39.99, 0.027241, , 
40.02, 0.027212, , 
40.05, 0.027231, , 
40.08, 0.027228, , 
40.11, 0.027193, , 
40.14, 0.027111, , 
40.17, 0.027009, , 
40.20, 0.026930, , 
40.23, 0.026800, , 
40.26, 0.026771, , 
40.30, 0.026768, , 
40.32, 0.026739, , 
40.35, 0.026736, , 
40.38, 0.026711, , 
40.41, 0.026749, , 
40.44, 0.026771, , 
40.47, 0.026758, , 
40.50, 0.026746, , 
40.53, 0.026797, , 
40.56, 0.026987, , 
40.59, 0.027072, , 
40.62, 0.027142, , 
40.65, 0.027206, , 
40.68, 0.027269, , 
40.71, 0.027231, , 
40.74, 0.027228, , 
40.77, 0.027301, , 
40.80, 0.027396, , 
40.83, 0.027513, , 
40.86, 0.027609, , 
40.89, 0.027761, , 
40.92, 0.027929, , 
40.95, 0.028094, , 
40.98, 0.028297, , 
41.01, 0.028557, , 
41.04, 0.028684, , 
41.07, 0.028868, , 
41.10, 0.029179, , 
41.13, 0.029461, , 
41.16, 0.029683, , 
41.19, 0.029889, , 
41.22, 0.030178, , 
41.25, 0.030489, , 
41.28, 0.030809, , 
41.31, 0.031044, , 
41.35, 0.031336, , 
41.37, 0.031767, , 
41.40, 0.032141, , 
41.43, 0.032516, , 
41.46, 0.033058, , 
41.49, 0.033518, , 
41.52, 0.034032, , 
41.56, 0.034324, , 
41.58, 0.034828, , 
41.59, 0.035120, 13, 0.586
41.61, 0.035497, , 
41.64, 0.036055, , 
41.67, 0.036741, , 
41.70, 0.037321, , 
41.73, 0.037987, , 
41.77, 0.038669, , 
41.79, 0.039189, , 
41.82, 0.039931, , 
41.85, 0.040560, , 
41.88, 0.041264, , 
41.91, 0.041822, , 
41.94, 0.042643, , 
41.97, 0.043373, , 
42.00, 0.044109, , 
42.03, 0.044978, , 
42.06, 0.045714, , 
42.09, 0.046453, , 
42.12, 0.047065, , 
42.15, 0.047842, , 
42.18, 0.048534, , 
42.21, 0.049232, , 
42.24, 0.050063, , 
42.27, 0.050745, , 
42.30, 0.051484, , 
42.33, 0.052175, , 
42.36, 0.052749, , 
42.39, 0.053415, , 
42.42, 0.054037, , 
42.45, 0.054618, , 
42.48, 0.055211, , 
42.51, 0.055604, , 
42.54, 0.056219, , 
42.57, 0.056667, , 
42.60, 0.057142, , 
42.63, 0.057720, , 
42.66, 0.058154, , 
42.69, 0.058605, , 
42.72, 0.058903, , 
42.75, 0.059280, , 
42.78, 0.059670, , 
42.81, 0.059962, , 
42.84, 0.060159, , 
42.87, 0.060267, , 
42.90, 0.060375, , 
42.93, 0.060508, , 
42.96, 0.060647, , 
42.99, 0.060765, , 
43.02, 0.060790, , 
43.05, 0.060685, , 
43.08, 0.060559, , 
43.11, 0.060460, , 
43.14, 0.060305, , 
43.17, 0.060115, , 
43.20, 0.059861, , 
43.23, 0.059636, , 
43.26, 0.059474, , 
43.29, 0.059255, , 
43.32, 0.058947, , 
43.35, 0.058659, , 
43.38, 0.058326, , 
43.41, 0.057894, , 
43.44, 0.057475, , 
43.47, 0.057177, , 
43.50, 0.056873, , 
43.53, 0.056460, , 
43.56, 0.056092, , 
43.59, 0.055747, , 
43.62, 0.055233, , 
43.65, 0.054760, , 
43.68, 0.054326, , 
43.71, 0.053907, , 
43.74, 0.053409, , 
43.77, 0.052733, , 
43.80, 0.052267, , 
43.83, 0.051664, , 
43.86, 0.051179, , 
43.89, 0.050688, , 
43.92, 0.050148, , 
43.95, 0.049736, , 
43.98, 0.049270, , 
44.01, 0.048981, , 
44.04, 0.048632, , 
44.07, 0.048251, , 
44.10, 0.047912, , 
44.13, 0.047414, , 
44.16, 0.046989, , 
44.19, 0.046577, , 
44.22, 0.046171, , 
44.25, 0.045803, , 
44.28, 0.045409, , 
44.31, 0.045083, , 
44.34, 0.044705, , 
44.37, 0.044318, , 
44.40, 0.044020, , 
44.43, 0.043770, , 
44.46, 0.043452, , 
44.49, 0.043129, , 
44.52, 0.042767, , 
44.55, 0.042469, , 
44.58, 0.042133, , 
44.61, 0.041847, , 
44.64, 0.041568, , 
44.67, 0.041172, , 
44.70, 0.040835, , 
44.73, 0.040455, , 
44.76, 0.040204, , 
44.79, 0.040043, 14, 0.584
44.79, 0.040004, , 
44.82, 0.039748, , 
44.86, 0.039605, , 
44.88, 0.039345, , 
44.91, 0.039139, , 
44.94, 0.038878, , 
44.97, 0.038561, , 
45.00, 0.038317, , 
45.03, 0.038085, , 
45.06, 0.037876, , 
45.09, 0.037613, , 
45.12, 0.037442, , 
45.15, 0.037327, , 
45.18, 0.037131, , 
45.21, 0.036940, , 
45.24, 0.036833, , 
45.27, 0.036680, , 
45.30, 0.036461, , 
45.33, 0.036189, , 
45.36, 0.036055, , 
45.39, 0.035935, , 
45.42, 0.035748, , 
45.45, 0.035532, , 
45.48, 0.035345, , 
45.51, 0.035063, , 
45.54, 0.034894, , 
45.57, 0.034834, , 
45.60, 0.034790, , 
45.63, 0.034628, , 
45.66, 0.034390, , 
45.69, 0.034254, , 
45.72, 0.034136, , 
45.75, 0.033965, , 
45.78, 0.033845, , 
45.81, 0.033765, , 
45.84, 0.033661, , 
45.87, 0.033524, , 
45.90, 0.033337, , 
45.93, 0.033251, , 
45.96, 0.033182, , 
45.99, 0.033023, , 
46.02, 0.032893, , 
46.05, 0.032769, , 
46.08, 0.032684, , 
46.11, 0.032538, , 
46.14, 0.032389, , 
46.17, 0.032293, , 
46.20, 0.032262, , 
46.23, 0.032195, , 
46.26, 0.032103, , 
46.29, 0.031973, , 
46.32, 0.031884, , 
46.35, 0.031764, , 
46.38, 0.031659, , 
46.41, 0.031539, , 
46.44, 0.031380, , 
46.47, 0.031297, , 
46.50, 0.031221, , 
46.53, 0.031186, , 
46.56, 0.031110, , 
46.59, 0.030968, , 
46.62, 0.030825, , 
46.65, 0.030749, , 
46.68, 0.030704, , 
46.71, 0.030562, , 
46.75, 0.030387, , 
46.77, 0.030308, , 
46.80, 0.030295, , 
46.83, 0.030210, , 
46.86, 0.030098, , 
46.89, 0.029968, , 
46.92, 0.029880, , 
46.96, 0.029838, , 
46.98, 0.029753, , 
47.01, 0.029753, , 
47.04, 0.029762, , 
47.07, 0.029654, , 
47.10, 0.029518, , 
47.13, 0.029470, , 
47.17, 0.029328, , 
47.19, 0.029267, , 
47.22, 0.029210, , 
47.25, 0.029223, , 
47.28, 0.029248, , 
47.31, 0.029204, , 
47.34, 0.029191, , 
47.37, 0.029217, , 
47.40, 0.029236, , 
47.43, 0.029182, , 
47.46, 0.029023, , 
47.49, 0.028944, , 
47.52, 0.028855, , 
47.55, 0.028757, , 
47.58, 0.028687, , 
47.61, 0.028741, , 
47.64, 0.028687, , 
47.67, 0.028687, , 
47.70, 0.028725, , 
47.73, 0.028693, , 
47.76, 0.028547, , 
47.79, 0.028398, , 
47.82, 0.028325, , 
47.85, 0.028297, , 
47.88, 0.028275, , 
47.91, 0.028221, , 
47.94, 0.028214, , 
47.97, 0.028230, , 
47.99, 0.028233, 15, 0.586
48.00, 0.028218, , 
48.03, 0.028233, , 
48.06, 0.028303, , 
48.09, 0.028351, , 
48.12, 0.028357, , 
48.15, 0.028313, , 
48.18, 0.028297, , 
48.21, 0.028256, , 
48.24, 0.028170, , 
48.27, 0.028173, , 
48.30, 0.028211, , 
48.33, 0.028243, , 
48.36, 0.028265, , 
48.39, 0.028221, , 
48.42, 0.028300, , 
48.45, 0.028329, , 
48.48, 0.028322, , 
48.51, 0.028294, , 
48.54, 0.028354, , 
48.57, 0.028471, , 
48.60, 0.028601, , 
48.63, 0.028658, , 
48.66, 0.028690, , 
48.69, 0.028744, , 
48.72, 0.028808, , 
48.75, 0.028795, , 
48.78, 0.028868, , 
48.81, 0.028919, , 
48.84, 0.029004, , 
48.87, 0.029118, , 
48.90, 0.029255, , 
48.93, 0.029439, , 
48.96, 0.029629, , 
48.99, 0.029743, , 
49.02, 0.029845, , 
49.05, 0.030041, , 
49.08, 0.030197, , 
49.11, 0.030422, , 
49.14, 0.030669, , 
49.17, 0.030898, , 
49.20, 0.031291, , 
49.23, 0.031688, , 
49.26, 0.032106, , 
49.29, 0.032582, , 
49.32, 0.032994, , 
49.35, 0.033461, , 
49.38, 0.033949, , 
49.41, 0.034444, , 
49.44, 0.035088, , 
49.47, 0.035700, , 
49.50, 0.036385, , 
49.53, 0.037058, , 
49.56, 0.037679, , 
49.59, 0.038602, , 
49.62, 0.039380, , 
49.65, 0.040274, , 
49.68, 0.041118, , 
49.71, 0.042101, , 
49.74, 0.043291, , 
49.77, 0.044052, , 
49.80, 0.045118, , 
49.83, 0.046037, , 
49.86, 0.046932, , 
49.89, 0.047861, , 
49.92, 0.048984, , 
49.95, 0.050018, , 
49.98, 0.051030, , 
50.01, 0.052181, , 
50.04, 0.053200, , 
50.07, 0.054250, , 
50.10, 0.055265, , 
50.13, 0.056248, , 
50.16, 0.057403, , 
50.19, 0.058402, , 
50.22, 0.059398, , 
50.25, 0.060168, , 
50.28, 0.060781, , 
50.31, 0.061713, , 
50.34, 0.062551, , 
50.37, 0.063337, , 
50.40, 0.063972, , 
50.43, 0.064520, , 
50.47, 0.065082, , 
50.49, 0.065535, , 
50.52, 0.065976, , 
50.55, 0.066452, , 
50.58, 0.066871, , 
50.61, 0.067118, , 
50.64, 0.067274, , 
50.67, 0.067483, , 
50.70, 0.067597, , 
50.73, 0.067610, , 
50.76, 0.067581, , 
50.79, 0.067616, , 
50.82, 0.067527, , 
50.85, 0.067413, , 
50.88, 0.067305, , 
50.91, 0.067137, , 
50.94, 0.066953, , 
50.97, 0.066677, , 
51.00, 0.066468, , 
51.03, 0.066176, , 
51.06, 0.065770, , 
51.09, 0.065266, , 
51.12, 0.064882, , 
51.15, 0.064409, , 
51.18, 0.063921, , 
51.19, 0.063829, 16, 0.585
51.21, 0.063467, , 
51.24, 0.063122, , 
51.27, 0.062725, , 
51.30, 0.062183, , 
51.33, 0.061675, , 
51.36, 0.061247, , 
51.39, 0.060787, , 
51.43, 0.060330, , 
51.45, 0.059845, , 
51.48, 0.059401, , 
51.51, 0.058998, , 
51.54, 0.058462, , 
51.57, 0.058024, , 
51.60, 0.057514, , 
51.63, 0.057133, , 
51.66, 0.056692, , 
51.69, 0.056162, , 
51.72, 0.055747, , 
51.75, 0.055319, , 
51.78, 0.054852, , 
51.81, 0.054535, , 
51.84, 0.054215, , 
51.87, 0.053913, , 
51.90, 0.053463, , 
51.93, 0.052965, , 
51.96, 0.052546, , 
51.99, 0.052128, , 
52.02, 0.051582, , 
52.05, 0.051189, , 
52.08, 0.050910, , 
52.11, 0.050535, , 
52.14, 0.050145, , 
52.17, 0.049768, , 
52.20, 0.049305, , 
52.23, 0.048876, , 
52.26, 0.048543, , 
52.29, 0.048182, , 
52.32, 0.047906, , 
52.35, 0.047582, , 
52.38, 0.047259, , 
52.41, 0.046954, , 
52.44, 0.046650, , 
52.47, 0.046399, , 
52.50, 0.046050, , 
52.53, 0.045692, , 
52.56, 0.045425, , 
52.59, 0.045061, , 
52.62, 0.044794, , 
52.65, 0.044667, , 
52.69, 0.044512, , 
52.71, 0.044356, , 
52.74, 0.044122, , 
52.77, 0.043903, , 
52.80, 0.043738, , 
52.83, 0.043465, , 
52.86, 0.043249, , 
52.89, 0.043024, , 
52.92, 0.042834, , 
52.95, 0.042656, , 
52.98, 0.042447, , 
53.01, 0.042295, , 
53.04, 0.042066, , 
53.07, 0.041809, , 
53.10, 0.041638, , 
53.13, 0.041391, , 
53.16, 0.041245, , 
53.19, 0.041010, , 
53.22, 0.040864, , 
53.25, 0.040677, , 
53.28, 0.040404, , 
53.31, 0.040236, , 
53.34, 0.040055, , 
53.37, 0.039906, , 
53.40, 0.039722, , 
53.43, 0.039535, , 
53.46, 0.039433, , 
53.49, 0.039392, , 
53.52, 0.039269, , 
53.55, 0.039062, , 
53.58, 0.038955, , 
53.61, 0.038916, , 
53.64, 0.038774, , 
53.67, 0.038545, , 
53.70, 0.038457, , 
53.73, 0.038311, , 
53.76, 0.038146, , 
53.79, 0.037927, , 
53.82, 0.037908, , 
53.85, 0.037838, , 
53.88, 0.037797, , 
53.91, 0.037638, , 
53.94, 0.037521, , 
53.97, 0.037442, , 
54.00, 0.037248, , 
54.03, 0.037032, , 
54.06, 0.036937, , 
54.09, 0.036813, , 
54.12, 0.036744, , 
54.15, 0.036721, , 
54.18, 0.036699, , 
54.21, 0.036553, , 
54.24, 0.036411, , 
54.27, 0.036293, , 
54.30, 0.036300, , 
54.33, 0.036290, , 
54.36, 0.036249, , 
54.39, 0.036201, 17, 0.587
54.40, 0.036195, , 
54.42, 0.036227, , 
54.45, 0.036255, , 
54.48, 0.036265, , 
54.51, 0.036265, , 
54.54, 0.036284, , 
54.57, 0.036243, , 
54.60, 0.036093, , 
54.63, 0.035948, , 
54.66, 0.035837, , 
54.69, 0.035776, , 
54.72, 0.035745, , 
54.75, 0.035821, , 
54.78, 0.035948, , 
54.81, 0.036052, , 
54.84, 0.036141, , 
54.87, 0.036204, , 
54.90, 0.036243, , 
54.93, 0.036265, , 
54.96, 0.036262, , 
54.99, 0.036262, , 
55.02, 0.036255, , 
55.05, 0.036223, , 
55.08, 0.036252, , 
55.11, 0.036414, , 
55.14, 0.036576, , 
55.17, 0.036721, , 
55.20, 0.036867, , 
55.23, 0.037010, , 
55.26, 0.037299, , 
55.29, 0.037454, , 
55.32, 0.037711, , 
55.35, 0.037968, , 
55.38, 0.038212, , 
55.41, 0.038507, , 
55.44, 0.038913, , 
55.47, 0.039332, , 
55.50, 0.039792, , 
55.53, 0.040293, , 
55.56, 0.040740, , 
55.59, 0.041270, , 
55.62, 0.041914, , 
55.65, 0.042374, , 
55.68, 0.043138, , 
55.71, 0.043823, , 
55.74, 0.044512, , 
55.77, 0.045343, , 
55.80, 0.046006, , 
55.83, 0.046796, , 
55.86, 0.047642, , 
55.89, 0.048458, , 
55.92, 0.049292, , 
55.95, 0.050164, , 
55.98, 0.051024, , 
56.01, 0.051867, , 
56.04, 0.052940, , 
56.07, 0.053923, , 
56.10, 0.055106, , 
56.13, 0.056083, , 
56.16, 0.057038, , 
56.19, 0.057951, , 
56.22, 0.058957, , 
56.25, 0.059816, , 
56.28, 0.060787, , 
56.31, 0.061234, , 
56.34, 0.062059, , 
56.37, 0.063033, , 
56.40, 0.063750, , 
56.43, 0.064406, , 
56.46, 0.065113, , 
56.49, 0.065713, , 
56.53, 0.066408, , 
56.55, 0.066849, , 
56.58, 0.067274, , 
56.61, 0.067781, , 
56.64, 0.068231, , 
56.67, 0.068606, , 
56.70, 0.068853, , 
56.74, 0.069091, , 
56.76, 0.069240, , 
56.79, 0.069329, , 
56.82, 0.069319, , 
56.85, 0.069358, , 
56.88, 0.069386, , 
56.91, 0.069383, , 
56.95, 0.069367, , 
56.97, 0.069294, , 
57.00, 0.069218, , 
57.03, 0.069056, , 
57.06, 0.068758, , 
57.09, 0.068498, , 
57.12, 0.068222, , 
57.16, 0.067949, , 
57.18, 0.067645, , 
57.21, 0.067248, , 
57.24, 0.066896, , 
57.27, 0.066395, , 
57.30, 0.065916, , 
57.33, 0.065481, , 
57.36, 0.065072, , 
57.39, 0.064650, , 
57.42, 0.064194, , 
57.45, 0.063708, , 
57.48, 0.063309, , 
57.51, 0.062773, , 
57.54, 0.062329, , 
57.57, 0.061837, , 
57.59, 0.061497, 18, 0.585
57.60, 0.061225, , 
57.63, 0.060768, , 
57.66, 0.060146, , 
57.69, 0.059686, , 
57.72, 0.059271, , 
57.75, 0.058741, , 
57.78, 0.058240, , 
57.81, 0.057758, , 
57.84, 0.057377, , 
57.87, 0.056895, , 
57.90, 0.056407, , 
57.93, 0.056070, , 
57.96, 0.055734, , 
57.99, 0.055461, , 
58.02, 0.055017, , 
58.05, 0.054652, , 
58.08, 0.054212, , 
58.11, 0.053723, , 
58.14, 0.053419, , 
58.17, 0.053117, , 
58.20, 0.052756, , 
58.24, 0.052369, , 
58.26, 0.052067, , 
58.29, 0.051798, , 
58.32, 0.051496, , 
58.35, 0.051122, , 
58.38, 0.050830, , 
58.41, 0.050554, , 
58.44, 0.050307, , 
58.47, 0.050031, , 
58.50, 0.049822, , 
58.53, 0.049628, , 
58.56, 0.049384, , 
58.59, 0.049060, , 
58.62, 0.048908, , 
58.65, 0.048677, , 
58.68, 0.048477, , 
58.71, 0.048261, , 
58.74, 0.047998, , 
58.77, 0.047855, , 
58.80, 0.047661, , 
58.83, 0.047468, , 
58.86, 0.047319, , 
58.89, 0.047129, , 
58.92, 0.046878, , 
58.95, 0.046694, , 
58.98, 0.046583, , 
59.01, 0.046440, , 
59.04, 0.046240, , 
59.07, 0.045930, , 
59.10, 0.045812, , 
59.13, 0.045660, , 
59.16, 0.045467, , 
59.19, 0.045336, , 
59.22, 0.045181, , 
59.25, 0.045061, , 
59.28, 0.044861, , 
59.31, 0.044731, , 
59.34, 0.044645, , 
59.37, 0.044531, , 
59.40, 0.044391, , 
59.43, 0.044293, , 
59.46, 0.044242, , 
59.49, 0.044172, , 
59.52, 0.044045, , 
59.55, 0.043941, , 
59.58, 0.043839, , 
59.61, 0.043744, , 
59.64, 0.043674, , 
59.67, 0.043639, , 
59.70, 0.043636, , 
59.73, 0.043643, , 
59.76, 0.043560, , 
59.79, 0.043421, , 
59.82, 0.043275, , 
59.85, 0.043186, , 
59.88, 0.043110, , 
59.91, 0.043107, , 
59.94, 0.043135, , 
59.97, 0.043259, , 
60.00, 0.043341, , 
60.03, 0.043468, , 
60.06, 0.043582, , 
60.09, 0.043605, , 
60.12, 0.043659, , 
60.15, 0.043814, , 
60.18, 0.043969, , 
60.21, 0.044103, , 
60.24, 0.044226, , 
60.27, 0.044420, , 
60.30, 0.044635, , 
60.33, 0.044915, , 
60.36, 0.045210, , 
60.39, 0.045520, , 
60.42, 0.045920, , 
60.45, 0.046263, , 
60.48, 0.046586, , 
60.51, 0.047129, , 
60.54, 0.047592, , 
60.57, 0.048045, , 
60.60, 0.048477, , 
60.63, 0.048968, , 
60.66, 0.049590, , 
60.69, 0.050053, , 
60.72, 0.050691, , 
60.75, 0.051274, , 
60.78, 0.051887, , 
60.78, 0.051998, 19, 0.585
60.81, 0.052613, , 
60.84, 0.053308, , 
60.87, 0.054107, , 
60.90, 0.054640, , 
60.93, 0.055233, , 
60.96, 0.055988, , 
60.99, 0.056638, , 
61.02, 0.057422, , 
61.05, 0.058043, , 
61.08, 0.058671, , 
61.11, 0.059344, , 
61.14, 0.059991, , 
61.17, 0.060708, , 
61.20, 0.061358, , 
61.23, 0.062068, , 
61.26, 0.062754, , 
61.29, 0.063267, , 
61.32, 0.063750, , 
61.35, 0.064229, , 
61.38, 0.064679, , 
61.41, 0.065164, , 
61.44, 0.065631, , 
61.47, 0.066160, , 
61.50, 0.066512, , 
61.53, 0.066741, , 
61.56, 0.067067, , 
61.59, 0.067267, , 
61.62, 0.067419, , 
61.65, 0.067597, , 
61.68, 0.067740, , 
61.71, 0.067870, , 
61.74, 0.067905, , 
61.77, 0.067914, , 
61.80, 0.067949, , 
61.83, 0.067883, , 
61.86, 0.067721, , 
61.89, 0.067626, , 
61.92, 0.067550, , 
61.95, 0.067324, , 
61.98, 0.067140, , 
62.01, 0.066899, , 
62.04, 0.066709, , 
62.07, 0.066515, , 
62.10, 0.066186, , 
62.13, 0.065970, , 
62.17, 0.065599, , 
62.19, 0.065304, , 
62.22, 0.064993, , 
62.25, 0.064657, , 
62.28, 0.064374, , 
62.31, 0.063946, , 
62.34, 0.063531, , 
62.37, 0.063137, , 
62.40, 0.062722, , 
62.43, 0.062325, , 
62.46, 0.061907, , 
62.49, 0.061542, , 
62.52, 0.061253, , 
62.55, 0.060806, , 
62.58, 0.060419, , 
62.61, 0.060042, , 
62.64, 0.059670, , 
62.67, 0.059318, , 
62.70, 0.058931, , 
62.73, 0.058598, , 
62.76, 0.058167, , 
62.79, 0.057704, , 
62.83, 0.057291, , 
62.85, 0.056955, , 
62.88, 0.056622, , 
62.91, 0.056330, , 
62.94, 0.055902, , 
62.97, 0.055537, , 
63.00, 0.055166, , 
63.03, 0.054811, , 
63.06, 0.054503, , 
63.09, 0.054110, , 
63.12, 0.053783, , 
63.15, 0.053336, , 
63.18, 0.052936, , 
63.21, 0.052689, , 
63.24, 0.052327, , 
63.27, 0.051991, , 
63.30, 0.051709, , 
63.33, 0.051500, , 
63.36, 0.051274, , 
63.39, 0.051008, , 
63.42, 0.050719, , 
63.45, 0.050542, , 
63.48, 0.050332, , 
63.51, 0.050136, , 
63.54, 0.049980, , 
63.57, 0.049891, , 
63.60, 0.049755, , 
63.63, 0.049590, , 
63.66, 0.049489, , 
63.69, 0.049378, , 
63.72, 0.049235, , 
63.76, 0.049184, , 
63.78, 0.049108, , 
63.81, 0.049092, , 
63.84, 0.049067, , 
63.87, 0.049057, , 
63.90, 0.049073, , 
63.93, 0.049076, , 
63.96, 0.049038, , 
63.99, 0.049022, , 
64.00, 0.049029, 20, 0.587
64.02, 0.049136, , 
64.05, 0.049320, , 
64.08, 0.049447, , 
64.11, 0.049584, , 
64.14, 0.049780, , 
64.17, 0.049948, , 
64.20, 0.050098, , 
64.23, 0.050329, , 
64.26, 0.050580, , 
64.29, 0.050856, , 
64.32, 0.051224, , 
64.35, 0.051541, , 
64.38, 0.051871, , 
64.41, 0.052191, , 
64.44, 0.052527, , 
64.47, 0.052987, , 
64.50, 0.053444, , 
64.53, 0.054066, , 
64.56, 0.054579, , 
64.59, 0.054995, , 
64.62, 0.055614, , 
64.65, 0.056077, , 
64.68, 0.056654, , 
64.71, 0.057269, , 
64.74, 0.057843, , 
64.77, 0.058430, , 
64.80, 0.058871, , 
64.83, 0.059534, , 
64.86, 0.060108, , 
64.89, 0.060619, , 
64.92, 0.061164, , 
64.95, 0.061637, , 
64.98, 0.062160, , 
65.01, 0.062500, , 
65.04, 0.062928, , 
65.07, 0.063458, , 
65.10, 0.063842, , 
65.13, 0.064190, , 
65.16, 0.064479, , 
65.19, 0.064853, , 
65.22, 0.065085, , 
65.25, 0.065237, , 
65.28, 0.065481, , 
65.31, 0.065672, , 
65.34, 0.065789, , 
65.37, 0.065837, , 
65.40, 0.065868, , 
65.43, 0.065922, , 
65.46, 0.065922, , 
65.49, 0.065897, , 
65.52, 0.065916, , 
65.55, 0.065932, , 
65.58, 0.065859, , 
65.61, 0.065745, , 
65.64, 0.065653, , 
65.67, 0.065564, , 
65.70, 0.065396, , 
65.73, 0.065161, , 
65.76, 0.064990, , 
65.79, 0.064834, , 
65.82, 0.064555, , 
65.85, 0.064492, , 
65.88, 0.064045, , 
65.91, 0.063731, , 
65.94, 0.063439, , 
65.97, 0.063055, , 
66.00, 0.062788, , 
66.03, 0.062503, , 
66.06, 0.062211, , 
66.09, 0.061818, , 
66.12, 0.061475, , 
66.15, 0.061209, , 
66.18, 0.060816, , 
66.21, 0.060429, , 
66.24, 0.060067, , 
66.27, 0.059683, , 
66.30, 0.059350, , 
66.33, 0.059004, , 
66.36, 0.058668, , 
66.39, 0.058297, , 
66.42, 0.057951, , 
66.45, 0.057625, , 
66.48, 0.057285, , 
66.51, 0.057006, , 
66.54, 0.056673, , 
66.57, 0.056372, , 
66.60, 0.056118, , 
66.63, 0.055839, , 
66.66, 0.055585, , 
66.69, 0.055341, , 
66.72, 0.055052, , 
66.75, 0.054846, , 
66.78, 0.054579, , 
66.81, 0.054373, , 
66.84, 0.054212, , 
66.87, 0.054110, , 
66.90, 0.054009, , 
66.93, 0.053844, , 
66.96, 0.053742, , 
66.99, 0.053656, , 
67.02, 0.053545, , 
67.05, 0.053536, , 
67.08, 0.053501, , 
67.11, 0.053501, , 
67.14, 0.053501, , 
67.17, 0.053571, , 
67.19, 0.053644, 21, 0.584
67.20, 0.053748, , 
67.23, 0.053920, , 
67.26, 0.054056, , 
67.29, 0.054284, , 
67.32, 0.054440, , 
67.35, 0.054599, , 
67.38, 0.054808, , 
67.41, 0.055046, , 
67.44, 0.055363, , 
67.47, 0.055648, , 
67.51, 0.055899, , 
67.53, 0.056245, , 
67.56, 0.056641, , 
67.59, 0.057031, , 
67.62, 0.057456, , 
67.65, 0.057891, , 
67.68, 0.058294, , 
67.71, 0.058548, , 
67.74, 0.058896, , 
67.77, 0.059379, , 
67.80, 0.059791, , 
67.83, 0.060279, , 
67.86, 0.060730, , 
67.89, 0.061152, , 
67.92, 0.061526, , 
67.95, 0.061818, , 
67.98, 0.062202, , 
68.01, 0.062620, , 
68.04, 0.062976, , 
68.07, 0.063258, , 
68.10, 0.063543, , 
68.13, 0.063794, , 
68.16, 0.064032, , 
68.19, 0.064225, , 
68.22, 0.064476, , 
68.25, 0.064704, , 
68.28, 0.064879, , 
68.32, 0.064939, , 
68.34, 0.064961, , 
68.37, 0.065018, , 
68.40, 0.065028, , 
68.43, 0.065012, , 
68.46, 0.064964, , 
68.49, 0.064866, , 
68.53, 0.064714, , 
68.55, 0.064596, , 
68.58, 0.064447, , 
68.61, 0.064254, , 
68.64, 0.064102, , 
68.67, 0.063968, , 
68.70, 0.063842, , 
68.73, 0.063762, , 
68.76, 0.063416, , 
68.79, 0.063077, , 
68.82, 0.062785, , 
68.85, 0.062589, , 
68.88, 0.062300, , 
68.91, 0.061999, , 
68.94, 0.061742, , 
68.97, 0.061482, , 
69.00, 0.061142, , 
69.03, 0.060888, , 
69.06, 0.060682, , 
69.09, 0.060419, , 
69.12, 0.060102, , 
69.15, 0.059785, , 
69.18, 0.059566, , 
69.21, 0.059309, , 
69.24, 0.059077, , 
69.27, 0.058877, , 
69.30, 0.058652, , 
69.33, 0.058478, , 
69.36, 0.058192, , 
69.39, 0.057967, , 
69.42, 0.057755, , 
69.45, 0.057498, , 
69.48, 0.057333, , 
69.51, 0.057209, , 
69.54, 0.057142, , 
69.57, 0.057035, , 
69.60, 0.056870, , 
69.63, 0.056743, , 
69.66, 0.056721, , 
69.69, 0.056641, , 
69.72, 0.056594, , 
69.75, 0.056635, , 
69.78, 0.056755, , 
69.81, 0.056822, , 
69.84, 0.056955, , 
69.87, 0.057079, , 
69.90, 0.057228, , 
69.93, 0.057399, , 
69.96, 0.057606, , 
69.99, 0.057847, , 
70.02, 0.058072, , 
70.05, 0.058230, , 
70.08, 0.058405, , 
70.11, 0.058751, , 
70.14, 0.059068, , 
70.17, 0.059334, , 
70.20, 0.059559, , 
70.24, 0.059829, , 
70.26, 0.060111, , 
70.29, 0.060387, , 
70.32, 0.060692, , 
70.35, 0.060971, , 
70.38, 0.061174, , 
70.39, 0.061218, 22, 0.585
70.41, 0.061466, , 
70.44, 0.061666, , 
70.47, 0.061976, , 
70.50, 0.062221, , 
70.53, 0.062341, , 
70.56, 0.062478, , 
70.59, 0.062662, , 
70.62, 0.062871, , 
70.65, 0.062925, , 
70.68, 0.062966, , 
70.71, 0.063125, , 
70.74, 0.063264, , 
70.77, 0.063356, , 
70.80, 0.063429, , 
70.83, 0.063480, , 
70.86, 0.063480, , 
70.89, 0.063363, , 
70.92, 0.063248, , 
70.95, 0.063169, , 
70.98, 0.063109, , 
71.01, 0.062991, , 
71.04, 0.062801, , 
71.07, 0.062731, , 
71.10, 0.062516, , 
71.14, 0.062335, , 
71.16, 0.062230, , 
71.19, 0.062119, , 
71.22, 0.061961, , 
71.25, 0.061732, , 
71.28, 0.061545, , 
71.31, 0.061377, , 
71.34, 0.061110, , 
71.37, 0.060863, , 
71.40, 0.060733, , 
71.43, 0.060597, , 
71.46, 0.060397, , 
71.49, 0.060181, , 
71.52, 0.059956, , 
71.55, 0.059800, , 
71.58, 0.059623, , 
71.61, 0.059448, , 
71.65, 0.059331, , 
71.67, 0.059214, , 
71.70, 0.059008, , 
71.73, 0.058808, , 
71.76, 0.058738, , 
71.79, 0.058690, , 
71.82, 0.058633, , 
71.85, 0.058592, , 
71.88, 0.058608, , 
71.91, 0.058589, , 
71.94, 0.058563, , 
71.97, 0.058592, , 
72.00, 0.058589, , 
72.03, 0.058598, , 
72.07, 0.058582, , 
72.09, 0.058662, , 
72.12, 0.058833, , 
72.15, 0.058935, , 
72.18, 0.059077, , 
72.21, 0.059239, , 
72.24, 0.059439, , 
72.28, 0.059658, , 
72.30, 0.059769, , 
72.33, 0.059981, , 
72.36, 0.060181, , 
72.39, 0.060311, , 
72.42, 0.060419, , 
72.45, 0.060587, , 
72.49, 0.060812, , 
72.52, 0.060847, , 
72.54, 0.060977, , 
72.57, 0.061183, , 
72.60, 0.061307, , 
72.63, 0.061434, , 
72.66, 0.061472, , 
72.70, 0.061520, , 
72.72, 0.061548, , 
72.75, 0.061551, , 
72.78, 0.061529, , 
72.81, 0.061545, , 
72.84, 0.061523, , 
72.87, 0.061532, , 
72.90, 0.061520, , 
72.94, 0.061542, , 
72.96, 0.061570, , 
72.99, 0.061520, , 
73.02, 0.061466, , 
73.05, 0.061390, , 
73.08, 0.061250, , 
73.11, 0.061107, , 
73.14, 0.061022, , 
73.17, 0.060831, , 
73.20, 0.060698, , 
73.23, 0.060530, , 
73.26, 0.060324, , 
73.29, 0.060260, , 
73.32, 0.060102, , 
73.36, 0.059892, , 
73.38, 0.059734, , 
73.41, 0.059550, , 
73.44, 0.059360, , 
73.47, 0.059201, , 
73.50, 0.059134, , 
73.53, 0.059036, , 
73.56, 0.058846, , 
73.59, 0.058674, 23, 0.586
73.59, 0.058668, , 
73.62, 0.058659, , 
73.65, 0.058655, , 
73.68, 0.058608, , 
73.71, 0.058506, , 
73.74, 0.058332, , 
73.77, 0.058208, , 
73.80, 0.058138, , 
73.83, 0.058097, , 
73.86, 0.058123, , 
73.89, 0.058132, , 
73.92, 0.058113, , 
73.95, 0.058069, , 
73.98, 0.058069, , 
74.01, 0.058084, , 
74.04, 0.058135, , 
74.07, 0.058253, , 
74.10, 0.058379, , 
74.13, 0.058481, , 
74.16, 0.058513, , 
74.19, 0.058525, , 
74.22, 0.058576, , 
74.25, 0.058567, , 
74.28, 0.058652, , 
74.31, 0.058808, , 
74.34, 0.058925, , 
74.37, 0.059014, , 
74.40, 0.059036, , 
74.43, 0.059052, , 
74.46, 0.059071, , 
74.49, 0.059071, , 
74.52, 0.059042, , 
74.55, 0.059065, , 
74.58, 0.059068, , 
74.61, 0.059058, , 
74.64, 0.059055, , 
74.67, 0.059077, , 
74.70, 0.059068, , 
74.73, 0.059052, , 
74.76, 0.059014, , 
74.79, 0.058969, , 
74.82, 0.058881, , 
74.85, 0.058728, , 
74.88, 0.058624, , 
74.91, 0.058579, , 
74.94, 0.058481, , 
74.97, 0.058310, , 
75.00, 0.058170, , 
75.04, 0.058110, , 
75.06, 0.058062, , 
75.09, 0.057907, , 
75.12, 0.057720, , 
75.15, 0.057596, , 
75.18, 0.057466, , 
75.21, 0.057272, , 
75.25, 0.057165, , 
75.27, 0.057114, , 
75.30, 0.057012, , 
75.33, 0.056813, , 
75.36, 0.056667, , 
75.39, 0.056632, , 
75.42, 0.056597, , 
75.46, 0.056543, , 
75.48, 0.056540, , 
75.51, 0.056524, , 
75.54, 0.056394, , 
75.57, 0.056238, , 
75.60, 0.056140, , 
75.63, 0.056150, , 
75.66, 0.056131, , 
75.69, 0.056086, , 
75.72, 0.056080, , 
75.75, 0.056115, , 
75.78, 0.056077, , 
75.81, 0.056039, , 
75.84, 0.056061, , 
75.87, 0.056073, , 
75.90, 0.056067, , 
75.93, 0.056039, , 
75.96, 0.056054, , 
75.99, 0.056080, , 
76.02, 0.056058, , 
76.05, 0.056051, , 
76.09, 0.056083, , 
76.11, 0.056083, , 
76.14, 0.056054, , 
76.17, 0.056029, , 
76.20, 0.056048, , 
76.23, 0.056032, , 
76.26, 0.055997, , 
76.29, 0.055893, , 
76.32, 0.055788, , 
76.35, 0.055664, , 
76.38, 0.055601, , 
76.41, 0.055569, , 
76.44, 0.055547, , 
76.47, 0.055515, , 
76.50, 0.055344, , 
76.53, 0.055233, , 
76.56, 0.055150, , 
76.59, 0.055087, , 
76.62, 0.055043, , 
76.65, 0.054916, , 
76.68, 0.054795, , 
76.71, 0.054656, , 
76.74, 0.054567, , 
76.77, 0.054545, , 
76.79, 0.054446, 24, 0.586
76.80, 0.054357, , 
76.83, 0.054208, , 
76.86, 0.054154, , 
76.89, 0.054123, , 
76.92, 0.054018, , 
76.95, 0.053859, , 
76.98, 0.053650, , 
77.01, 0.053612, , 
77.04, 0.053523, , 
77.07, 0.053346, , 
77.10, 0.053184, , 
77.13, 0.053120, , 
77.16, 0.053076, , 
77.19, 0.053038, , 
77.22, 0.053022, , 
77.26, 0.053019, , 
77.28, 0.052927, , 
77.31, 0.052762, , 
77.34, 0.052635, , 
77.37, 0.052622, , 
77.40, 0.052603, , 
77.43, 0.052521, , 
77.46, 0.052527, , 
77.49, 0.052502, , 
77.52, 0.052391, , 
77.55, 0.052248, , 
77.58, 0.052124, , 
77.61, 0.052109, , 
77.64, 0.052083, , 
77.67, 0.052026, , 
77.70, 0.051931, , 
77.73, 0.051848, , 
77.76, 0.051718, , 
77.79, 0.051588, , 
77.82, 0.051585, , 
77.85, 0.051522, , 
77.88, 0.051401, , 
77.91, 0.051262, , 
77.94, 0.051151, , 
77.97, 0.051116, , 
78.00, 0.051052, , 
78.03, 0.050935, , 
78.06, 0.050792, , 
78.09, 0.050726, , 
78.12, 0.050659, , 
78.15, 0.050523, , 
78.18, 0.050364, , 
78.21, 0.050259, , 
78.24, 0.050186, , 
78.27, 0.050028, , 
78.30, 0.049926, , 
78.33, 0.049841, , 
78.36, 0.049644, , 
78.39, 0.049447, , 
78.42, 0.049276, , 
78.45, 0.049070, , 
78.48, 0.048829, , 
78.51, 0.048623, , 
78.54, 0.048366, , 
78.57, 0.048045, , 
78.60, 0.047757, , 
78.63, 0.047449, , 
78.66, 0.047243, , 
78.69, 0.047002, , 
78.72, 0.046796, , 
78.75, 0.046520, , 
78.78, 0.046218, , 
78.81, 0.045914, , 
78.84, 0.045597, , 
78.87, 0.045197, , 
78.90, 0.044838, , 
78.94, 0.044477, , 
78.96, 0.044236, , 
78.99, 0.043912, , 
79.02, 0.043554, , 
79.05, 0.043243, , 
79.08, 0.042846, , 
79.12, 0.042751, , 
79.15, 0.042336, , 
79.17, 0.041854, , 
79.20, 0.041546, , 
79.23, 0.041162, , 
79.26, 0.041086, , 
79.29, 0.040588, , 
79.32, 0.040134, , 
79.36, 0.039868, , 
79.38, 0.039589, , 
79.41, 0.039516, , 
79.44, 0.039072, , 
79.47, 0.038641, , 
79.50, 0.038374, , 
79.53, 0.038076, , 
79.56, 0.037920, , 
79.59, 0.037708, , 
79.62, 0.037416, , 
79.65, 0.037191, , 
79.68, 0.036928, , 
79.71, 0.036734, , 
79.74, 0.036563, , 
79.77, 0.036388, , 
79.80, 0.036204, , 
79.83, 0.036046, , 
79.86, 0.035929, , 
79.89, 0.035741, , 
79.92, 0.035542, , 
79.95, 0.035399, , 
79.98, 0.035323, , 
79.99, 0.035266, 25, 0.586
80.01, 0.035126, , 
80.04, 0.034983, , 
80.07, 0.034879, , 
80.10, 0.034796, , 
80.13, 0.034631, , 
80.16, 0.034469, , 
80.19, 0.034390, , 
80.22, 0.034311, , 
80.25, 0.034228, , 
80.28, 0.034140, , 
80.31, 0.034044, , 
80.34, 0.033914, , 
80.37, 0.033753, , 
80.40, 0.033721, , 
80.43, 0.033714, , 
80.46, 0.033689, , 
80.49, 0.033565, , 
80.52, 0.033391, , 
80.55, 0.033324, , 
80.58, 0.033267, , 
80.61, 0.033188, , 
80.64, 0.033169, , 
80.67, 0.033194, , 
80.70, 0.033191, , 
80.73, 0.033099, , 
80.76, 0.032960, , 
80.79, 0.032849, , 
80.82, 0.032747, , 
80.85, 0.032725, , 
80.88, 0.032715, , 
80.91, 0.032725, , 
80.94, 0.032715, , 
80.97, 0.032674, , 
81.00, 0.032680, , 
81.03, 0.032709, , 
81.06, 0.032687, , 
81.09, 0.032592, , 
81.12, 0.032443, , 
81.15, 0.032335, , 
81.18, 0.032246, , 
81.21, 0.032201, , 
81.24, 0.032195, , 
81.27, 0.032205, , 
81.30, 0.032192, , 
81.33, 0.032097, , 
81.36, 0.031945, , 
81.39, 0.031795, , 
81.42, 0.031751, , 
81.45, 0.031688, , 
81.48, 0.031703, , 
81.51, 0.031723, , 
81.54, 0.031656, , 
81.57, 0.031551, , 
81.60, 0.031408, , 
81.63, 0.031313, , 
81.66, 0.031225, , 
81.70, 0.031196, , 
81.72, 0.031193, , 
81.75, 0.031193, , 
81.78, 0.031152, , 
81.81, 0.031164, , 
81.84, 0.031171, , 
81.87, 0.031193, , 
81.90, 0.031174, , 
81.93, 0.031133, , 
81.96, 0.031079, , 
81.99, 0.030920, , 
82.02, 0.030777, , 
82.05, 0.030704, , 
82.08, 0.030723, , 
82.11, 0.030739, , 
82.14, 0.030660, , 
82.17, 0.030654, , 
82.20, 0.030669, , 
82.23, 0.030657, , 
82.26, 0.030631, , 
82.29, 0.030654, , 
82.32, 0.030695, , 
82.35, 0.030666, , 
82.38, 0.030676, , 
82.41, 0.030571, , 
82.44, 0.030460, , 
82.47, 0.030327, , 
82.50, 0.030305, , 
82.53, 0.030225, , 
82.56, 0.030216, , 
82.59, 0.030190, , 
82.62, 0.030175, , 
82.66, 0.030197, , 
82.68, 0.030203, , 
82.71, 0.030098, , 
82.74, 0.029921, , 
82.77, 0.029838, , 
82.80, 0.029762, , 
82.83, 0.029680, , 
82.86, 0.029667, , 
82.89, 0.029724, , 
82.92, 0.029727, , 
82.95, 0.029737, , 
82.98, 0.029721, , 
83.01, 0.029750, , 
83.04, 0.029756, , 
83.07, 0.029746, , 
83.10, 0.029715, , 
83.13, 0.029712, , 
83.16, 0.029746, , 
83.19, 0.029772, 26, 0.585
83.19, 0.029759, , 
83.22, 0.029673, , 
83.25, 0.029610, , 
83.28, 0.029515, , 
83.32, 0.029372, , 
83.34, 0.029344, , 
83.37, 0.029318, , 
83.40, 0.029309, , 
83.43, 0.029239, , 
83.46, 0.029255, , 
83.49, 0.029280, , 
83.52, 0.029274, , 
83.55, 0.029191, , 
83.58, 0.029217, , 
83.61, 0.029248, , 
83.64, 0.029242, , 
83.67, 0.029229, , 
83.70, 0.029229, , 
83.73, 0.029267, , 
83.76, 0.029220, , 
83.79, 0.029233, , 
83.82, 0.029242, , 
83.85, 0.029248, , 
83.88, 0.029245, , 
83.91, 0.029242, , 
83.95, 0.029271, , 
83.97, 0.029280, , 
84.00, 0.029236, , 
84.03, 0.029283, , 
84.06, 0.029223, , 
84.09, 0.029286, , 
84.12, 0.029255, , 
84.16, 0.029261, , 
84.18, 0.029258, , 
84.21, 0.029160, , 
84.24, 0.029064, , 
84.27, 0.028931, , 
84.30, 0.028820, , 
84.33, 0.028820, , 
84.36, 0.028808, , 
84.39, 0.028766, , 
84.43, 0.028769, , 
84.45, 0.028754, , 
84.48, 0.028744, , 
84.51, 0.028779, , 
84.54, 0.028750, , 
84.57, 0.028674, , 
84.60, 0.028516, , 
84.63, 0.028411, , 
84.66, 0.028357, , 
84.69, 0.028322, , 
84.72, 0.028281, , 
84.75, 0.028256, , 
84.78, 0.028294, , 
84.81, 0.028281, , 
84.84, 0.028221, , 
84.87, 0.028246, , 
84.90, 0.028303, , 
84.93, 0.028275, , 
84.96, 0.028246, , 
84.99, 0.028268, , 
85.02, 0.028303, , 
85.05, 0.028335, , 
85.08, 0.028249, , 
85.11, 0.028233, , 
85.14, 0.028290, , 
85.17, 0.028300, , 
85.20, 0.028256, , 
85.23, 0.028278, , 
85.26, 0.028297, , 
85.29, 0.028268, , 
85.32, 0.028246, , 
85.35, 0.028252, , 
85.38, 0.028290, , 
85.41, 0.028256, , 
85.44, 0.028275, , 
85.47, 0.028268, , 
85.50, 0.028325, , 
85.53, 0.028271, , 
85.56, 0.028240, , 
85.59, 0.028281, , 
85.62, 0.028310, , 
85.65, 0.028290, , 
85.68, 0.028262, , 
85.71, 0.028294, , 
85.75, 0.028294, , 
85.77, 0.028306, , 
85.80, 0.028287, , 
85.83, 0.028278, , 
85.86, 0.028329, , 
85.89, 0.028281, , 
85.92, 0.028281, , 
85.95, 0.028287, , 
85.98, 0.028252, , 
86.01, 0.028103, , 
86.04, 0.027961, , 
86.07, 0.027923, , 
86.10, 0.027884, , 
86.13, 0.027831, , 
86.16, 0.027824, , 
86.19, 0.027824, , 
86.22, 0.027834, , 
86.25, 0.027808, , 
86.28, 0.027808, , 
86.31, 0.027850, , 
86.34, 0.027840, , 
86.37, 0.027802, , 
86.39, 0.027777, 27, 0.587
86.40, 0.027770, , 
86.43, 0.027786, , 
86.46, 0.027875, , 
86.50, 0.027881, , 
86.52, 0.027894, , 
86.55, 0.027878, , 
86.58, 0.027856, , 
86.61, 0.027805, , 
86.64, 0.027821, , 
86.67, 0.027821, , 
86.70, 0.027796, , 
86.73, 0.027789, , 
86.76, 0.027792, , 
86.79, 0.027843, , 
86.82, 0.027818, , 
86.85, 0.027777, , 
86.88, 0.027786, , 
86.91, 0.027853, , 
86.94, 0.027837, , 
86.97, 0.027815, , 
87.00, 0.027837, , 
87.03, 0.027875, , 
87.06, 0.027815, , 
87.09, 0.027824, , 
87.12, 0.027815, , 
87.15, 0.027796, , 
87.18, 0.027777, , 
87.21, 0.027786, , 
87.24, 0.027831, , 
87.27, 0.027846, , 
87.30, 0.027780, , 
87.33, 0.027827, , 
87.36, 0.027843, , 
87.39, 0.027834, , 
87.42, 0.027818, , 
87.45, 0.027783, , 
87.48, 0.027824, , 
87.51, 0.027799, , 
87.54, 0.027792, , 
87.58, 0.027786, , 
87.60, 0.027824, , 
87.63, 0.027850, , 
87.66, 0.027780, , 
87.69, 0.027770, , 
87.72, 0.027815, , 
87.75, 0.027812, , 
87.79, 0.027821, , 
87.81, 0.027780, , 
87.84, 0.027786, , 
87.87, 0.027799, , 
87.90, 0.027748, , 
87.93, 0.027758, , 
87.96, 0.027789, , 
87.99, 0.027780, , 
88.02, 0.027732, , 
88.05, 0.027650, , 
88.08, 0.027570, , 
88.11, 0.027453, , 
88.14, 0.027364, , 
88.17, 0.027326, , 
88.20, 0.027298, , 
88.23, 0.027291, , 
88.26, 0.027285, , 
88.29, 0.027314, , 
88.32, 0.027333, , 
88.35, 0.027323, , 
88.38, 0.027247, , 
88.41, 0.027288, , 
88.45, 0.027320, , 
88.47, 0.027307, , 
88.50, 0.027253, , 
88.53, 0.027269, , 
88.56, 0.027294, , 
88.59, 0.027279, , 
88.62, 0.027272, , 
88.65, 0.027294, , 
88.68, 0.027333, , 
88.71, 0.027314, , 
88.74, 0.027288, , 
88.77, 0.027304, , 
88.80, 0.027285, , 
88.83, 0.027253, , 
88.86, 0.027263, , 
88.89, 0.027282, , 
88.92, 0.027310, , 
88.95, 0.027377, , 
88.98, 0.027482, , 
89.01, 0.027628, , 
89.04, 0.027751, , 
89.07, 0.027761, , 
89.10, 0.027767, , 
89.13, 0.027818, , 
89.16, 0.027808, , 
89.19, 0.027802, , 
89.22, 0.027773, , 
89.25, 0.027815, , 
89.28, 0.027780, , 
89.31, 0.027777, , 
89.34, 0.027834, , 
89.37, 0.027881, , 
89.40, 0.027878, , 
89.43, 0.027846, , 
89.46, 0.027859, , 
89.49, 0.027846, , 
89.52, 0.027834, , 
89.55, 0.027805, , 
89.58, 0.027840, , 
89.61, 0.027856, , 
89.64, 0.027827, , 
89.67, 0.027796, , 
89.71, 0.027812, , 
89.73, 0.027843, , 
89.76, 0.027831, , 
89.79, 0.027834, , 
89.82, 0.027815, , 
89.85, 0.027869, , 
89.88, 0.027846, , 
89.91, 0.027812, , 
89.94, 0.027815, , 
89.97, 0.027834, , 
90.00, 0.027812, , 
90.03, 0.027802, , 
90.06, 0.027812, , 
90.09, 0.027824, , 
90.12, 0.027827, , 
90.15, 0.027783, , 
90.18, 0.027853, , 
90.21, 0.027827, , 
90.24, 0.027824, , 
90.27, 0.027831, , 
90.30, 0.027843, , 
90.33, 0.027853, , 
90.36, 0.027805, , 
90.39, 0.027754, , 
90.42, 0.027812, , 
90.45, 0.027802, , 
90.48, 0.027754, , 
90.51, 0.027783, , 
90.54, 0.027808, , 
90.57, 0.027827, , 
90.60, 0.027799, , 
90.63, 0.027777, , 
90.66, 0.027827, , 
90.69, 0.027821, , 
90.72, 0.027805, , 
90.75, 0.027818, , 
90.78, 0.027815, , 
90.81, 0.027815, , 
90.84, 0.027827, , 
90.87, 0.027808, , 
90.90, 0.027802, , 
90.93, 0.027818, , 
90.96, 0.027815, , 
90.99, 0.027805, , 
91.02, 0.027805, , 
91.05, 0.027821, , 
91.08, 0.027777, , 
91.11, 0.027777, , 
91.14, 0.027786, , 
91.17, 0.027805, , 
91.20, 0.027796, , 
91.23, 0.027802, , 
91.26, 0.027802, , 
91.29, 0.027805, , 
91.32, 0.027780, , 
91.35, 0.027805, , 
91.38, 0.027856, , 
91.41, 0.027831, , 
91.44, 0.027770, , 
91.47, 0.027770, , 
91.50, 0.027808, , 
91.53, 0.027827, , 
91.56, 0.027796, , 
91.59, 0.027783, , 
91.62, 0.027824, , 
91.65, 0.027837, , 
91.68, 0.027843, , 
91.71, 0.027865, , 
91.74, 0.027865, , 
91.77, 0.027821, , 
91.80, 0.027764, , 
91.83, 0.027815, , 
91.86, 0.027859, , 
91.89, 0.027834, , 
91.92, 0.027818, , 
91.95, 0.027812, , 
91.98, 0.027818, , 
92.01, 0.027821, , 
92.04, 0.027799, , 
92.07, 0.027837, , 
92.10, 0.027856, , 
92.13, 0.027827, , 
92.16, 0.027837, , 
92.19, 0.027850, , 
92.23, 0.027812, , 
92.25, 0.027792, , 
92.28, 0.027758, , 
92.31, 0.027783, , 
92.34, 0.027843, , 
92.37, 0.027764, , 
92.40, 0.027758, , 
92.44, 0.027773, , 
92.46, 0.027783, , 
92.49, 0.027796, , 
92.52, 0.027805, , 
92.55, 0.027834, , 
92.58, 0.027824, , 
92.61, 0.027799, , 
92.64, 0.027802, , 
92.67, 0.027853, , 
92.71, 0.027843, , 
92.73, 0.027777, , 
92.76, 0.027923, , 
92.79, 0.028053, , 
92.82, 0.028145, , 
92.85, 0.028148, , 
92.88, 0.028205, , 
92.91, 0.028290, , 
92.94, 0.028313, , 
92.97, 0.028294, , 
93.00, 0.028297, , 
93.03, 0.028325, , 
93.06, 0.028341, , 
93.09, 0.028290, , 
93.12, 0.028290, , 
93.15, 0.028322, , 
93.18, 0.028306, , 
93.21, 0.028284, , 
93.24, 0.028265, , 
93.27, 0.028341, , 
93.30, 0.028325, , 
93.33, 0.028303, , 
93.36, 0.028325, , 
93.39, 0.028360, , 
93.42, 0.028325, , 
93.45, 0.028338, , 
93.48, 0.028338, , 
93.51, 0.028310, , 
93.54, 0.028319, , 
93.57, 0.028306, , 
93.60, 0.028310, , 
93.63, 0.028303, , 
93.66, 0.028275, , 
93.69, 0.028252, , 
93.72, 0.028278, , 
93.76, 0.028325, , 
93.78, 0.028325, , 
93.81, 0.028300, , 
93.84, 0.028313, , 
93.87, 0.028354, , 
93.90, 0.028322, , 
93.93, 0.028265, , 
93.96, 0.028278, , 
93.99, 0.028287, , 
94.02, 0.028265, , 
94.05, 0.028290, , 
94.08, 0.028310, , 
94.11, 0.028297, , 
94.14, 0.028249, , 
94.18, 0.028243, , 
94.20, 0.028300, , 
94.23, 0.028300, , 
94.26, 0.028256, , 
94.29, 0.028303, , 
94.32, 0.028322, , 
94.35, 0.028297, , 
94.39, 0.028294, , 
94.41, 0.028303, , 
94.44, 0.028300, , 
94.47, 0.028316, , 
94.50, 0.028294, , 
94.53, 0.028281, , 
94.56, 0.028303, , 
94.59, 0.028316, , 
94.62, 0.028284, , 
94.65, 0.028281, , 
94.68, 0.028310, , 
94.71, 0.028300, , 
94.74, 0.028252, , 
94.77, 0.028249, , 
94.80, 0.028290, , 
94.83, 0.028297, , 
94.86, 0.028265, , 
94.89, 0.028278, , 
94.92, 0.028294, , 
94.95, 0.028271, , 
94.98, 0.028205, , 
95.01, 0.028224, , 
95.05, 0.028319, , 
95.07, 0.028297, , 
95.10, 0.028221, , 
95.13, 0.028237, , 
95.16, 0.028300, , 
95.19, 0.028297, , 
95.22, 0.028319, , 
95.25, 0.028287, , 
95.28, 0.028287, , 
95.31, 0.028294, , 
95.34, 0.028287, , 
95.37, 0.028281, , 
95.40, 0.028316, , 
95.43, 0.028329, , 
95.46, 0.028297, , 
95.50, 0.028310, , 
95.52, 0.028338, , 
95.55, 0.028316, , 
95.58, 0.028281, , 
95.61, 0.028297, , 
95.64, 0.028313, , 
95.67, 0.028306, , 
95.70, 0.028306, , 
95.73, 0.028338, , 
95.76, 0.028360, , 
95.79, 0.028335, , 
95.82, 0.028303, , 
95.85, 0.028310, , 
95.88, 0.028316, , 
95.91, 0.028281, , 
95.94, 0.028249, , 
95.97, 0.028265, , 
96.00, 0.028325, , 
