Gradient Profiler Text Data File: 20240906_yHG005_rep2_sample_5_30C.csv
Date: 2024-09-06
Time: 18:23:55

User: jared
Experiment name: 
UV Unit: EM-1
Rotor Manufacturer: Beckman
Rotor Model: SW28.1
Speed: 28 rpm
Gradient: sucrose 10.0% to 50.0% w/v
Time: 4
w2t:  x 10^0
Sample Volume: 18 ml
Number of Tubes: 6
Volume per mm: 0.183 ml/mm

Absorbance Units Full Scale (AUFS): 2.00
Event Mark-triggered gradient; (with distance; auto start and stop)
Delay: No Delay
UV Wavelength: 254 nm
Samples / sec: 10 Hz
EM1 Speed: 0.30 mm/sec
Distance: 3.20 mm
Number: 30
Dead Volume: 0.000000 ml; Distance due to Dead Volume: 0.00 mm
Total Distance: 96.00 mm

Data Columns:
Distance(mm), Absorbance, Fraction Number, Fraction Volume(ml)
0.00, 0.060092, 0, 0.000
0.03, 0.060111, , 
0.06, 0.060095, , 
0.09, 0.060121, , 
0.12, 0.060146, , 
0.15, 0.060149, , 
0.18, 0.060111, , 
0.21, 0.060035, , 
0.24, 0.059937, , 
0.27, 0.059854, , 
0.30, 0.059775, , 
0.33, 0.059810, , 
0.36, 0.059969, , 
0.39, 0.060073, , 
0.42, 0.060083, , 
0.45, 0.060083, , 
0.48, 0.060105, , 
0.51, 0.060206, , 
0.54, 0.060632, , 
0.57, 0.062351, , 
0.60, 0.068314, , 
0.63, 0.087244, , 
0.66, 0.117974, , 
0.69, 0.160776, , 
0.72, 0.220878, , 
0.75, 0.267883, , 
0.78, 0.326462, , 
0.81, 0.396876, , 
0.84, 0.457973, , 
0.87, 0.529599, , 
0.90, 0.591280, , 
0.93, 0.653380, , 
0.97, 0.726237, , 
0.99, 0.778621, , 
1.02, 0.852273, , 
1.05, 0.915538, , 
1.08, 0.978523, , 
1.11, 1.049298, , 
1.14, 1.103621, , 
1.17, 1.146972, , 
1.20, 1.177482, , 
1.23, 1.197247, , 
1.26, 1.211213, , 
1.29, 1.218702, , 
1.32, 1.223939, , 
1.35, 1.228503, , 
1.38, 1.231903, , 
1.41, 1.235358, , 
1.44, 1.238901, , 
1.47, 1.242450, , 
1.50, 1.246447, , 
1.53, 1.249828, , 
1.56, 1.253745, , 
1.59, 1.257174, , 
1.62, 1.260153, , 
1.65, 1.264558, , 
1.68, 1.268584, , 
1.71, 1.273319, , 
1.74, 1.277291, , 
1.77, 1.281224, , 
1.80, 1.285788, , 
1.83, 1.289769, , 
1.86, 1.293131, , 
1.89, 1.297775, , 
1.92, 1.301334, , 
1.95, 1.304664, , 
1.98, 1.306888, , 
2.01, 1.308778, , 
2.04, 1.310989, , 
2.07, 1.313057, , 
2.10, 1.315328, , 
2.13, 1.317663, , 
2.16, 1.319877, , 
2.19, 1.322053, , 
2.22, 1.323750, , 
2.25, 1.325523, , 
2.28, 1.327594, , 
2.32, 1.329313, , 
2.34, 1.331014, , 
2.37, 1.332771, , 
2.40, 1.334652, , 
2.43, 1.337307, , 
2.46, 1.340123, , 
2.49, 1.343961, , 
2.53, 1.347346, , 
2.55, 1.350064, , 
2.58, 1.353680, , 
2.61, 1.356500, , 
2.64, 1.359564, , 
2.67, 1.362007, , 
2.70, 1.364170, , 
2.74, 1.366393, , 
2.76, 1.367792, , 
2.79, 1.369695, , 
2.82, 1.371513, , 
2.85, 1.373467, , 
2.88, 1.375253, , 
2.91, 1.376946, , 
2.94, 1.377936, , 
2.97, 1.378621, , 
3.00, 1.379189, , 
3.03, 1.379738, , 
3.06, 1.380366, , 
3.09, 1.380892, , 
3.12, 1.381137, , 
3.15, 1.380934, , 
3.18, 1.380562, , 
3.19, 1.380508, 1, 0.583
3.21, 1.380261, , 
3.24, 1.380137, , 
3.27, 1.379947, , 
3.30, 1.379658, , 
3.33, 1.379084, , 
3.36, 1.378038, , 
3.39, 1.376981, , 
3.42, 1.375738, , 
3.45, 1.374929, , 
3.48, 1.374000, , 
3.51, 1.372778, , 
3.54, 1.371557, , 
3.57, 1.370158, , 
3.60, 1.368271, , 
3.63, 1.366517, , 
3.66, 1.364414, , 
3.69, 1.362815, , 
3.72, 1.360735, , 
3.75, 1.358070, , 
3.78, 1.355545, , 
3.81, 1.352475, , 
3.84, 1.349668, , 
3.87, 1.346711, , 
3.90, 1.343524, , 
3.93, 1.340041, , 
3.96, 1.335740, , 
3.99, 1.331838, , 
4.02, 1.327778, , 
4.05, 1.323531, , 
4.08, 1.318218, , 
4.11, 1.313438, , 
4.14, 1.308496, , 
4.17, 1.302555, , 
4.20, 1.297331, , 
4.24, 1.291142, , 
4.26, 1.286518, , 
4.29, 1.280875, , 
4.32, 1.273938, , 
4.35, 1.267680, , 
4.38, 1.260159, , 
4.41, 1.253542, , 
4.45, 1.246796, , 
4.47, 1.239935, , 
4.50, 1.232855, , 
4.53, 1.225486, , 
4.56, 1.216713, , 
4.59, 1.209164, , 
4.62, 1.201513, , 
4.65, 1.192368, , 
4.68, 1.184347, , 
4.71, 1.176179, , 
4.74, 1.167795, , 
4.77, 1.157912, , 
4.80, 1.149468, , 
4.83, 1.141132, , 
4.86, 1.131445, , 
4.89, 1.123030, , 
4.92, 1.114618, , 
4.95, 1.106260, , 
4.98, 1.097873, , 
5.01, 1.088012, , 
5.04, 1.079571, , 
5.07, 1.071121, , 
5.10, 1.061250, , 
5.13, 1.054161, , 
5.16, 1.044287, , 
5.19, 1.035960, , 
5.22, 1.027666, , 
5.25, 1.017893, , 
5.28, 1.009449, , 
5.31, 0.999426, , 
5.35, 0.990703, , 
5.37, 0.983436, , 
5.40, 0.973295, , 
5.43, 0.964687, , 
5.46, 0.956078, , 
5.49, 0.945934, , 
5.52, 0.937243, , 
5.55, 0.928647, , 
5.58, 0.918542, , 
5.61, 0.909958, , 
5.64, 0.901400, , 
5.68, 0.891323, , 
5.70, 0.883996, , 
5.73, 0.873728, , 
5.76, 0.865044, , 
5.79, 0.856568, , 
5.82, 0.846897, , 
5.85, 0.838739, , 
5.88, 0.830546, , 
5.91, 0.822270, , 
5.94, 0.813918, , 
5.97, 0.804228, , 
6.00, 0.796118, , 
6.03, 0.786865, , 
6.06, 0.779021, , 
6.09, 0.771208, , 
6.12, 0.763456, , 
6.15, 0.755809, , 
6.18, 0.748120, , 
6.21, 0.739204, , 
6.24, 0.731594, , 
6.27, 0.722640, , 
6.30, 0.714926, , 
6.33, 0.707243, , 
6.36, 0.699558, , 
6.39, 0.693223, 2, 0.586
6.39, 0.691961, , 
6.42, 0.683225, , 
6.45, 0.675870, , 
6.48, 0.668571, , 
6.51, 0.661272, , 
6.54, 0.652689, , 
6.57, 0.645298, , 
6.60, 0.637974, , 
6.63, 0.629340, , 
6.66, 0.621817, , 
6.69, 0.614318, , 
6.72, 0.606893, , 
6.75, 0.599559, , 
6.78, 0.591245, , 
6.81, 0.584362, , 
6.84, 0.577552, , 
6.87, 0.569730, , 
6.90, 0.563129, , 
6.94, 0.555403, , 
6.96, 0.549950, , 
6.99, 0.543448, , 
7.02, 0.535984, , 
7.05, 0.529830, , 
7.09, 0.522874, , 
7.11, 0.516921, , 
7.14, 0.510954, , 
7.17, 0.504030, , 
7.20, 0.499063, , 
7.23, 0.493176, , 
7.26, 0.486394, , 
7.29, 0.480643, , 
7.32, 0.473960, , 
7.35, 0.468282, , 
7.38, 0.462585, , 
7.41, 0.456914, , 
7.44, 0.451319, , 
7.47, 0.444892, , 
7.50, 0.439418, , 
7.53, 0.433860, , 
7.56, 0.427218, , 
7.59, 0.422381, , 
7.62, 0.415615, , 
7.65, 0.409969, , 
7.68, 0.404514, , 
7.71, 0.398408, , 
7.74, 0.393247, , 
7.77, 0.387373, , 
7.81, 0.382313, , 
7.83, 0.378072, , 
7.86, 0.372217, , 
7.89, 0.367329, , 
7.92, 0.361740, , 
7.95, 0.357011, , 
7.98, 0.352326, , 
8.02, 0.346965, , 
8.04, 0.343216, , 
8.07, 0.338125, , 
8.10, 0.333938, , 
8.13, 0.329767, , 
8.16, 0.324787, , 
8.19, 0.320495, , 
8.22, 0.316651, , 
8.25, 0.312071, , 
8.28, 0.307890, , 
8.31, 0.303063, , 
8.34, 0.298980, , 
8.37, 0.294146, , 
8.40, 0.289972, , 
8.44, 0.285985, , 
8.46, 0.282121, , 
8.49, 0.278344, , 
8.52, 0.273820, , 
8.55, 0.269814, , 
8.58, 0.265808, , 
8.61, 0.261142, , 
8.64, 0.257219, , 
8.67, 0.254078, , 
8.70, 0.249898, , 
8.73, 0.246428, , 
8.76, 0.242856, , 
8.79, 0.238685, , 
8.82, 0.235189, , 
8.85, 0.231190, , 
8.88, 0.227840, , 
8.91, 0.224573, , 
8.94, 0.221360, , 
8.97, 0.218229, , 
9.00, 0.214569, , 
9.03, 0.211517, , 
9.06, 0.208650, , 
9.09, 0.205354, , 
9.12, 0.202515, , 
9.15, 0.199718, , 
9.18, 0.197047, , 
9.21, 0.194360, , 
9.24, 0.191207, , 
9.27, 0.188581, , 
9.30, 0.185971, , 
9.33, 0.183005, , 
9.36, 0.180569, , 
9.39, 0.178228, , 
9.42, 0.176119, , 
9.45, 0.173571, , 
9.48, 0.170786, , 
9.51, 0.168417, , 
9.54, 0.165724, , 
9.57, 0.163421, , 
9.58, 0.162654, 3, 0.585
9.60, 0.161531, , 
9.63, 0.158942, , 
9.66, 0.156770, , 
9.69, 0.154270, , 
9.72, 0.152215, , 
9.75, 0.150210, , 
9.78, 0.147974, , 
9.81, 0.146397, , 
9.84, 0.144234, , 
9.87, 0.142334, , 
9.90, 0.140485, , 
9.93, 0.138426, , 
9.96, 0.136748, , 
9.99, 0.134956, , 
10.02, 0.133713, , 
10.05, 0.132194, , 
10.08, 0.130449, , 
10.11, 0.129044, , 
10.14, 0.127382, , 
10.17, 0.125961, , 
10.20, 0.124505, , 
10.23, 0.123071, , 
10.26, 0.121663, , 
10.29, 0.120077, , 
10.32, 0.118745, , 
10.35, 0.117463, , 
10.38, 0.116007, , 
10.41, 0.114716, , 
10.44, 0.113390, , 
10.47, 0.112061, , 
10.50, 0.110713, , 
10.53, 0.109102, , 
10.56, 0.107798, , 
10.59, 0.106529, , 
10.62, 0.105001, , 
10.65, 0.103640, , 
10.68, 0.102377, , 
10.71, 0.101213, , 
10.74, 0.100021, , 
10.77, 0.098562, , 
10.80, 0.097432, , 
10.83, 0.096106, , 
10.86, 0.094933, , 
10.89, 0.094000, , 
10.92, 0.092735, , 
10.95, 0.091704, , 
10.98, 0.090549, , 
11.01, 0.089750, , 
11.04, 0.088678, , 
11.07, 0.087821, , 
11.10, 0.086781, , 
11.13, 0.085902, , 
11.16, 0.085059, , 
11.20, 0.084323, , 
11.22, 0.083638, , 
11.25, 0.082699, , 
11.28, 0.081893, , 
11.31, 0.080884, , 
11.34, 0.080028, , 
11.37, 0.079238, , 
11.40, 0.078528, , 
11.43, 0.077785, , 
11.46, 0.076780, , 
11.49, 0.075927, , 
11.52, 0.075178, , 
11.55, 0.074322, , 
11.58, 0.073503, , 
11.61, 0.072707, , 
11.64, 0.071800, , 
11.67, 0.071096, , 
11.70, 0.070426, , 
11.73, 0.069561, , 
11.76, 0.068866, , 
11.79, 0.068171, , 
11.82, 0.067353, , 
11.85, 0.066703, , 
11.88, 0.065973, , 
11.91, 0.065326, , 
11.94, 0.064838, , 
11.97, 0.064260, , 
12.00, 0.063721, , 
12.03, 0.063131, , 
12.06, 0.062563, , 
12.09, 0.062075, , 
12.12, 0.061542, , 
12.15, 0.061139, , 
12.18, 0.060578, , 
12.21, 0.060134, , 
12.24, 0.059718, , 
12.27, 0.059448, , 
12.30, 0.059065, , 
12.33, 0.058697, , 
12.36, 0.058313, , 
12.39, 0.057799, , 
12.42, 0.057345, , 
12.46, 0.056866, , 
12.48, 0.056530, , 
12.51, 0.056061, , 
12.54, 0.055537, , 
12.57, 0.055049, , 
12.60, 0.054329, , 
12.63, 0.053809, , 
12.66, 0.053311, , 
12.69, 0.052813, , 
12.72, 0.052340, , 
12.75, 0.051814, , 
12.78, 0.051404, , 
12.79, 0.051341, 4, 0.587
12.81, 0.051024, , 
12.84, 0.050640, , 
12.87, 0.050332, , 
12.90, 0.050018, , 
12.93, 0.049577, , 
12.96, 0.049194, , 
12.99, 0.048746, , 
13.02, 0.048445, , 
13.05, 0.048163, , 
13.08, 0.047861, , 
13.11, 0.047601, , 
13.15, 0.047401, , 
13.17, 0.047214, , 
13.20, 0.046980, , 
13.23, 0.046685, , 
13.26, 0.046482, , 
13.29, 0.046231, , 
13.32, 0.045987, , 
13.36, 0.045739, , 
13.38, 0.045463, , 
13.41, 0.045137, , 
13.44, 0.044696, , 
13.47, 0.044407, , 
13.50, 0.044122, , 
13.53, 0.043716, , 
13.57, 0.043294, , 
13.59, 0.042983, , 
13.62, 0.042729, , 
13.65, 0.042383, , 
13.68, 0.042012, , 
13.71, 0.041730, , 
13.74, 0.041473, , 
13.78, 0.041073, , 
13.80, 0.040807, , 
13.83, 0.040496, , 
13.86, 0.040277, , 
13.89, 0.040062, , 
13.92, 0.039798, , 
13.95, 0.039678, , 
13.98, 0.039567, , 
14.01, 0.039459, , 
14.04, 0.039284, , 
14.07, 0.039167, , 
14.10, 0.039047, , 
14.13, 0.038824, , 
14.16, 0.038720, , 
14.19, 0.038609, , 
14.22, 0.038564, , 
14.25, 0.038504, , 
14.28, 0.038377, , 
14.31, 0.038279, , 
14.34, 0.038146, , 
14.37, 0.038025, , 
14.40, 0.037927, , 
14.43, 0.037816, , 
14.46, 0.037667, , 
14.49, 0.037448, , 
14.52, 0.037283, , 
14.55, 0.037185, , 
14.58, 0.037051, , 
14.61, 0.036848, , 
14.64, 0.036680, , 
14.67, 0.036595, , 
14.70, 0.036515, , 
14.73, 0.036474, , 
14.76, 0.036401, , 
14.79, 0.036243, , 
14.82, 0.036087, , 
14.85, 0.035986, , 
14.88, 0.035976, , 
14.91, 0.035970, , 
14.94, 0.035929, , 
14.97, 0.035890, , 
15.00, 0.035811, , 
15.03, 0.035672, , 
15.06, 0.035538, , 
15.09, 0.035456, , 
15.12, 0.035462, , 
15.15, 0.035484, , 
15.18, 0.035399, , 
15.21, 0.035348, , 
15.24, 0.035377, , 
15.27, 0.035411, , 
15.30, 0.035386, , 
15.33, 0.035389, , 
15.36, 0.035418, , 
15.39, 0.035437, , 
15.42, 0.035370, , 
15.45, 0.035402, , 
15.48, 0.035418, , 
15.51, 0.035364, , 
15.54, 0.035208, , 
15.57, 0.035066, , 
15.60, 0.035018, , 
15.63, 0.034967, , 
15.66, 0.034904, , 
15.70, 0.034885, , 
15.72, 0.034929, , 
15.75, 0.034913, , 
15.78, 0.034913, , 
15.81, 0.034917, , 
15.84, 0.034907, , 
15.87, 0.034872, , 
15.91, 0.034860, , 
15.93, 0.034856, , 
15.96, 0.034958, , 
15.99, 0.034961, 5, 0.586
15.99, 0.034952, , 
16.02, 0.034904, , 
16.05, 0.034948, , 
16.08, 0.035021, , 
16.11, 0.035091, , 
16.14, 0.035218, , 
16.17, 0.035326, , 
16.20, 0.035418, , 
16.23, 0.035389, , 
16.26, 0.035405, , 
16.29, 0.035453, , 
16.32, 0.035507, , 
16.35, 0.035589, , 
16.38, 0.035710, , 
16.41, 0.035852, , 
16.44, 0.035935, , 
16.47, 0.035929, , 
16.50, 0.035929, , 
16.53, 0.036005, , 
16.56, 0.036160, , 
16.59, 0.036290, , 
16.62, 0.036363, , 
16.65, 0.036433, , 
16.68, 0.036582, , 
16.71, 0.036721, , 
16.74, 0.036826, , 
16.77, 0.036969, , 
16.80, 0.037080, , 
16.83, 0.037213, , 
16.86, 0.037334, , 
16.89, 0.037378, , 
16.92, 0.037473, , 
16.95, 0.037670, , 
16.98, 0.037797, , 
17.01, 0.037917, , 
17.04, 0.038076, , 
17.07, 0.038212, , 
17.10, 0.038346, , 
17.13, 0.038479, , 
17.16, 0.038577, , 
17.19, 0.038732, , 
17.22, 0.038891, , 
17.25, 0.039008, , 
17.28, 0.038967, , 
17.31, 0.038999, , 
17.34, 0.039158, , 
17.37, 0.039300, , 
17.40, 0.039395, , 
17.43, 0.039453, , 
17.46, 0.039516, , 
17.49, 0.039567, , 
17.52, 0.039525, , 
17.55, 0.039522, , 
17.58, 0.039456, , 
17.61, 0.039345, , 
17.64, 0.039186, , 
17.67, 0.039104, , 
17.70, 0.039069, , 
17.73, 0.039008, , 
17.76, 0.038999, , 
17.79, 0.038980, , 
17.82, 0.038875, , 
17.85, 0.038723, , 
17.88, 0.038552, , 
17.91, 0.038463, , 
17.94, 0.038307, , 
17.97, 0.038168, , 
18.00, 0.038012, , 
18.03, 0.037841, , 
18.06, 0.037638, , 
18.09, 0.037394, , 
18.12, 0.037219, , 
18.15, 0.037134, , 
18.18, 0.036940, , 
18.21, 0.036731, , 
18.24, 0.036531, , 
18.27, 0.036204, , 
18.30, 0.035925, , 
18.33, 0.035551, , 
18.36, 0.035370, , 
18.39, 0.035129, , 
18.42, 0.034821, , 
18.45, 0.034590, , 
18.48, 0.034324, , 
18.51, 0.034174, , 
18.54, 0.033949, , 
18.57, 0.033683, , 
18.60, 0.033435, , 
18.63, 0.033232, , 
18.66, 0.033010, , 
18.69, 0.032785, , 
18.72, 0.032569, , 
18.75, 0.032325, , 
18.78, 0.032075, , 
18.81, 0.031811, , 
18.84, 0.031653, , 
18.87, 0.031370, , 
18.90, 0.031174, , 
18.93, 0.030891, , 
18.96, 0.030711, , 
19.00, 0.030530, , 
19.02, 0.030270, , 
19.05, 0.030038, , 
19.08, 0.029772, , 
19.11, 0.029585, , 
19.14, 0.029467, , 
19.17, 0.029293, , 
19.18, 0.029175, 6, 0.585
19.20, 0.029042, , 
19.23, 0.028823, , 
19.26, 0.028620, , 
19.30, 0.028519, , 
19.32, 0.028414, , 
19.35, 0.028186, , 
19.38, 0.028068, , 
19.41, 0.028002, , 
19.44, 0.027897, , 
19.47, 0.027697, , 
19.50, 0.027564, , 
19.53, 0.027444, , 
19.56, 0.027279, , 
19.59, 0.027101, , 
19.62, 0.027022, , 
19.65, 0.026908, , 
19.68, 0.026743, , 
19.71, 0.026597, , 
19.74, 0.026479, , 
19.77, 0.026371, , 
19.80, 0.026216, , 
19.83, 0.026048, , 
19.86, 0.025902, , 
19.90, 0.025823, , 
19.92, 0.025731, , 
19.95, 0.025531, , 
19.98, 0.025423, , 
20.01, 0.025366, , 
20.04, 0.025261, , 
20.07, 0.025087, , 
20.11, 0.025008, , 
20.13, 0.024969, , 
20.16, 0.024893, , 
20.19, 0.024782, , 
20.22, 0.024681, , 
20.25, 0.024570, , 
20.28, 0.024465, , 
20.31, 0.024395, , 
20.34, 0.024379, , 
20.37, 0.024395, , 
20.40, 0.024310, , 
20.43, 0.024154, , 
20.46, 0.024059, , 
20.49, 0.023964, , 
20.52, 0.023910, , 
20.55, 0.023885, , 
20.58, 0.023862, , 
20.61, 0.023856, , 
20.64, 0.023856, , 
20.67, 0.023751, , 
20.70, 0.023583, , 
20.73, 0.023536, , 
20.76, 0.023447, , 
20.79, 0.023387, , 
20.82, 0.023441, , 
20.85, 0.023422, , 
20.88, 0.023361, , 
20.91, 0.023358, , 
20.94, 0.023377, , 
20.98, 0.023336, , 
21.00, 0.023215, , 
21.03, 0.023047, , 
21.06, 0.023012, , 
21.09, 0.022974, , 
21.12, 0.022866, , 
21.15, 0.022863, , 
21.18, 0.022863, , 
21.21, 0.022857, , 
21.24, 0.022828, , 
21.27, 0.022851, , 
21.30, 0.022866, , 
21.33, 0.022873, , 
21.36, 0.022866, , 
21.39, 0.022857, , 
21.42, 0.022866, , 
21.45, 0.022841, , 
21.48, 0.022803, , 
21.51, 0.022819, , 
21.54, 0.022879, , 
21.57, 0.022844, , 
21.60, 0.022844, , 
21.63, 0.022835, , 
21.66, 0.022838, , 
21.69, 0.022828, , 
21.72, 0.022835, , 
21.75, 0.022844, , 
21.78, 0.022803, , 
21.81, 0.022787, , 
21.84, 0.022746, , 
21.87, 0.022797, , 
21.90, 0.022797, , 
21.93, 0.022790, , 
21.96, 0.022803, , 
21.99, 0.022924, , 
22.02, 0.023016, , 
22.05, 0.023066, , 
22.08, 0.023117, , 
22.11, 0.023257, , 
22.14, 0.023285, , 
22.17, 0.023257, , 
22.20, 0.023282, , 
22.23, 0.023317, , 
22.26, 0.023384, , 
22.29, 0.023485, , 
22.32, 0.023583, , 
22.35, 0.023710, , 
22.38, 0.023761, , 
22.39, 0.023755, 7, 0.587
22.41, 0.023761, , 
22.44, 0.023828, , 
22.47, 0.023881, , 
22.50, 0.023878, , 
22.53, 0.023869, , 
22.56, 0.023875, , 
22.59, 0.023862, , 
22.62, 0.023885, , 
22.65, 0.023986, , 
22.68, 0.024132, , 
22.71, 0.024199, , 
22.74, 0.024230, , 
22.77, 0.024240, , 
22.80, 0.024281, , 
22.83, 0.024316, , 
22.86, 0.024414, , 
22.89, 0.024541, , 
22.92, 0.024662, , 
22.95, 0.024744, , 
22.98, 0.024811, , 
23.01, 0.024954, , 
23.04, 0.025100, , 
23.07, 0.025223, , 
23.10, 0.025356, , 
23.13, 0.025502, , 
23.16, 0.025699, , 
23.20, 0.025820, , 
23.22, 0.026007, , 
23.25, 0.026197, , 
23.28, 0.026400, , 
23.31, 0.026616, , 
23.34, 0.026869, , 
23.37, 0.027237, , 
23.40, 0.027498, , 
23.43, 0.027710, , 
23.46, 0.028072, , 
23.49, 0.028462, , 
23.52, 0.028972, , 
23.55, 0.029350, , 
23.58, 0.029753, , 
23.61, 0.030219, , 
23.64, 0.030663, , 
23.67, 0.031060, , 
23.70, 0.031542, , 
23.73, 0.032046, , 
23.76, 0.032776, , 
23.79, 0.033356, , 
23.82, 0.033987, , 
23.85, 0.034514, , 
23.88, 0.035136, , 
23.91, 0.035865, , 
23.94, 0.036557, , 
23.97, 0.037388, , 
24.00, 0.038082, , 
24.03, 0.038771, , 
24.06, 0.039529, , 
24.09, 0.040287, , 
24.12, 0.041054, , 
24.15, 0.041749, , 
24.18, 0.042523, , 
24.21, 0.043405, , 
24.24, 0.044144, , 
24.27, 0.044864, , 
24.30, 0.045644, , 
24.34, 0.046482, , 
24.36, 0.047033, , 
24.39, 0.047804, , 
24.42, 0.048496, , 
24.45, 0.049171, , 
24.48, 0.049831, , 
24.51, 0.050615, , 
24.54, 0.051309, , 
24.57, 0.051921, , 
24.60, 0.052575, , 
24.63, 0.053076, , 
24.67, 0.053729, , 
24.69, 0.054221, , 
24.72, 0.054776, , 
24.75, 0.055391, , 
24.78, 0.055823, , 
24.81, 0.056200, , 
24.84, 0.056460, , 
24.87, 0.056870, , 
24.90, 0.057276, , 
24.93, 0.057621, , 
24.96, 0.057869, , 
24.99, 0.058148, , 
25.02, 0.058411, , 
25.05, 0.058582, , 
25.08, 0.058751, , 
25.11, 0.058903, , 
25.14, 0.058982, , 
25.17, 0.059011, , 
25.20, 0.059115, , 
25.23, 0.059290, , 
25.26, 0.059385, , 
25.29, 0.059417, , 
25.32, 0.059344, , 
25.35, 0.059214, , 
25.39, 0.059144, , 
25.41, 0.059087, , 
25.44, 0.058995, , 
25.47, 0.058960, , 
25.50, 0.058896, , 
25.53, 0.058684, , 
25.56, 0.058573, , 
25.59, 0.058449, 8, 0.586
25.60, 0.058424, , 
25.62, 0.058291, , 
25.65, 0.058081, , 
25.68, 0.057875, , 
25.71, 0.057761, , 
25.74, 0.057606, , 
25.77, 0.057295, , 
25.80, 0.057006, , 
25.83, 0.056724, , 
25.86, 0.056505, , 
25.89, 0.056235, , 
25.92, 0.055962, , 
25.95, 0.055772, , 
25.98, 0.055525, , 
26.01, 0.055328, , 
26.04, 0.055125, , 
26.07, 0.054913, , 
26.10, 0.054706, , 
26.13, 0.054421, , 
26.16, 0.054193, , 
26.19, 0.053942, , 
26.22, 0.053634, , 
26.25, 0.053301, , 
26.28, 0.053092, , 
26.31, 0.052838, , 
26.34, 0.052572, , 
26.37, 0.052397, , 
26.40, 0.052169, , 
26.43, 0.051874, , 
26.46, 0.051503, , 
26.49, 0.051217, , 
26.52, 0.051024, , 
26.56, 0.050760, , 
26.58, 0.050519, , 
26.61, 0.050174, , 
26.64, 0.049914, , 
26.67, 0.049631, , 
26.70, 0.049365, , 
26.73, 0.049089, , 
26.77, 0.048845, , 
26.79, 0.048575, , 
26.82, 0.048283, , 
26.85, 0.048001, , 
26.88, 0.047798, , 
26.91, 0.047439, , 
26.94, 0.047116, , 
26.97, 0.046865, , 
27.00, 0.046615, , 
27.03, 0.046386, , 
27.06, 0.046037, , 
27.09, 0.045739, , 
27.12, 0.045486, , 
27.15, 0.045156, , 
27.18, 0.044908, , 
27.21, 0.044683, , 
27.24, 0.044451, , 
27.27, 0.044207, , 
27.30, 0.043938, , 
27.33, 0.043731, , 
27.36, 0.043500, , 
27.40, 0.043230, , 
27.42, 0.043021, , 
27.45, 0.042802, , 
27.48, 0.042605, , 
27.51, 0.042368, , 
27.54, 0.042139, , 
27.57, 0.042015, , 
27.60, 0.041831, , 
27.64, 0.041644, , 
27.66, 0.041492, , 
27.69, 0.041381, , 
27.72, 0.041257, , 
27.75, 0.041124, , 
27.78, 0.041032, , 
27.81, 0.040902, , 
27.84, 0.040737, , 
27.87, 0.040629, , 
27.90, 0.040509, , 
27.93, 0.040502, , 
27.96, 0.040471, , 
27.99, 0.040420, , 
28.02, 0.040274, , 
28.05, 0.040188, , 
28.08, 0.040055, , 
28.11, 0.039985, , 
28.14, 0.039995, , 
28.17, 0.040030, , 
28.20, 0.039998, , 
28.23, 0.039995, , 
28.26, 0.040017, , 
28.29, 0.040023, , 
28.32, 0.039985, , 
28.35, 0.040011, , 
28.38, 0.040217, , 
28.41, 0.040344, , 
28.44, 0.040401, , 
28.47, 0.040480, , 
28.50, 0.040537, , 
28.53, 0.040540, , 
28.56, 0.040626, , 
28.59, 0.040775, , 
28.62, 0.040943, , 
28.65, 0.041083, , 
28.68, 0.041245, , 
28.71, 0.041330, , 
28.74, 0.041524, , 
28.77, 0.041717, , 
28.79, 0.041778, 9, 0.584
28.80, 0.041870, , 
28.83, 0.042114, , 
28.86, 0.042380, , 
28.89, 0.042628, , 
28.92, 0.042929, , 
28.95, 0.043199, , 
28.98, 0.043494, , 
29.01, 0.043773, , 
29.04, 0.044087, , 
29.07, 0.044451, , 
29.10, 0.044978, , 
29.13, 0.045435, , 
29.16, 0.046079, , 
29.19, 0.046678, , 
29.22, 0.047294, , 
29.25, 0.048017, , 
29.28, 0.048813, , 
29.31, 0.049806, , 
29.34, 0.050745, , 
29.37, 0.051731, , 
29.40, 0.052984, , 
29.43, 0.054227, , 
29.46, 0.055782, , 
29.49, 0.057044, , 
29.52, 0.058684, , 
29.55, 0.060819, , 
29.58, 0.062827, , 
29.61, 0.065402, , 
29.64, 0.067778, , 
29.67, 0.070360, , 
29.70, 0.073183, , 
29.73, 0.076190, , 
29.76, 0.079990, , 
29.79, 0.083590, , 
29.82, 0.087399, , 
29.85, 0.092126, , 
29.88, 0.096471, , 
29.91, 0.101105, , 
29.94, 0.106003, , 
29.97, 0.111078, , 
30.00, 0.117358, , 
30.03, 0.123043, , 
30.06, 0.128939, , 
30.09, 0.136127, , 
30.12, 0.142556, , 
30.15, 0.149125, , 
30.18, 0.155812, , 
30.21, 0.162692, , 
30.24, 0.171009, , 
30.27, 0.178291, , 
30.30, 0.186843, , 
30.33, 0.194252, , 
30.36, 0.200466, , 
30.39, 0.209214, , 
30.42, 0.216729, , 
30.45, 0.225458, , 
30.48, 0.232883, , 
30.51, 0.240226, , 
30.54, 0.247455, , 
30.57, 0.254526, , 
30.60, 0.261510, , 
30.63, 0.269491, , 
30.66, 0.276069, , 
30.69, 0.283485, , 
30.72, 0.289613, , 
30.75, 0.295450, , 
30.78, 0.300918, , 
30.81, 0.305993, , 
30.84, 0.311585, , 
30.87, 0.316045, , 
30.90, 0.320200, , 
30.93, 0.324660, , 
30.96, 0.328114, , 
30.99, 0.331185, , 
31.02, 0.334436, , 
31.05, 0.336466, , 
31.08, 0.338978, , 
31.11, 0.340723, , 
31.14, 0.342153, , 
31.17, 0.343289, , 
31.20, 0.344193, , 
31.23, 0.344634, , 
31.26, 0.344846, , 
31.29, 0.344812, , 
31.32, 0.344628, , 
31.35, 0.344069, , 
31.38, 0.343276, , 
31.41, 0.342245, , 
31.44, 0.340866, , 
31.47, 0.339448, , 
31.50, 0.337513, , 
31.53, 0.335699, , 
31.56, 0.333710, , 
31.59, 0.331537, , 
31.62, 0.329202, , 
31.65, 0.326268, , 
31.68, 0.323661, , 
31.71, 0.320889, , 
31.74, 0.317555, , 
31.77, 0.314551, , 
31.81, 0.310850, , 
31.83, 0.307998, , 
31.86, 0.304518, , 
31.89, 0.300928, , 
31.92, 0.296652, , 
31.95, 0.292950, , 
31.98, 0.288602, 10, 0.585
31.99, 0.287977, , 
32.01, 0.284837, , 
32.04, 0.281043, , 
32.08, 0.276618, , 
32.10, 0.273487, , 
32.13, 0.269063, , 
32.16, 0.265215, , 
32.19, 0.261371, , 
32.22, 0.256901, , 
32.25, 0.253181, , 
32.28, 0.249473, , 
32.31, 0.245758, , 
32.34, 0.242123, , 
32.37, 0.238073, , 
32.40, 0.234641, , 
32.43, 0.230638, , 
32.46, 0.227282, , 
32.49, 0.224535, , 
32.52, 0.220637, , 
32.55, 0.217297, , 
32.58, 0.213531, , 
32.61, 0.210337, , 
32.64, 0.207150, , 
32.67, 0.204025, , 
32.70, 0.200558, , 
32.73, 0.197675, , 
32.76, 0.194297, , 
32.80, 0.191423, , 
32.82, 0.189108, , 
32.85, 0.185923, , 
32.88, 0.183160, , 
32.91, 0.179979, , 
32.94, 0.177311, , 
32.97, 0.174761, , 
33.00, 0.171795, , 
33.03, 0.169689, , 
33.06, 0.166866, , 
33.09, 0.164474, , 
33.12, 0.162029, , 
33.15, 0.159196, , 
33.18, 0.156814, , 
33.22, 0.154026, , 
33.24, 0.152012, , 
33.27, 0.149665, , 
33.30, 0.147003, , 
33.33, 0.144729, , 
33.36, 0.142188, , 
33.39, 0.139952, , 
33.42, 0.137738, , 
33.45, 0.135543, , 
33.48, 0.133380, , 
33.51, 0.130915, , 
33.54, 0.128888, , 
33.57, 0.126881, , 
33.60, 0.124603, , 
33.63, 0.122697, , 
33.66, 0.120803, , 
33.69, 0.118903, , 
33.72, 0.117060, , 
33.75, 0.115062, , 
33.78, 0.113425, , 
33.81, 0.111494, , 
33.85, 0.109774, , 
33.87, 0.108407, , 
33.90, 0.106596, , 
33.93, 0.105013, , 
33.96, 0.103193, , 
33.99, 0.101670, , 
34.02, 0.100160, , 
34.05, 0.098720, , 
34.08, 0.097194, , 
34.11, 0.095475, , 
34.14, 0.094089, , 
34.17, 0.092709, , 
34.20, 0.091123, , 
34.23, 0.089813, , 
34.27, 0.088269, , 
34.29, 0.087231, , 
34.32, 0.086048, , 
34.35, 0.084662, , 
34.38, 0.083488, , 
34.41, 0.082137, , 
34.44, 0.081002, , 
34.47, 0.079888, , 
34.50, 0.078816, , 
34.53, 0.077709, , 
34.56, 0.076513, , 
34.59, 0.075606, , 
34.62, 0.075000, , 
34.65, 0.073751, , 
34.68, 0.072777, , 
34.71, 0.071790, , 
34.74, 0.070915, , 
34.77, 0.069922, , 
34.80, 0.069421, , 
34.83, 0.068457, , 
34.86, 0.067651, , 
34.89, 0.066852, , 
34.92, 0.065960, , 
34.95, 0.065500, , 
34.98, 0.064615, , 
35.01, 0.063816, , 
35.04, 0.063182, , 
35.07, 0.062579, , 
35.10, 0.062068, , 
35.13, 0.061260, , 
35.16, 0.060559, , 
35.18, 0.060232, 11, 0.585
35.19, 0.060042, , 
35.22, 0.059344, , 
35.25, 0.058973, , 
35.28, 0.058367, , 
35.31, 0.057748, , 
35.34, 0.057253, , 
35.37, 0.056603, , 
35.40, 0.056245, , 
35.43, 0.055785, , 
35.46, 0.055255, , 
35.49, 0.054865, , 
35.52, 0.054342, , 
35.55, 0.054062, , 
35.58, 0.053492, , 
35.61, 0.052921, , 
35.64, 0.052489, , 
35.67, 0.052039, , 
35.70, 0.051858, , 
35.73, 0.051385, , 
35.76, 0.050995, , 
35.79, 0.050675, , 
35.82, 0.050161, , 
35.85, 0.049726, , 
35.88, 0.049469, , 
35.91, 0.048959, , 
35.94, 0.048575, , 
35.97, 0.048156, , 
36.00, 0.047801, , 
36.03, 0.047582, , 
36.06, 0.047005, , 
36.09, 0.046602, , 
36.12, 0.046342, , 
36.15, 0.046025, , 
36.18, 0.045777, , 
36.21, 0.045152, , 
36.24, 0.044873, , 
36.27, 0.044563, , 
36.30, 0.044166, , 
36.33, 0.044036, , 
36.36, 0.043649, , 
36.39, 0.043319, , 
36.42, 0.042945, , 
36.45, 0.042666, , 
36.48, 0.042444, , 
36.52, 0.042184, , 
36.54, 0.041895, , 
36.57, 0.041578, , 
36.60, 0.041314, , 
36.63, 0.041067, , 
36.66, 0.040813, , 
36.69, 0.040474, , 
36.72, 0.040233, , 
36.75, 0.040008, , 
36.78, 0.039792, , 
36.81, 0.039516, , 
36.84, 0.039338, , 
36.87, 0.039116, , 
36.90, 0.038869, , 
36.93, 0.038663, , 
36.96, 0.038450, , 
36.99, 0.038108, , 
37.02, 0.037762, , 
37.05, 0.037597, , 
37.08, 0.037407, , 
37.11, 0.037185, , 
37.14, 0.036997, , 
37.17, 0.036760, , 
37.20, 0.036522, , 
37.23, 0.036217, , 
37.26, 0.036059, , 
37.29, 0.035967, , 
37.32, 0.035789, , 
37.35, 0.035592, , 
37.38, 0.035405, , 
37.41, 0.035297, , 
37.44, 0.035094, , 
37.47, 0.034837, , 
37.50, 0.034644, , 
37.53, 0.034504, , 
37.56, 0.034365, , 
37.59, 0.034149, , 
37.62, 0.033962, , 
37.65, 0.033759, , 
37.68, 0.033578, , 
37.71, 0.033404, , 
37.74, 0.033251, , 
37.77, 0.033045, , 
37.80, 0.032912, , 
37.83, 0.032769, , 
37.86, 0.032541, , 
37.89, 0.032401, , 
37.92, 0.032259, , 
37.95, 0.032125, , 
37.98, 0.031979, , 
38.01, 0.031875, , 
38.04, 0.031786, , 
38.07, 0.031659, , 
38.10, 0.031539, , 
38.13, 0.031389, , 
38.16, 0.031317, , 
38.19, 0.031253, , 
38.22, 0.031190, , 
38.25, 0.031072, , 
38.28, 0.030949, , 
38.31, 0.030847, , 
38.34, 0.030739, , 
38.37, 0.030625, , 
38.39, 0.030514, 12, 0.587
38.40, 0.030447, , 
38.43, 0.030422, , 
38.46, 0.030374, , 
38.49, 0.030308, , 
38.52, 0.030206, , 
38.55, 0.030060, , 
38.58, 0.029965, , 
38.61, 0.029886, , 
38.64, 0.029753, , 
38.67, 0.029632, , 
38.70, 0.029493, , 
38.73, 0.029340, , 
38.76, 0.029242, , 
38.79, 0.029122, , 
38.82, 0.028982, , 
38.85, 0.028855, , 
38.88, 0.028769, , 
38.91, 0.028744, , 
38.94, 0.028769, , 
38.97, 0.028760, , 
39.00, 0.028725, , 
39.03, 0.028684, , 
39.06, 0.028608, , 
39.09, 0.028443, , 
39.12, 0.028382, , 
39.15, 0.028376, , 
39.18, 0.028256, , 
39.21, 0.028256, , 
39.24, 0.028256, , 
39.27, 0.028262, , 
39.30, 0.028290, , 
39.33, 0.028275, , 
39.36, 0.028230, , 
39.39, 0.028221, , 
39.42, 0.028268, , 
39.45, 0.028290, , 
39.48, 0.028230, , 
39.52, 0.028230, , 
39.54, 0.028256, , 
39.57, 0.028256, , 
39.60, 0.028227, , 
39.63, 0.028211, , 
39.66, 0.028252, , 
39.69, 0.028303, , 
39.72, 0.028389, , 
39.75, 0.028528, , 
39.78, 0.028658, , 
39.81, 0.028690, , 
39.84, 0.028693, , 
39.87, 0.028754, , 
39.90, 0.028849, , 
39.93, 0.028963, , 
39.96, 0.029175, , 
39.99, 0.029340, , 
40.02, 0.029537, , 
40.05, 0.029639, , 
40.08, 0.029778, , 
40.11, 0.030070, , 
40.14, 0.030292, , 
40.17, 0.030463, , 
40.20, 0.030682, , 
40.23, 0.031053, , 
40.26, 0.031339, , 
40.29, 0.031583, , 
40.32, 0.031979, , 
40.35, 0.032347, , 
40.38, 0.032791, , 
40.41, 0.033144, , 
40.44, 0.033578, , 
40.47, 0.034146, , 
40.50, 0.034546, , 
40.53, 0.035050, , 
40.56, 0.035513, , 
40.59, 0.035998, , 
40.62, 0.036471, , 
40.65, 0.036861, , 
40.68, 0.037473, , 
40.71, 0.038095, , 
40.74, 0.038634, , 
40.77, 0.039234, , 
40.80, 0.039811, , 
40.83, 0.040426, , 
40.86, 0.040997, , 
40.89, 0.041533, , 
40.92, 0.042263, , 
40.95, 0.042907, , 
40.98, 0.043551, , 
41.01, 0.044137, , 
41.04, 0.044677, , 
41.07, 0.045390, , 
41.10, 0.046060, , 
41.13, 0.046580, , 
41.16, 0.047300, , 
41.19, 0.047880, , 
41.22, 0.048496, , 
41.25, 0.049184, , 
41.28, 0.049793, , 
41.31, 0.050504, , 
41.34, 0.050989, , 
41.37, 0.051531, , 
41.40, 0.052124, , 
41.43, 0.052635, , 
41.46, 0.053051, , 
41.49, 0.053545, , 
41.52, 0.054021, , 
41.55, 0.054557, , 
41.58, 0.054897, , 
41.59, 0.055049, 13, 0.586
41.61, 0.055274, , 
41.64, 0.055775, , 
41.67, 0.056105, , 
41.70, 0.056327, , 
41.73, 0.056622, , 
41.76, 0.056765, , 
41.79, 0.057003, , 
41.82, 0.057019, , 
41.85, 0.057073, , 
41.88, 0.057174, , 
41.91, 0.057330, , 
41.94, 0.057444, , 
41.97, 0.057529, , 
42.00, 0.057533, , 
42.04, 0.057380, , 
42.06, 0.057269, , 
42.09, 0.057225, , 
42.12, 0.057133, , 
42.15, 0.056990, , 
42.18, 0.056797, , 
42.21, 0.056654, , 
42.24, 0.056533, , 
42.27, 0.056359, , 
42.30, 0.056092, , 
42.33, 0.055747, , 
42.36, 0.055442, , 
42.39, 0.055033, , 
42.42, 0.054767, , 
42.45, 0.054519, , 
42.48, 0.054081, , 
42.51, 0.053685, , 
42.54, 0.053282, , 
42.57, 0.052714, , 
42.60, 0.052324, , 
42.63, 0.051931, , 
42.67, 0.051617, , 
42.69, 0.051271, , 
42.72, 0.050852, , 
42.75, 0.050431, , 
42.78, 0.049917, , 
42.81, 0.049511, , 
42.84, 0.049044, , 
42.88, 0.048588, , 
42.90, 0.048198, , 
42.93, 0.047757, , 
42.96, 0.047433, , 
42.99, 0.047097, , 
43.02, 0.046656, , 
43.05, 0.046358, , 
43.08, 0.046018, , 
43.11, 0.045597, , 
43.14, 0.045324, , 
43.17, 0.045013, , 
43.20, 0.044759, , 
43.23, 0.044455, , 
43.26, 0.044058, , 
43.29, 0.043785, , 
43.32, 0.043522, , 
43.35, 0.043107, , 
43.38, 0.042761, , 
43.41, 0.042494, , 
43.44, 0.042165, , 
43.47, 0.041790, , 
43.50, 0.041429, , 
43.53, 0.041175, , 
43.56, 0.040763, , 
43.59, 0.040420, , 
43.62, 0.040201, , 
43.65, 0.039906, , 
43.68, 0.039573, , 
43.71, 0.039211, , 
43.74, 0.038993, , 
43.77, 0.038771, , 
43.80, 0.038441, , 
43.83, 0.038238, , 
43.86, 0.038016, , 
43.89, 0.037756, , 
43.92, 0.037483, , 
43.95, 0.037245, , 
43.98, 0.037045, , 
44.01, 0.036791, , 
44.04, 0.036576, , 
44.07, 0.036328, , 
44.10, 0.036128, , 
44.13, 0.036027, , 
44.16, 0.035868, , 
44.19, 0.035592, , 
44.22, 0.035373, , 
44.25, 0.035151, , 
44.29, 0.035021, , 
44.31, 0.034933, , 
44.34, 0.034783, , 
44.37, 0.034647, , 
44.40, 0.034457, , 
44.43, 0.034317, , 
44.46, 0.034174, , 
44.49, 0.034095, , 
44.52, 0.033905, , 
44.55, 0.033705, , 
44.58, 0.033534, , 
44.61, 0.033416, , 
44.64, 0.033223, , 
44.67, 0.033042, , 
44.70, 0.032931, , 
44.73, 0.032785, , 
44.76, 0.032585, , 
44.78, 0.032481, 14, 0.584
44.79, 0.032439, , 
44.82, 0.032360, , 
44.85, 0.032274, , 
44.88, 0.032217, , 
44.91, 0.032068, , 
44.94, 0.031910, , 
44.97, 0.031776, , 
45.00, 0.031529, , 
45.03, 0.031389, , 
45.06, 0.031329, , 
45.09, 0.031275, , 
45.12, 0.031215, , 
45.15, 0.031180, , 
45.18, 0.031114, , 
45.21, 0.030968, , 
45.24, 0.030904, , 
45.27, 0.030853, , 
45.30, 0.030809, , 
45.33, 0.030723, , 
45.36, 0.030546, , 
45.39, 0.030460, , 
45.42, 0.030381, , 
45.45, 0.030301, , 
45.48, 0.030238, , 
45.51, 0.030219, , 
45.54, 0.030118, , 
45.57, 0.030007, , 
45.60, 0.029902, , 
45.63, 0.029873, , 
45.66, 0.029807, , 
45.69, 0.029743, , 
45.72, 0.029559, , 
45.75, 0.029420, , 
45.78, 0.029350, , 
45.81, 0.029261, , 
45.84, 0.029245, , 
45.87, 0.029271, , 
45.90, 0.029280, , 
45.93, 0.029226, , 
45.96, 0.029277, , 
45.99, 0.029280, , 
46.02, 0.029236, , 
46.05, 0.029042, , 
46.08, 0.028890, , 
46.11, 0.028849, , 
46.14, 0.028785, , 
46.17, 0.028779, , 
46.20, 0.028769, , 
46.23, 0.028773, , 
46.26, 0.028766, , 
46.29, 0.028630, , 
46.32, 0.028541, , 
46.35, 0.028414, , 
46.38, 0.028376, , 
46.41, 0.028294, , 
46.44, 0.028252, , 
46.47, 0.028329, , 
46.50, 0.028281, , 
46.53, 0.028249, , 
46.56, 0.028271, , 
46.59, 0.028275, , 
46.62, 0.028265, , 
46.65, 0.028221, , 
46.68, 0.028249, , 
46.71, 0.028294, , 
46.74, 0.028259, , 
46.77, 0.028262, , 
46.80, 0.028290, , 
46.83, 0.028278, , 
46.86, 0.028214, , 
46.89, 0.028243, , 
46.92, 0.028252, , 
46.95, 0.028256, , 
46.98, 0.028233, , 
47.01, 0.028249, , 
47.04, 0.028332, , 
47.07, 0.028468, , 
47.10, 0.028576, , 
47.13, 0.028636, , 
47.16, 0.028716, , 
47.19, 0.028763, , 
47.22, 0.028846, , 
47.25, 0.029026, , 
47.28, 0.029153, , 
47.31, 0.029204, , 
47.35, 0.029296, , 
47.37, 0.029448, , 
47.40, 0.029635, , 
47.43, 0.029743, , 
47.46, 0.029895, , 
47.49, 0.030057, , 
47.52, 0.030213, , 
47.55, 0.030387, , 
47.58, 0.030549, , 
47.61, 0.030790, , 
47.64, 0.031018, , 
47.67, 0.031218, , 
47.70, 0.031526, , 
47.73, 0.031840, , 
47.77, 0.032198, , 
47.79, 0.032474, , 
47.82, 0.032782, , 
47.85, 0.033197, , 
47.88, 0.033724, , 
47.91, 0.034168, , 
47.94, 0.034634, , 
47.97, 0.035116, , 
47.99, 0.035443, 15, 0.587
48.00, 0.035589, , 
48.03, 0.036027, , 
48.06, 0.036512, , 
48.09, 0.037181, , 
48.12, 0.037822, , 
48.15, 0.038384, , 
48.18, 0.039104, , 
48.21, 0.039713, , 
48.24, 0.040410, , 
48.27, 0.040902, , 
48.30, 0.041505, , 
48.33, 0.042349, , 
48.36, 0.043132, , 
48.39, 0.043808, , 
48.42, 0.044635, , 
48.45, 0.045428, , 
48.48, 0.046256, , 
48.51, 0.047236, , 
48.55, 0.047744, , 
48.57, 0.048765, , 
48.61, 0.049679, , 
48.63, 0.050297, , 
48.66, 0.051319, , 
48.69, 0.052118, , 
48.72, 0.052968, , 
48.75, 0.053967, , 
48.78, 0.054779, , 
48.81, 0.055490, , 
48.84, 0.056242, , 
48.87, 0.056984, , 
48.90, 0.057802, , 
48.93, 0.058576, , 
48.96, 0.059318, , 
48.99, 0.060073, , 
49.02, 0.060692, , 
49.05, 0.061256, , 
49.08, 0.061656, , 
49.11, 0.062129, , 
49.14, 0.062639, , 
49.17, 0.063087, , 
49.20, 0.063477, , 
49.24, 0.063699, , 
49.26, 0.063943, , 
49.29, 0.064143, , 
49.32, 0.064267, , 
49.35, 0.064384, , 
49.38, 0.064457, , 
49.41, 0.064482, , 
49.44, 0.064387, , 
49.47, 0.064270, , 
49.50, 0.064181, , 
49.53, 0.064003, , 
49.56, 0.063772, , 
49.59, 0.063502, , 
49.62, 0.063340, , 
49.65, 0.062944, , 
49.68, 0.062658, , 
49.71, 0.062367, , 
49.74, 0.062068, , 
49.77, 0.061732, , 
49.80, 0.061339, , 
49.83, 0.060873, , 
49.86, 0.060498, , 
49.89, 0.060092, , 
49.92, 0.059540, , 
49.95, 0.059090, , 
49.98, 0.058706, , 
50.01, 0.058284, , 
50.04, 0.057796, , 
50.07, 0.057326, , 
50.10, 0.056879, , 
50.13, 0.056429, , 
50.16, 0.055896, , 
50.19, 0.055483, , 
50.22, 0.055065, , 
50.25, 0.054621, , 
50.28, 0.054135, , 
50.31, 0.053660, , 
50.34, 0.053314, , 
50.37, 0.052924, , 
50.40, 0.052524, , 
50.43, 0.052264, , 
50.46, 0.051887, , 
50.49, 0.051414, , 
50.52, 0.050925, , 
50.55, 0.050570, , 
50.58, 0.050231, , 
50.61, 0.049831, , 
50.64, 0.049520, , 
50.67, 0.049108, , 
50.70, 0.048762, , 
50.73, 0.048454, , 
50.76, 0.048080, , 
50.79, 0.047776, , 
50.82, 0.047449, , 
50.85, 0.047217, , 
50.88, 0.046846, , 
50.91, 0.046596, , 
50.94, 0.046307, , 
50.97, 0.045961, , 
51.00, 0.045768, , 
51.03, 0.045527, , 
51.06, 0.045324, , 
51.09, 0.045070, , 
51.12, 0.044816, , 
51.15, 0.044610, , 
51.19, 0.044242, 16, 0.585
51.19, 0.044201, , 
51.21, 0.044122, , 
51.24, 0.043896, , 
51.27, 0.043674, , 
51.30, 0.043427, , 
51.33, 0.043138, , 
51.36, 0.042789, , 
51.39, 0.042567, , 
51.42, 0.042295, , 
51.45, 0.042165, , 
51.48, 0.042009, , 
51.51, 0.041819, , 
51.54, 0.041587, , 
51.57, 0.041340, , 
51.61, 0.041150, , 
51.63, 0.040962, , 
51.66, 0.040785, , 
51.69, 0.040601, , 
51.72, 0.040395, , 
51.75, 0.040265, , 
51.78, 0.040103, , 
51.81, 0.039931, , 
51.84, 0.039776, , 
51.87, 0.039690, , 
51.90, 0.039583, , 
51.93, 0.039364, , 
51.96, 0.039281, , 
51.99, 0.039164, , 
52.02, 0.039085, , 
52.05, 0.038970, , 
52.08, 0.038780, , 
52.11, 0.038682, , 
52.14, 0.038590, , 
52.17, 0.038504, , 
52.20, 0.038399, , 
52.23, 0.038250, , 
52.26, 0.038092, , 
52.29, 0.038012, , 
52.32, 0.037892, , 
52.35, 0.037730, , 
52.38, 0.037578, , 
52.41, 0.037518, , 
52.44, 0.037521, , 
52.47, 0.037413, , 
52.50, 0.037277, , 
52.53, 0.037127, , 
52.56, 0.037074, , 
52.59, 0.037007, , 
52.62, 0.036782, , 
52.65, 0.036674, , 
52.68, 0.036550, , 
52.71, 0.036474, , 
52.74, 0.036344, , 
52.77, 0.036201, , 
52.80, 0.036147, , 
52.83, 0.036049, , 
52.86, 0.035929, , 
52.89, 0.035884, , 
52.92, 0.035798, , 
52.95, 0.035713, , 
52.98, 0.035551, , 
53.01, 0.035494, , 
53.04, 0.035459, , 
53.07, 0.035431, , 
53.10, 0.035405, , 
53.13, 0.035453, , 
53.16, 0.035446, , 
53.19, 0.035434, , 
53.22, 0.035450, , 
53.25, 0.035500, , 
53.28, 0.035510, , 
53.31, 0.035465, , 
53.34, 0.035459, , 
53.37, 0.035516, , 
53.40, 0.035548, , 
53.43, 0.035618, , 
53.46, 0.035741, , 
53.49, 0.035887, , 
53.52, 0.035998, , 
53.55, 0.036049, , 
53.58, 0.036157, , 
53.61, 0.036322, , 
53.64, 0.036414, , 
53.67, 0.036493, , 
53.70, 0.036652, , 
53.73, 0.036896, , 
53.76, 0.037159, , 
53.79, 0.037378, , 
53.82, 0.037673, , 
53.85, 0.037955, , 
53.88, 0.038222, , 
53.91, 0.038577, , 
53.94, 0.038923, , 
53.97, 0.039265, , 
54.00, 0.039570, , 
54.03, 0.039862, , 
54.06, 0.040331, , 
54.09, 0.040899, , 
54.12, 0.041584, , 
54.15, 0.042209, , 
54.18, 0.042498, , 
54.21, 0.043506, , 
54.24, 0.044280, , 
54.27, 0.045092, , 
54.30, 0.045781, , 
54.33, 0.046577, , 
54.36, 0.047325, , 
54.39, 0.048131, , 
54.39, 0.048286, 17, 0.587
54.42, 0.049276, , 
54.45, 0.050297, , 
54.48, 0.051430, , 
54.51, 0.052378, , 
54.54, 0.053130, , 
54.57, 0.054243, , 
54.60, 0.055201, , 
54.63, 0.056327, , 
54.66, 0.057307, , 
54.69, 0.058199, , 
54.73, 0.059233, , 
54.75, 0.059953, , 
54.78, 0.060996, , 
54.81, 0.061881, , 
54.84, 0.062646, , 
54.87, 0.063458, , 
54.90, 0.064206, , 
54.94, 0.065025, , 
54.96, 0.065542, , 
54.99, 0.066128, , 
55.02, 0.066801, , 
55.05, 0.067302, , 
55.08, 0.067822, , 
55.11, 0.068289, , 
55.14, 0.068739, , 
55.17, 0.069094, , 
55.20, 0.069313, , 
55.23, 0.069614, , 
55.26, 0.069830, , 
55.29, 0.069948, , 
55.32, 0.069986, , 
55.36, 0.070008, , 
55.38, 0.070065, , 
55.41, 0.070052, , 
55.44, 0.070017, , 
55.47, 0.069890, , 
55.50, 0.069795, , 
55.53, 0.069665, , 
55.56, 0.069462, , 
55.59, 0.069285, , 
55.62, 0.069021, , 
55.65, 0.068768, , 
55.68, 0.068447, , 
55.71, 0.068149, , 
55.74, 0.067870, , 
55.77, 0.067550, , 
55.80, 0.067201, , 
55.83, 0.066772, , 
55.86, 0.066408, , 
55.89, 0.065983, , 
55.92, 0.065462, , 
55.95, 0.065034, , 
55.98, 0.064622, , 
56.01, 0.064168, , 
56.04, 0.063705, , 
56.07, 0.063252, , 
56.10, 0.062855, , 
56.13, 0.062268, , 
56.16, 0.061815, , 
56.20, 0.061421, , 
56.22, 0.060968, , 
56.25, 0.060540, , 
56.28, 0.060026, , 
56.31, 0.059626, , 
56.34, 0.059223, , 
56.37, 0.058646, , 
56.40, 0.058278, , 
56.43, 0.057869, , 
56.46, 0.057352, , 
56.49, 0.056914, , 
56.52, 0.056524, , 
56.55, 0.056245, , 
56.58, 0.055915, , 
56.61, 0.055433, , 
56.64, 0.055093, , 
56.67, 0.054646, , 
56.70, 0.054202, , 
56.73, 0.053752, , 
56.76, 0.053292, , 
56.79, 0.053016, , 
56.82, 0.052641, , 
56.85, 0.052312, , 
56.88, 0.051912, , 
56.91, 0.051468, , 
56.94, 0.051125, , 
56.97, 0.050802, , 
57.00, 0.050434, , 
57.03, 0.050066, , 
57.06, 0.049676, , 
57.09, 0.049422, , 
57.12, 0.049111, , 
57.15, 0.048768, , 
57.18, 0.048464, , 
57.21, 0.048115, , 
57.24, 0.047915, , 
57.27, 0.047693, , 
57.30, 0.047455, , 
57.33, 0.047246, , 
57.36, 0.046951, , 
57.39, 0.046605, , 
57.42, 0.046355, , 
57.45, 0.046047, , 
57.48, 0.045831, , 
57.51, 0.045600, , 
57.54, 0.045359, , 
57.57, 0.045184, , 
57.59, 0.045102, 18, 0.584
57.60, 0.045026, , 
57.63, 0.044867, , 
57.66, 0.044642, , 
57.69, 0.044461, , 
57.72, 0.044366, , 
57.75, 0.044191, , 
57.78, 0.043976, , 
57.81, 0.043773, , 
57.84, 0.043639, , 
57.87, 0.043490, , 
57.90, 0.043278, , 
57.93, 0.043173, , 
57.96, 0.043107, , 
57.99, 0.042999, , 
58.02, 0.042827, , 
58.05, 0.042656, , 
58.08, 0.042628, , 
58.11, 0.042580, , 
58.14, 0.042520, , 
58.17, 0.042523, , 
58.20, 0.042542, , 
58.23, 0.042555, , 
58.26, 0.042571, , 
58.29, 0.042539, , 
58.32, 0.042571, , 
58.35, 0.042593, , 
58.38, 0.042555, , 
58.41, 0.042631, , 
58.44, 0.042824, , 
58.47, 0.042932, , 
58.50, 0.043011, , 
58.53, 0.043230, , 
58.56, 0.043370, , 
58.59, 0.043525, , 
58.63, 0.043636, , 
58.65, 0.043795, , 
58.68, 0.044080, , 
58.71, 0.044366, , 
58.74, 0.044620, , 
58.77, 0.044924, , 
58.80, 0.045264, , 
58.83, 0.045695, , 
58.86, 0.046110, , 
58.89, 0.046450, , 
58.92, 0.046995, , 
58.95, 0.047401, , 
58.98, 0.047839, , 
59.01, 0.048486, , 
59.04, 0.049095, , 
59.07, 0.049784, , 
59.10, 0.050396, , 
59.13, 0.051062, , 
59.16, 0.051706, , 
59.19, 0.052356, , 
59.22, 0.053181, , 
59.25, 0.053970, , 
59.28, 0.054649, , 
59.31, 0.055404, , 
59.34, 0.055988, , 
59.37, 0.056800, , 
59.40, 0.057542, , 
59.43, 0.058313, , 
59.46, 0.059188, , 
59.49, 0.059946, , 
59.52, 0.060625, , 
59.55, 0.061377, , 
59.59, 0.062043, , 
59.61, 0.062719, , 
59.64, 0.063366, , 
59.67, 0.063972, , 
59.70, 0.064638, , 
59.73, 0.065136, , 
59.76, 0.065580, , 
59.79, 0.066027, , 
59.82, 0.066588, , 
59.85, 0.067032, , 
59.88, 0.067435, , 
59.91, 0.067727, , 
59.94, 0.067975, , 
59.97, 0.068298, , 
60.00, 0.068523, , 
60.03, 0.068717, , 
60.06, 0.068834, , 
60.09, 0.068907, , 
60.12, 0.068917, , 
60.15, 0.068929, , 
60.18, 0.068983, , 
60.21, 0.068983, , 
60.24, 0.068932, , 
60.27, 0.068958, , 
60.30, 0.068983, , 
60.33, 0.068828, , 
60.36, 0.068676, , 
60.39, 0.068476, , 
60.42, 0.068279, , 
60.45, 0.068048, , 
60.48, 0.067794, , 
60.51, 0.067565, , 
60.54, 0.067274, , 
60.57, 0.066845, , 
60.61, 0.066471, , 
60.63, 0.066249, , 
60.66, 0.065935, , 
60.69, 0.065583, , 
60.72, 0.065107, , 
60.75, 0.064707, , 
60.78, 0.064311, , 
60.79, 0.064241, 19, 0.585
60.81, 0.064041, , 
60.84, 0.063448, , 
60.87, 0.062925, , 
60.90, 0.062541, , 
60.93, 0.062087, , 
60.96, 0.061536, , 
60.99, 0.061098, , 
61.02, 0.060619, , 
61.05, 0.060276, , 
61.08, 0.059915, , 
61.11, 0.059572, , 
61.14, 0.059287, , 
61.17, 0.058868, , 
61.20, 0.058408, , 
61.23, 0.057951, , 
61.26, 0.057520, , 
61.29, 0.056990, , 
61.32, 0.056774, , 
61.35, 0.056273, , 
61.38, 0.055690, , 
61.41, 0.055246, , 
61.44, 0.054913, , 
61.47, 0.054608, , 
61.50, 0.054288, , 
61.53, 0.053780, , 
61.56, 0.053374, , 
61.59, 0.053070, , 
61.62, 0.052765, , 
61.65, 0.052423, , 
61.68, 0.052048, , 
61.71, 0.051798, , 
61.74, 0.051506, , 
61.77, 0.051132, , 
61.80, 0.050875, , 
61.83, 0.050589, , 
61.86, 0.050421, , 
61.89, 0.050215, , 
61.92, 0.050037, , 
61.95, 0.049904, , 
61.99, 0.049717, , 
62.01, 0.049527, , 
62.04, 0.049400, , 
62.07, 0.049289, , 
62.10, 0.049203, , 
62.13, 0.049105, , 
62.16, 0.049098, , 
62.19, 0.049114, , 
62.22, 0.049063, , 
62.25, 0.049073, , 
62.28, 0.049111, , 
62.31, 0.049063, , 
62.34, 0.049063, , 
62.37, 0.049041, , 
62.40, 0.049133, , 
62.43, 0.049286, , 
62.46, 0.049371, , 
62.49, 0.049460, , 
62.52, 0.049660, , 
62.55, 0.049993, , 
62.58, 0.050247, , 
62.61, 0.050519, , 
62.64, 0.050859, , 
62.67, 0.051239, , 
62.71, 0.051655, , 
62.73, 0.051956, , 
62.76, 0.052489, , 
62.79, 0.052981, , 
62.82, 0.053400, , 
62.85, 0.053891, , 
62.88, 0.054348, , 
62.91, 0.054551, , 
62.94, 0.055157, , 
62.97, 0.055718, , 
63.00, 0.056426, , 
63.03, 0.057000, , 
63.06, 0.057577, , 
63.09, 0.058183, , 
63.12, 0.058760, , 
63.15, 0.059287, , 
63.18, 0.059820, , 
63.21, 0.060482, , 
63.24, 0.061060, , 
63.27, 0.061586, , 
63.30, 0.062145, , 
63.34, 0.062639, , 
63.36, 0.062861, , 
63.39, 0.063451, , 
63.42, 0.063902, , 
63.45, 0.064416, , 
63.48, 0.064872, , 
63.51, 0.065221, , 
63.54, 0.065418, , 
63.57, 0.065650, , 
63.60, 0.065948, , 
63.63, 0.066160, , 
63.66, 0.066411, , 
63.69, 0.066636, , 
63.72, 0.066747, , 
63.75, 0.066842, , 
63.78, 0.066829, , 
63.81, 0.066899, , 
63.84, 0.066918, , 
63.87, 0.066849, , 
63.90, 0.066725, , 
63.93, 0.066630, , 
63.96, 0.066531, , 
63.99, 0.066357, 20, 0.587
64.00, 0.066331, , 
64.02, 0.066192, , 
64.05, 0.066005, , 
64.08, 0.065824, , 
64.11, 0.065570, , 
64.14, 0.065323, , 
64.18, 0.065148, , 
64.20, 0.064847, , 
64.23, 0.064539, , 
64.26, 0.064229, , 
64.29, 0.063953, , 
64.32, 0.063639, , 
64.35, 0.063248, , 
64.38, 0.062868, , 
64.41, 0.062604, , 
64.44, 0.062290, , 
64.47, 0.061802, , 
64.50, 0.061367, , 
64.53, 0.060996, , 
64.56, 0.060609, , 
64.59, 0.060279, , 
64.62, 0.059908, , 
64.65, 0.059613, , 
64.68, 0.059150, , 
64.72, 0.058763, , 
64.74, 0.058478, , 
64.77, 0.058176, , 
64.80, 0.057856, , 
64.83, 0.057434, , 
64.86, 0.057171, , 
64.89, 0.056895, , 
64.93, 0.056521, , 
64.95, 0.056264, , 
64.98, 0.055972, , 
65.01, 0.055772, , 
65.04, 0.055522, , 
65.07, 0.055249, , 
65.10, 0.055109, , 
65.13, 0.054960, , 
65.16, 0.054817, , 
65.19, 0.054662, , 
65.22, 0.054589, , 
65.25, 0.054564, , 
65.28, 0.054519, , 
65.31, 0.054484, , 
65.34, 0.054510, , 
65.37, 0.054526, , 
65.40, 0.054481, , 
65.44, 0.054456, , 
65.46, 0.054472, , 
65.49, 0.054522, , 
65.52, 0.054646, , 
65.55, 0.054805, , 
65.58, 0.054970, , 
65.61, 0.055160, , 
65.64, 0.055296, , 
65.67, 0.055534, , 
65.70, 0.055883, , 
65.73, 0.056159, , 
65.76, 0.056381, , 
65.79, 0.056803, , 
65.82, 0.057168, , 
65.86, 0.057647, , 
65.88, 0.057977, , 
65.91, 0.058408, , 
65.94, 0.058728, , 
65.97, 0.059055, , 
66.00, 0.059458, , 
66.03, 0.059842, , 
66.06, 0.060289, , 
66.09, 0.060717, , 
66.12, 0.061101, , 
66.15, 0.061551, , 
66.18, 0.061929, , 
66.21, 0.062284, , 
66.24, 0.062598, , 
66.27, 0.062677, , 
66.30, 0.063286, , 
66.33, 0.063642, , 
66.36, 0.063864, , 
66.39, 0.064156, , 
66.42, 0.064460, , 
66.45, 0.064676, , 
66.48, 0.064828, , 
66.52, 0.065066, , 
66.54, 0.065224, , 
66.57, 0.065304, , 
66.60, 0.065415, , 
66.63, 0.065577, , 
66.66, 0.065722, , 
66.69, 0.065764, , 
66.72, 0.065757, , 
66.75, 0.065688, , 
66.78, 0.065586, , 
66.81, 0.065488, , 
66.84, 0.065380, , 
66.87, 0.065285, , 
66.90, 0.065152, , 
66.93, 0.065025, , 
66.96, 0.064885, , 
66.99, 0.064701, , 
67.02, 0.064511, , 
67.05, 0.064270, , 
67.08, 0.064045, , 
67.11, 0.063826, , 
67.14, 0.063661, , 
67.17, 0.063388, , 
67.19, 0.063204, 21, 0.585
67.20, 0.063083, , 
67.23, 0.062830, , 
67.26, 0.062585, , 
67.29, 0.062303, , 
67.32, 0.062065, , 
67.35, 0.061815, , 
67.38, 0.061440, , 
67.42, 0.061095, , 
67.44, 0.060819, , 
67.47, 0.060511, , 
67.50, 0.060232, , 
67.54, 0.059921, , 
67.56, 0.059696, , 
67.59, 0.059458, , 
67.62, 0.059245, , 
67.66, 0.059099, , 
67.68, 0.058982, , 
67.71, 0.058773, , 
67.74, 0.058614, , 
67.77, 0.058490, , 
67.80, 0.058484, , 
67.83, 0.058440, , 
67.86, 0.058275, , 
67.89, 0.058132, , 
67.92, 0.058059, , 
67.95, 0.058043, , 
67.98, 0.058002, , 
68.01, 0.058031, , 
68.04, 0.058170, , 
68.07, 0.058316, , 
68.10, 0.058395, , 
68.13, 0.058437, , 
68.16, 0.058598, , 
68.19, 0.058763, , 
68.22, 0.058881, , 
68.25, 0.059027, , 
68.28, 0.059226, , 
68.31, 0.059455, , 
68.34, 0.059620, , 
68.37, 0.059873, , 
68.40, 0.060102, , 
68.43, 0.060349, , 
68.46, 0.060562, , 
68.49, 0.060752, , 
68.52, 0.061003, , 
68.55, 0.061275, , 
68.58, 0.061491, , 
68.61, 0.061713, , 
68.64, 0.062068, , 
68.67, 0.062243, , 
68.70, 0.062436, , 
68.73, 0.062617, , 
68.76, 0.062804, , 
68.79, 0.063049, , 
68.82, 0.063204, , 
68.85, 0.063325, , 
68.88, 0.063553, , 
68.91, 0.063724, , 
68.94, 0.063781, , 
68.97, 0.063838, , 
69.00, 0.063972, , 
69.03, 0.064098, , 
69.06, 0.064178, , 
69.09, 0.064187, , 
69.12, 0.064194, , 
69.15, 0.064130, , 
69.18, 0.064045, , 
69.21, 0.064003, , 
69.24, 0.064048, , 
69.27, 0.063984, , 
69.31, 0.063781, , 
69.33, 0.063661, , 
69.36, 0.063578, , 
69.39, 0.063448, , 
69.42, 0.063252, , 
69.45, 0.063156, , 
69.48, 0.063036, , 
69.51, 0.062792, , 
69.54, 0.062747, , 
69.57, 0.062446, , 
69.60, 0.062249, , 
69.63, 0.062116, , 
69.66, 0.061903, , 
69.69, 0.061742, , 
69.72, 0.061539, , 
69.75, 0.061367, , 
69.78, 0.061145, , 
69.81, 0.061019, , 
69.84, 0.060876, , 
69.87, 0.060695, , 
69.90, 0.060536, , 
69.93, 0.060349, , 
69.96, 0.060257, , 
69.99, 0.060162, , 
70.02, 0.060092, , 
70.05, 0.060048, , 
70.08, 0.059953, , 
70.11, 0.059769, , 
70.14, 0.059636, , 
70.17, 0.059607, , 
70.20, 0.059525, , 
70.23, 0.059582, , 
70.27, 0.059674, , 
70.29, 0.059816, , 
70.32, 0.059867, , 
70.35, 0.059918, , 
70.38, 0.059969, 22, 0.584
70.39, 0.059988, , 
70.41, 0.060118, , 
70.44, 0.060333, , 
70.47, 0.060375, , 
70.50, 0.060505, , 
70.53, 0.060752, , 
70.56, 0.060863, , 
70.59, 0.060965, , 
70.62, 0.061114, , 
70.65, 0.061263, , 
70.68, 0.061371, , 
70.71, 0.061440, , 
70.74, 0.061567, , 
70.77, 0.061735, , 
70.80, 0.061831, , 
70.83, 0.061926, , 
70.86, 0.062027, , 
70.89, 0.062205, , 
70.92, 0.062408, , 
70.95, 0.062427, , 
70.98, 0.062443, , 
71.01, 0.062512, , 
71.04, 0.062544, , 
71.07, 0.062576, , 
71.10, 0.062604, , 
71.13, 0.062639, , 
71.16, 0.062646, , 
71.19, 0.062639, , 
71.22, 0.062646, , 
71.25, 0.062652, , 
71.28, 0.062674, , 
71.31, 0.062643, , 
71.34, 0.062522, , 
71.37, 0.062408, , 
71.41, 0.062284, , 
71.43, 0.062113, , 
71.46, 0.061903, , 
71.49, 0.061792, , 
71.52, 0.061650, , 
71.55, 0.061615, , 
71.58, 0.061393, , 
71.61, 0.061177, , 
71.64, 0.061047, , 
71.67, 0.060838, , 
71.70, 0.060809, , 
71.73, 0.060597, , 
71.76, 0.060387, , 
71.79, 0.060216, , 
71.82, 0.060121, , 
71.85, 0.060061, , 
71.88, 0.059959, , 
71.91, 0.059810, , 
71.94, 0.059731, , 
71.97, 0.059715, , 
72.00, 0.059667, , 
72.03, 0.059645, , 
72.06, 0.059651, , 
72.09, 0.059537, , 
72.12, 0.059353, , 
72.15, 0.059242, , 
72.18, 0.059191, , 
72.21, 0.059195, , 
72.24, 0.059147, , 
72.27, 0.059103, , 
72.30, 0.059122, , 
72.33, 0.059179, , 
72.36, 0.059309, , 
72.39, 0.059391, , 
72.42, 0.059486, , 
72.45, 0.059575, , 
72.48, 0.059594, , 
72.51, 0.059664, , 
72.54, 0.059842, , 
72.57, 0.059956, , 
72.60, 0.060007, , 
72.63, 0.060073, , 
72.66, 0.060108, , 
72.69, 0.060134, , 
72.72, 0.060219, , 
72.75, 0.060381, , 
72.78, 0.060476, , 
72.81, 0.060517, , 
72.84, 0.060514, , 
72.87, 0.060536, , 
72.91, 0.060546, , 
72.93, 0.060521, , 
72.96, 0.060514, , 
72.99, 0.060517, , 
73.02, 0.060527, , 
73.05, 0.060514, , 
73.08, 0.060397, , 
73.12, 0.060273, , 
73.14, 0.060197, , 
73.17, 0.060115, , 
73.20, 0.060029, , 
73.23, 0.059994, , 
73.26, 0.060003, , 
73.29, 0.059899, , 
73.33, 0.059740, , 
73.35, 0.059617, , 
73.38, 0.059610, , 
73.41, 0.059486, , 
73.44, 0.059277, , 
73.47, 0.059191, , 
73.50, 0.059131, , 
73.53, 0.059030, , 
73.56, 0.058862, , 
73.59, 0.058747, 23, 0.587
73.60, 0.058722, , 
73.62, 0.058709, , 
73.65, 0.058617, , 
73.68, 0.058563, , 
73.71, 0.058586, , 
73.74, 0.058582, , 
73.77, 0.058506, , 
73.80, 0.058357, , 
73.83, 0.058237, , 
73.86, 0.058145, , 
73.89, 0.058123, , 
73.92, 0.058069, , 
73.95, 0.058053, , 
73.98, 0.058065, , 
74.01, 0.057999, , 
74.04, 0.057983, , 
74.07, 0.058012, , 
74.10, 0.058053, , 
74.13, 0.058059, , 
74.16, 0.058164, , 
74.19, 0.058316, , 
74.22, 0.058395, , 
74.25, 0.058443, , 
74.28, 0.058478, , 
74.31, 0.058525, , 
74.34, 0.058487, , 
74.37, 0.058471, , 
74.40, 0.058513, , 
74.43, 0.058557, , 
74.46, 0.058548, , 
74.49, 0.058510, , 
74.52, 0.058506, , 
74.55, 0.058519, , 
74.58, 0.058487, , 
74.61, 0.058494, , 
74.64, 0.058456, , 
74.67, 0.058535, , 
74.70, 0.058513, , 
74.73, 0.058500, , 
74.76, 0.058500, , 
74.79, 0.058573, , 
74.83, 0.058557, , 
74.85, 0.058519, , 
74.88, 0.058481, , 
74.91, 0.058357, , 
74.94, 0.058151, , 
74.97, 0.058119, , 
75.00, 0.058008, , 
75.03, 0.057986, , 
75.06, 0.057970, , 
75.09, 0.058002, , 
75.12, 0.057989, , 
75.15, 0.057980, , 
75.18, 0.057812, , 
75.21, 0.057647, , 
75.24, 0.057586, , 
75.27, 0.057612, , 
75.30, 0.057548, , 
75.33, 0.057520, , 
75.36, 0.057555, , 
75.39, 0.057558, , 
75.42, 0.057539, , 
75.45, 0.057510, , 
75.48, 0.057453, , 
75.51, 0.057320, , 
75.54, 0.057161, , 
75.57, 0.057088, , 
75.60, 0.057073, , 
75.63, 0.057092, , 
75.66, 0.057050, , 
75.69, 0.057022, , 
75.72, 0.056958, , 
75.75, 0.056828, , 
75.78, 0.056660, , 
75.81, 0.056590, , 
75.84, 0.056594, , 
75.87, 0.056546, , 
75.90, 0.056337, , 
75.93, 0.056226, , 
75.96, 0.056146, , 
75.99, 0.055981, , 
76.02, 0.055801, , 
76.05, 0.055556, , 
76.08, 0.055404, , 
76.11, 0.055131, , 
76.14, 0.054906, , 
76.17, 0.054659, , 
76.20, 0.054491, , 
76.23, 0.054297, , 
76.26, 0.053993, , 
76.29, 0.053799, , 
76.32, 0.053596, , 
76.35, 0.053260, , 
76.38, 0.052984, , 
76.41, 0.052654, , 
76.44, 0.052381, , 
76.47, 0.052112, , 
76.50, 0.051861, , 
76.53, 0.051528, , 
76.56, 0.051132, , 
76.59, 0.050856, , 
76.62, 0.050570, , 
76.65, 0.050240, , 
76.68, 0.050018, , 
76.71, 0.049695, , 
76.74, 0.049438, , 
76.77, 0.049216, , 
76.79, 0.049035, 24, 0.585
76.80, 0.048914, , 
76.83, 0.048683, , 
76.86, 0.048321, , 
76.89, 0.048042, , 
76.92, 0.047779, , 
76.95, 0.047430, , 
76.98, 0.047148, , 
77.01, 0.046888, , 
77.04, 0.046640, , 
77.07, 0.046412, , 
77.10, 0.046117, , 
77.13, 0.045844, , 
77.16, 0.045479, , 
77.19, 0.045187, , 
77.22, 0.044946, , 
77.25, 0.044705, , 
77.28, 0.044486, , 
77.31, 0.044210, , 
77.34, 0.043992, , 
77.37, 0.043814, , 
77.40, 0.043554, , 
77.43, 0.043297, , 
77.46, 0.043056, , 
77.49, 0.042888, , 
77.52, 0.042659, , 
77.55, 0.042371, , 
77.58, 0.042222, , 
77.61, 0.042054, , 
77.64, 0.041876, , 
77.67, 0.041619, , 
77.70, 0.041397, , 
77.73, 0.041264, , 
77.76, 0.041102, , 
77.79, 0.040893, , 
77.82, 0.040737, , 
77.85, 0.040652, , 
77.88, 0.040464, , 
77.91, 0.040426, , 
77.94, 0.040185, , 
77.97, 0.040030, , 
78.00, 0.039820, , 
78.03, 0.039640, , 
78.06, 0.039497, , 
78.09, 0.039348, , 
78.12, 0.039234, , 
78.15, 0.039066, , 
78.18, 0.039002, , 
78.21, 0.039031, , 
78.24, 0.038932, , 
78.27, 0.038837, , 
78.30, 0.038701, , 
78.33, 0.038637, , 
78.36, 0.038536, , 
78.39, 0.038453, , 
78.42, 0.038418, , 
78.45, 0.038361, , 
78.48, 0.038273, , 
78.51, 0.038104, , 
78.54, 0.038051, , 
78.57, 0.038003, , 
78.60, 0.037892, , 
78.63, 0.037771, , 
78.66, 0.037625, , 
78.69, 0.037502, , 
78.72, 0.037403, , 
78.75, 0.037350, , 
78.78, 0.037273, , 
78.81, 0.037188, , 
78.84, 0.037058, , 
78.87, 0.037026, , 
78.90, 0.036909, , 
78.93, 0.036899, , 
78.96, 0.036839, , 
78.99, 0.036833, , 
79.02, 0.036804, , 
79.05, 0.036664, , 
79.08, 0.036509, , 
79.11, 0.036449, , 
79.14, 0.036449, , 
79.18, 0.036449, , 
79.20, 0.036395, , 
79.23, 0.036366, , 
79.26, 0.036407, , 
79.29, 0.036426, , 
79.32, 0.036373, , 
79.35, 0.036411, , 
79.38, 0.036401, , 
79.42, 0.036347, , 
79.44, 0.036357, , 
79.47, 0.036369, , 
79.50, 0.036357, , 
79.53, 0.036217, , 
79.56, 0.036024, , 
79.59, 0.035967, , 
79.63, 0.035973, , 
79.65, 0.035932, , 
79.68, 0.035856, , 
79.71, 0.035881, , 
79.74, 0.035865, , 
79.77, 0.035779, , 
79.80, 0.035653, , 
79.83, 0.035564, , 
79.86, 0.035462, , 
79.89, 0.035383, , 
79.92, 0.035354, , 
79.95, 0.035399, , 
79.98, 0.035418, 25, 0.585
79.99, 0.035418, , 
80.01, 0.035405, , 
80.04, 0.035377, , 
80.07, 0.035459, , 
80.10, 0.035488, , 
80.13, 0.035427, , 
80.16, 0.035443, , 
80.19, 0.035453, , 
80.22, 0.035424, , 
80.25, 0.035402, , 
80.28, 0.035399, , 
80.31, 0.035421, , 
80.34, 0.035411, , 
80.37, 0.035405, , 
80.40, 0.035402, , 
80.43, 0.035326, , 
80.46, 0.035167, , 
80.49, 0.035018, , 
80.52, 0.034990, , 
80.55, 0.034967, , 
80.58, 0.034964, , 
80.61, 0.034907, , 
80.64, 0.034850, , 
80.67, 0.034847, , 
80.70, 0.034853, , 
80.73, 0.034872, , 
80.76, 0.034891, , 
80.79, 0.034872, , 
80.82, 0.034860, , 
80.85, 0.034863, , 
80.88, 0.034913, , 
80.91, 0.034923, , 
80.94, 0.034879, , 
80.97, 0.034837, , 
81.00, 0.034764, , 
81.03, 0.034647, , 
81.06, 0.034527, , 
81.09, 0.034441, , 
81.12, 0.034441, , 
81.15, 0.034419, , 
81.18, 0.034352, , 
81.21, 0.034387, , 
81.24, 0.034454, , 
81.27, 0.034428, , 
81.30, 0.034377, , 
81.34, 0.034400, , 
81.36, 0.034444, , 
81.39, 0.034476, , 
81.42, 0.034438, , 
81.45, 0.034390, , 
81.48, 0.034415, , 
81.51, 0.034415, , 
81.54, 0.034400, , 
81.57, 0.034412, , 
81.60, 0.034450, , 
81.63, 0.034390, , 
81.66, 0.034225, , 
81.69, 0.034146, , 
81.72, 0.034025, , 
81.75, 0.034016, , 
81.78, 0.033949, , 
81.81, 0.033952, , 
81.84, 0.033930, , 
81.87, 0.033902, , 
81.90, 0.033924, , 
81.93, 0.033965, , 
81.96, 0.033968, , 
81.99, 0.033952, , 
82.02, 0.033937, , 
82.05, 0.033914, , 
82.08, 0.033946, , 
82.11, 0.033905, , 
82.14, 0.033889, , 
82.18, 0.033892, , 
82.20, 0.033908, , 
82.23, 0.033924, , 
82.26, 0.033898, , 
82.29, 0.033905, , 
82.32, 0.033930, , 
82.35, 0.033870, , 
82.38, 0.033845, , 
82.41, 0.033860, , 
82.44, 0.033749, , 
82.47, 0.033534, , 
82.50, 0.033473, , 
82.53, 0.033454, , 
82.56, 0.033410, , 
82.59, 0.033404, , 
82.62, 0.033369, , 
82.65, 0.033388, , 
82.68, 0.033407, , 
82.71, 0.033404, , 
82.74, 0.033413, , 
82.77, 0.033410, , 
82.80, 0.033388, , 
82.83, 0.033347, , 
82.86, 0.033350, , 
82.89, 0.033391, , 
82.92, 0.033400, , 
82.95, 0.033391, , 
82.98, 0.033432, , 
83.01, 0.033448, , 
83.04, 0.033429, , 
83.07, 0.033375, , 
83.10, 0.033359, , 
83.13, 0.033359, , 
83.17, 0.033375, , 
83.18, 0.033340, 26, 0.586
83.19, 0.033334, , 
83.22, 0.033334, , 
83.25, 0.033404, , 
83.28, 0.033410, , 
83.31, 0.033397, , 
83.34, 0.033410, , 
83.37, 0.033404, , 
83.40, 0.033378, , 
83.43, 0.033299, , 
83.46, 0.033296, , 
83.49, 0.033334, , 
83.52, 0.033308, , 
83.55, 0.033274, , 
83.58, 0.033229, , 
83.61, 0.033090, , 
83.64, 0.032953, , 
83.67, 0.032896, , 
83.70, 0.032849, , 
83.73, 0.032823, , 
83.76, 0.032782, , 
83.79, 0.032801, , 
83.82, 0.032861, , 
83.85, 0.032833, , 
83.88, 0.032785, , 
83.91, 0.032785, , 
83.94, 0.032826, , 
83.97, 0.032858, , 
84.00, 0.032842, , 
84.03, 0.032807, , 
84.06, 0.032833, , 
84.09, 0.032830, , 
84.12, 0.032801, , 
84.15, 0.032823, , 
84.18, 0.032845, , 
84.21, 0.032817, , 
84.24, 0.032791, , 
84.27, 0.032823, , 
84.30, 0.032871, , 
84.33, 0.032795, , 
84.36, 0.032804, , 
84.39, 0.032842, , 
84.42, 0.032858, , 
84.45, 0.032820, , 
84.48, 0.032785, , 
84.51, 0.032826, , 
84.54, 0.032839, , 
84.57, 0.032804, , 
84.60, 0.032814, , 
84.63, 0.032877, , 
84.66, 0.032855, , 
84.69, 0.032795, , 
84.72, 0.032849, , 
84.75, 0.032823, , 
84.78, 0.032830, , 
84.81, 0.032772, , 
84.84, 0.032779, , 
84.87, 0.032833, , 
84.90, 0.032858, , 
84.93, 0.032839, , 
84.96, 0.032820, , 
84.99, 0.032849, , 
85.02, 0.032852, , 
85.05, 0.032823, , 
85.08, 0.032833, , 
85.11, 0.032849, , 
85.14, 0.032823, , 
85.17, 0.032772, , 
85.20, 0.032677, , 
85.23, 0.032569, , 
85.26, 0.032430, , 
85.30, 0.032322, , 
85.32, 0.032322, , 
85.35, 0.032332, , 
85.38, 0.032284, , 
85.41, 0.032281, , 
85.44, 0.032316, , 
85.47, 0.032325, , 
85.50, 0.032306, , 
85.53, 0.032281, , 
85.56, 0.032281, , 
85.59, 0.032278, , 
85.62, 0.032240, , 
85.65, 0.032259, , 
85.68, 0.032268, , 
85.71, 0.032243, , 
85.74, 0.032255, , 
85.77, 0.032265, , 
85.80, 0.032325, , 
85.83, 0.032309, , 
85.86, 0.032265, , 
85.89, 0.032246, , 
85.92, 0.032278, , 
85.95, 0.032246, , 
85.98, 0.032205, , 
86.01, 0.032221, , 
86.04, 0.032259, , 
86.07, 0.032240, , 
86.10, 0.032230, , 
86.13, 0.032255, , 
86.17, 0.032265, , 
86.19, 0.032230, , 
86.23, 0.032236, , 
86.25, 0.032287, , 
86.28, 0.032319, , 
86.31, 0.032246, , 
86.34, 0.032173, , 
86.37, 0.032252, , 
86.38, 0.032262, 27, 0.585
86.40, 0.032278, , 
86.43, 0.032274, , 
86.46, 0.032300, , 
86.49, 0.032347, , 
86.52, 0.032322, , 
86.55, 0.032281, , 
86.58, 0.032316, , 
86.61, 0.032455, , 
86.64, 0.032576, , 
86.67, 0.032639, , 
86.70, 0.032725, , 
86.73, 0.032763, , 
86.76, 0.032741, , 
86.79, 0.032722, , 
86.82, 0.032719, , 
86.85, 0.032772, , 
86.88, 0.032776, , 
86.91, 0.032712, , 
86.94, 0.032715, , 
86.97, 0.032763, , 
87.00, 0.032769, , 
87.03, 0.032722, , 
87.06, 0.032750, , 
87.09, 0.032750, , 
87.12, 0.032788, , 
87.15, 0.032750, , 
87.18, 0.032747, , 
87.21, 0.032795, , 
87.24, 0.032791, , 
87.27, 0.032772, , 
87.30, 0.032782, , 
87.33, 0.032785, , 
87.36, 0.032779, , 
87.39, 0.032747, , 
87.42, 0.032776, , 
87.45, 0.032785, , 
87.48, 0.032757, , 
87.51, 0.032801, , 
87.54, 0.032810, , 
87.57, 0.032826, , 
87.60, 0.032779, , 
87.63, 0.032747, , 
87.66, 0.032750, , 
87.69, 0.032776, , 
87.72, 0.032845, , 
87.75, 0.032801, , 
87.78, 0.032788, , 
87.81, 0.032791, , 
87.84, 0.032782, , 
87.87, 0.032779, , 
87.90, 0.032788, , 
87.93, 0.032769, , 
87.96, 0.032757, , 
87.99, 0.032763, , 
88.02, 0.032769, , 
88.05, 0.032750, , 
88.09, 0.032741, , 
88.11, 0.032750, , 
88.14, 0.032776, , 
88.17, 0.032795, , 
88.20, 0.032741, , 
88.23, 0.032760, , 
88.26, 0.032807, , 
88.29, 0.032747, , 
88.32, 0.032744, , 
88.35, 0.032744, , 
88.38, 0.032769, , 
88.41, 0.032741, , 
88.44, 0.032709, , 
88.47, 0.032722, , 
88.51, 0.032728, , 
88.53, 0.032747, , 
88.56, 0.032719, , 
88.59, 0.032757, , 
88.62, 0.032785, , 
88.65, 0.032769, , 
88.68, 0.032757, , 
88.72, 0.032798, , 
88.74, 0.032801, , 
88.77, 0.032753, , 
88.80, 0.032744, , 
88.83, 0.032785, , 
88.86, 0.032772, , 
88.89, 0.032753, , 
88.92, 0.032763, , 
88.95, 0.032772, , 
88.98, 0.032782, , 
89.01, 0.032801, , 
89.04, 0.032953, , 
89.07, 0.033105, , 
89.10, 0.033191, , 
89.14, 0.033191, , 
89.16, 0.033194, , 
89.19, 0.033274, , 
89.22, 0.033324, , 
89.25, 0.033524, , 
89.28, 0.033635, , 
89.31, 0.033714, , 
89.34, 0.033730, , 
89.37, 0.033765, , 
89.40, 0.033784, , 
89.43, 0.033800, , 
89.46, 0.033753, , 
89.49, 0.033737, , 
89.52, 0.033762, , 
89.56, 0.033765, , 
89.58, 0.033762, , 
89.61, 0.033753, , 
89.64, 0.033772, , 
89.67, 0.033810, , 
89.70, 0.033794, , 
89.73, 0.033746, , 
89.77, 0.033740, , 
89.79, 0.033829, , 
89.82, 0.033797, , 
89.85, 0.033727, , 
89.88, 0.033794, , 
89.91, 0.033778, , 
89.94, 0.033753, , 
89.98, 0.033743, , 
90.00, 0.033753, , 
90.03, 0.033810, , 
90.06, 0.033810, , 
90.09, 0.033813, , 
90.12, 0.033816, , 
90.15, 0.033826, , 
90.18, 0.033787, , 
90.21, 0.033756, , 
90.24, 0.033803, , 
90.27, 0.033794, , 
90.30, 0.033794, , 
90.33, 0.033803, , 
90.36, 0.033864, , 
90.39, 0.033864, , 
90.42, 0.033784, , 
90.45, 0.033784, , 
90.48, 0.033835, , 
90.51, 0.033838, , 
90.54, 0.033791, , 
90.57, 0.033756, , 
90.60, 0.033826, , 
90.63, 0.033781, , 
90.66, 0.033772, , 
90.69, 0.033781, , 
90.72, 0.033794, , 
90.75, 0.033762, , 
90.78, 0.033724, , 
90.81, 0.033651, , 
90.84, 0.033540, , 
90.87, 0.033404, , 
90.90, 0.033321, , 
90.93, 0.033321, , 
90.96, 0.033337, , 
90.99, 0.033296, , 
91.02, 0.033286, , 
91.05, 0.033318, , 
91.08, 0.033321, , 
91.11, 0.033286, , 
91.14, 0.033308, , 
91.17, 0.033362, , 
91.20, 0.033337, , 
91.23, 0.033302, , 
91.26, 0.033293, , 
91.29, 0.033312, , 
91.32, 0.033362, , 
91.35, 0.033299, , 
91.38, 0.033296, , 
91.41, 0.033334, , 
91.44, 0.033356, , 
91.47, 0.033362, , 
91.50, 0.033350, , 
91.53, 0.033366, , 
91.56, 0.033340, , 
91.59, 0.033302, , 
91.62, 0.033321, , 
91.65, 0.033385, , 
91.68, 0.033385, , 
91.71, 0.033315, , 
91.74, 0.033337, , 
91.77, 0.033391, , 
91.80, 0.033378, , 
91.83, 0.033331, , 
91.86, 0.033343, , 
91.89, 0.033372, , 
91.92, 0.033372, , 
91.95, 0.033353, , 
91.98, 0.033353, , 
92.01, 0.033381, , 
92.04, 0.033372, , 
92.07, 0.033302, , 
92.10, 0.033359, , 
92.13, 0.033400, , 
92.16, 0.033372, , 
92.20, 0.033359, , 
92.22, 0.033400, , 
92.25, 0.033432, , 
92.28, 0.033385, , 
92.31, 0.033347, , 
92.34, 0.033381, , 
92.37, 0.033378, , 
92.41, 0.033353, , 
92.43, 0.033343, , 
92.46, 0.033407, , 
92.49, 0.033369, , 
92.52, 0.033369, , 
92.55, 0.033343, , 
92.58, 0.033394, , 
92.61, 0.033388, , 
92.64, 0.033293, , 
92.67, 0.033315, , 
92.70, 0.033334, , 
92.73, 0.033385, , 
92.76, 0.033388, , 
92.79, 0.033337, , 
92.82, 0.033324, , 
92.85, 0.033362, , 
92.88, 0.033331, , 
92.92, 0.033331, , 
92.94, 0.033343, , 
92.97, 0.033321, , 
93.00, 0.033328, , 
93.03, 0.033353, , 
93.06, 0.033381, , 
93.09, 0.033362, , 
93.12, 0.033315, , 
93.15, 0.033321, , 
93.18, 0.033372, , 
93.21, 0.033337, , 
93.24, 0.033299, , 
93.27, 0.033353, , 
93.30, 0.033340, , 
93.33, 0.033337, , 
93.36, 0.033289, , 
93.39, 0.033296, , 
93.42, 0.033359, , 
93.45, 0.033340, , 
93.48, 0.033261, , 
93.51, 0.033305, , 
93.54, 0.033353, , 
93.57, 0.033289, , 
93.60, 0.033248, , 
93.63, 0.033274, , 
93.66, 0.033293, , 
93.69, 0.033302, , 
93.72, 0.033274, , 
93.75, 0.033302, , 
93.78, 0.033302, , 
93.81, 0.033277, , 
93.84, 0.033229, , 
93.87, 0.033264, , 
93.90, 0.033286, , 
93.94, 0.033280, , 
93.96, 0.033283, , 
93.99, 0.033283, , 
94.02, 0.033251, , 
94.05, 0.033270, , 
94.08, 0.033267, , 
94.11, 0.033280, , 
94.14, 0.033308, , 
94.17, 0.033258, , 
94.20, 0.033239, , 
94.23, 0.033331, , 
94.26, 0.033331, , 
94.29, 0.033267, , 
94.32, 0.033283, , 
94.35, 0.033340, , 
94.38, 0.033356, , 
94.41, 0.033277, , 
94.44, 0.033286, , 
94.48, 0.033331, , 
94.50, 0.033321, , 
94.53, 0.033258, , 
94.56, 0.033236, , 
94.59, 0.033270, , 
94.62, 0.033296, , 
94.65, 0.033261, , 
94.68, 0.033283, , 
94.71, 0.033324, , 
94.74, 0.033283, , 
94.77, 0.033299, , 
94.80, 0.033283, , 
94.83, 0.033318, , 
94.86, 0.033286, , 
94.89, 0.033270, , 
94.92, 0.033283, , 
94.95, 0.033312, , 
94.98, 0.033283, , 
95.01, 0.033293, , 
95.04, 0.033321, , 
95.07, 0.033280, , 
95.10, 0.033296, , 
95.13, 0.033302, , 
95.16, 0.033286, , 
95.19, 0.033321, , 
95.22, 0.033267, , 
95.25, 0.033267, , 
95.28, 0.033274, , 
95.31, 0.033283, , 
95.34, 0.033251, , 
95.37, 0.033258, , 
95.40, 0.033302, , 
95.43, 0.033340, , 
95.46, 0.033318, , 
95.49, 0.033283, , 
95.52, 0.033286, , 
95.55, 0.033305, , 
95.58, 0.033242, , 
95.61, 0.033296, , 
95.64, 0.033350, , 
95.67, 0.033350, , 
95.70, 0.033293, , 
95.73, 0.033277, , 
95.76, 0.033289, , 
95.79, 0.033286, , 
95.82, 0.033258, , 
95.85, 0.033264, , 
95.88, 0.033331, , 
95.91, 0.033359, , 
95.94, 0.033400, , 
95.97, 0.033559, , 
96.00, 0.033689, , 
