Gradient Profiler Text Data File: 20241017_yHG008_rep1_sample_1_30C.csv
Date: 2024-10-17
Time: 14:59:24

User: jared
Experiment name: 
UV Unit: EM-1
Rotor Manufacturer: Beckman
Rotor Model: SW28.1
Speed: 28 rpm
Gradient: sucrose 10.0% to 50.0% w/v
Time: 4
w2t:  x 10^0
Sample Volume: 18 ml
Number of Tubes: 6
Volume per mm: 0.183 ml/mm

Absorbance Units Full Scale (AUFS): 2.00
Event Mark-triggered gradient; (with distance; auto start and stop)
Delay: No Delay
UV Wavelength: 254 nm
Samples / sec: 10 Hz
EM1 Speed: 0.30 mm/sec
Distance: 3.20 mm
Number: 30
Dead Volume: 0.000000 ml; Distance due to Dead Volume: 0.00 mm
Total Distance: 96.00 mm

Data Columns:
Distance(mm), Absorbance, Fraction Number, Fraction Volume(ml)
0.00, 0.059087, 0, 0.000
0.03, 0.059144, , 
0.06, 0.059195, , 
0.09, 0.059150, , 
0.12, 0.059163, , 
0.15, 0.059179, , 
0.18, 0.059157, , 
0.21, 0.059134, , 
0.24, 0.059134, , 
0.27, 0.059283, , 
0.30, 0.060000, , 
0.33, 0.061910, , 
0.36, 0.065075, , 
0.39, 0.066871, , 
0.42, 0.068308, , 
0.45, 0.068758, , 
0.48, 0.068802, , 
0.52, 0.068599, , 
0.54, 0.068317, , 
0.57, 0.068190, , 
0.60, 0.069970, , 
0.63, 0.075213, , 
0.66, 0.095466, , 
0.69, 0.129602, , 
0.72, 0.178478, , 
0.75, 0.248356, , 
0.78, 0.314884, , 
0.81, 0.396324, , 
0.84, 0.455388, , 
0.87, 0.538097, , 
0.90, 0.609614, , 
0.93, 0.682388, , 
0.96, 0.768626, , 
0.99, 0.843265, , 
1.02, 0.918383, , 
1.05, 0.993767, , 
1.08, 1.069415, , 
1.12, 1.157233, , 
1.14, 1.230118, , 
1.17, 1.296452, , 
1.20, 1.357718, , 
1.23, 1.394011, , 
1.26, 1.420649, , 
1.29, 1.432569, , 
1.32, 1.442066, , 
1.35, 1.449235, , 
1.38, 1.453526, , 
1.41, 1.457567, , 
1.44, 1.460533, , 
1.47, 1.463217, , 
1.50, 1.465837, , 
1.53, 1.468406, , 
1.56, 1.471356, , 
1.59, 1.473950, , 
1.62, 1.476672, , 
1.65, 1.479942, , 
1.68, 1.482680, , 
1.71, 1.484906, , 
1.74, 1.487932, , 
1.77, 1.490416, , 
1.80, 1.493004, , 
1.83, 1.494977, , 
1.86, 1.496887, , 
1.89, 1.499056, , 
1.92, 1.500442, , 
1.95, 1.502165, , 
1.98, 1.503373, , 
2.01, 1.504284, , 
2.04, 1.504928, , 
2.07, 1.505270, , 
2.10, 1.505727, , 
2.13, 1.506073, , 
2.16, 1.506476, , 
2.19, 1.506704, , 
2.22, 1.506907, , 
2.25, 1.507078, , 
2.28, 1.507253, , 
2.31, 1.507516, , 
2.34, 1.507811, , 
2.37, 1.508112, , 
2.40, 1.508379, , 
2.43, 1.508537, , 
2.46, 1.508820, , 
2.49, 1.509200, , 
2.52, 1.509749, , 
2.55, 1.510272, , 
2.58, 1.510735, , 
2.61, 1.510999, , 
2.64, 1.511145, , 
2.67, 1.511164, , 
2.70, 1.511078, , 
2.73, 1.510777, , 
2.76, 1.510329, , 
2.79, 1.509441, , 
2.82, 1.508525, , 
2.85, 1.507313, , 
2.88, 1.506165, , 
2.91, 1.504861, , 
2.94, 1.503101, , 
2.97, 1.501651, , 
3.00, 1.499427, , 
3.03, 1.497356, , 
3.06, 1.495180, , 
3.09, 1.492823, , 
3.12, 1.489813, , 
3.15, 1.486974, , 
3.18, 1.483933, , 
3.19, 1.482857, 1, 0.584
3.21, 1.480659, , 
3.25, 1.476567, , 
3.27, 1.472863, , 
3.30, 1.468939, , 
3.33, 1.464038, , 
3.36, 1.459509, , 
3.39, 1.454868, , 
3.42, 1.450034, , 
3.45, 1.444087, , 
3.48, 1.439636, , 
3.51, 1.433191, , 
3.54, 1.427390, , 
3.57, 1.421363, , 
3.60, 1.415165, , 
3.63, 1.407768, , 
3.66, 1.400241, , 
3.69, 1.393555, , 
3.72, 1.387861, , 
3.75, 1.379712, , 
3.78, 1.372550, , 
3.81, 1.365283, , 
3.84, 1.356684, , 
3.87, 1.349154, , 
3.90, 1.341395, , 
3.93, 1.332165, , 
3.96, 1.324099, , 
3.99, 1.316001, , 
4.02, 1.307900, , 
4.06, 1.298403, , 
4.08, 1.290200, , 
4.11, 1.281890, , 
4.14, 1.273373, , 
4.17, 1.263052, , 
4.20, 1.254031, , 
4.23, 1.244902, , 
4.26, 1.235637, , 
4.29, 1.224538, , 
4.32, 1.214997, , 
4.35, 1.205481, , 
4.38, 1.194278, , 
4.42, 1.184816, , 
4.44, 1.175335, , 
4.47, 1.165734, , 
4.50, 1.155986, , 
4.53, 1.144558, , 
4.56, 1.134810, , 
4.59, 1.123458, , 
4.62, 1.113907, , 
4.66, 1.104525, , 
4.68, 1.095291, , 
4.71, 1.086178, , 
4.74, 1.077081, , 
4.77, 1.066481, , 
4.80, 1.057510, , 
4.83, 1.047141, , 
4.86, 1.038273, , 
4.90, 1.029474, , 
4.92, 1.020725, , 
4.95, 1.012034, , 
4.98, 1.001935, , 
5.01, 0.993323, , 
5.04, 0.984822, , 
5.07, 0.974697, , 
5.10, 0.967262, , 
5.13, 0.956636, , 
5.16, 0.947403, , 
5.19, 0.938208, , 
5.22, 0.927490, , 
5.25, 0.918415, , 
5.28, 0.907982, , 
5.31, 0.900484, , 
5.34, 0.891358, , 
5.37, 0.880738, , 
5.40, 0.871752, , 
5.43, 0.862782, , 
5.46, 0.853796, , 
5.49, 0.843383, , 
5.52, 0.834352, , 
5.55, 0.823688, , 
5.58, 0.814686, , 
5.61, 0.805973, , 
5.64, 0.797409, , 
5.67, 0.788933, , 
5.70, 0.778983, , 
5.73, 0.770431, , 
5.76, 0.761915, , 
5.79, 0.752116, , 
5.82, 0.745290, , 
5.85, 0.736241, , 
5.88, 0.728679, , 
5.91, 0.721114, , 
5.94, 0.712248, , 
5.97, 0.704750, , 
6.00, 0.696081, , 
6.03, 0.689896, , 
6.06, 0.682527, , 
6.09, 0.673976, , 
6.12, 0.666614, , 
6.15, 0.657866, , 
6.18, 0.650361, , 
6.21, 0.643002, , 
6.24, 0.635773, , 
6.27, 0.628624, , 
6.30, 0.620319, , 
6.33, 0.613224, , 
6.36, 0.606030, , 
6.39, 0.598725, 2, 0.585
6.39, 0.597491, , 
6.42, 0.590189, , 
6.45, 0.583002, , 
6.48, 0.575931, , 
6.51, 0.568877, , 
6.54, 0.560639, , 
6.57, 0.553839, , 
6.60, 0.546204, , 
6.63, 0.539924, , 
6.66, 0.534966, , 
6.69, 0.528340, , 
6.72, 0.522881, , 
6.75, 0.516531, , 
6.78, 0.511132, , 
6.81, 0.505838, , 
6.84, 0.499811, , 
6.87, 0.495659, , 
6.90, 0.490286, , 
6.93, 0.485985, , 
6.96, 0.481516, , 
6.99, 0.475987, , 
7.02, 0.471093, , 
7.06, 0.465326, , 
7.08, 0.461130, , 
7.11, 0.456073, , 
7.14, 0.450215, , 
7.17, 0.445162, , 
7.20, 0.439183, , 
7.23, 0.434013, , 
7.27, 0.428966, , 
7.29, 0.424104, , 
7.32, 0.419273, , 
7.35, 0.413592, , 
7.38, 0.408583, , 
7.41, 0.403435, , 
7.44, 0.397282, , 
7.48, 0.392175, , 
7.50, 0.387518, , 
7.53, 0.383189, , 
7.56, 0.379138, , 
7.59, 0.374555, , 
7.62, 0.370717, , 
7.65, 0.366948, , 
7.68, 0.363177, , 
7.71, 0.359507, , 
7.74, 0.355488, , 
7.77, 0.352120, , 
7.80, 0.348212, , 
7.83, 0.345002, , 
7.86, 0.341871, , 
7.89, 0.338661, , 
7.92, 0.335416, , 
7.95, 0.332095, , 
7.98, 0.328121, , 
8.01, 0.324549, , 
8.04, 0.320210, , 
8.07, 0.316413, , 
8.10, 0.312673, , 
8.13, 0.308280, , 
8.16, 0.305080, , 
8.19, 0.300588, , 
8.22, 0.296826, , 
8.25, 0.293223, , 
8.28, 0.289068, , 
8.31, 0.285576, , 
8.34, 0.282106, , 
8.37, 0.278591, , 
8.40, 0.275057, , 
8.43, 0.270985, , 
8.46, 0.267607, , 
8.49, 0.264381, , 
8.52, 0.261358, , 
8.55, 0.257983, , 
8.58, 0.255030, , 
8.61, 0.251496, , 
8.64, 0.248502, , 
8.67, 0.245711, , 
8.70, 0.243091, , 
8.73, 0.240461, , 
8.76, 0.237892, , 
8.79, 0.234885, , 
8.82, 0.232360, , 
8.85, 0.229410, , 
8.88, 0.226835, , 
8.91, 0.224678, , 
8.94, 0.221680, , 
8.97, 0.219105, , 
9.00, 0.216532, , 
9.03, 0.213367, , 
9.06, 0.210540, , 
9.09, 0.207771, , 
9.12, 0.204698, , 
9.15, 0.202027, , 
9.19, 0.198912, , 
9.21, 0.196746, , 
9.24, 0.194195, , 
9.27, 0.191185, , 
9.30, 0.188559, , 
9.33, 0.185802, , 
9.36, 0.182669, , 
9.39, 0.180210, , 
9.42, 0.177892, , 
9.45, 0.175640, , 
9.48, 0.173483, , 
9.51, 0.171097, , 
9.54, 0.169213, , 
9.57, 0.167481, , 
9.60, 0.166168, 3, 0.587
9.60, 0.165661, , 
9.63, 0.164132, , 
9.66, 0.162657, , 
9.69, 0.161312, , 
9.72, 0.160072, , 
9.75, 0.158673, , 
9.78, 0.157474, , 
9.81, 0.156307, , 
9.84, 0.154990, , 
9.87, 0.153791, , 
9.90, 0.152478, , 
9.93, 0.150924, , 
9.96, 0.149836, , 
9.99, 0.148272, , 
10.02, 0.146883, , 
10.05, 0.145465, , 
10.08, 0.143828, , 
10.11, 0.142423, , 
10.15, 0.140824, , 
10.17, 0.139584, , 
10.20, 0.138598, , 
10.23, 0.137186, , 
10.26, 0.135968, , 
10.29, 0.134655, , 
10.32, 0.133551, , 
10.35, 0.132476, , 
10.38, 0.131474, , 
10.41, 0.130376, , 
10.44, 0.129501, , 
10.47, 0.128701, , 
10.50, 0.127940, , 
10.53, 0.127179, , 
10.56, 0.126329, , 
10.59, 0.125615, , 
10.62, 0.124790, , 
10.65, 0.124169, , 
10.68, 0.123534, , 
10.71, 0.122830, , 
10.74, 0.122113, , 
10.77, 0.121380, , 
10.80, 0.120568, , 
10.83, 0.119718, , 
10.86, 0.118764, , 
10.89, 0.117879, , 
10.92, 0.116876, , 
10.95, 0.115969, , 
10.98, 0.115068, , 
11.01, 0.114244, , 
11.04, 0.113149, , 
11.07, 0.112182, , 
11.10, 0.111151, , 
11.13, 0.110326, , 
11.16, 0.109603, , 
11.19, 0.108585, , 
11.22, 0.107735, , 
11.25, 0.106783, , 
11.28, 0.105978, , 
11.31, 0.105213, , 
11.34, 0.104277, , 
11.37, 0.103602, , 
11.40, 0.102714, , 
11.43, 0.101940, , 
11.46, 0.101245, , 
11.49, 0.100484, , 
11.52, 0.099799, , 
11.55, 0.099025, , 
11.58, 0.098530, , 
11.61, 0.097978, , 
11.64, 0.097239, , 
11.67, 0.096576, , 
11.70, 0.095818, , 
11.73, 0.095241, , 
11.76, 0.094689, , 
11.79, 0.094038, , 
11.82, 0.093420, , 
11.85, 0.092811, , 
11.88, 0.092024, , 
11.91, 0.091330, , 
11.94, 0.090714, , 
11.97, 0.090153, , 
12.00, 0.089398, , 
12.03, 0.088805, , 
12.06, 0.088151, , 
12.09, 0.087580, , 
12.12, 0.086952, , 
12.15, 0.086223, , 
12.18, 0.085617, , 
12.21, 0.085078, , 
12.24, 0.084275, , 
12.27, 0.083647, , 
12.30, 0.083095, , 
12.33, 0.082550, , 
12.36, 0.082055, , 
12.39, 0.081477, , 
12.42, 0.081138, , 
12.45, 0.080723, , 
12.48, 0.080215, , 
12.51, 0.079739, , 
12.54, 0.079263, , 
12.57, 0.078838, , 
12.60, 0.078379, , 
12.63, 0.077938, , 
12.66, 0.077503, , 
12.69, 0.077091, , 
12.72, 0.076770, , 
12.75, 0.076459, , 
12.78, 0.076063, , 
12.79, 0.076006, 4, 0.584
12.81, 0.075628, , 
12.84, 0.075169, , 
12.87, 0.074823, , 
12.90, 0.074537, , 
12.93, 0.074198, , 
12.96, 0.073798, , 
12.99, 0.073395, , 
13.02, 0.072989, , 
13.05, 0.072606, , 
13.08, 0.072273, , 
13.11, 0.071892, , 
13.14, 0.071543, , 
13.17, 0.071169, , 
13.20, 0.070775, , 
13.23, 0.070490, , 
13.26, 0.070217, , 
13.29, 0.069817, , 
13.32, 0.069484, , 
13.35, 0.069186, , 
13.38, 0.068885, , 
13.41, 0.068599, , 
13.44, 0.068320, , 
13.47, 0.068098, , 
13.50, 0.067921, , 
13.53, 0.067753, , 
13.56, 0.067565, , 
13.59, 0.067397, , 
13.62, 0.067204, , 
13.65, 0.066966, , 
13.68, 0.066753, , 
13.71, 0.066538, , 
13.74, 0.066325, , 
13.77, 0.066087, , 
13.80, 0.065868, , 
13.83, 0.065691, , 
13.86, 0.065443, , 
13.89, 0.065231, , 
13.92, 0.064987, , 
13.95, 0.064809, , 
13.98, 0.064650, , 
14.01, 0.064340, , 
14.04, 0.064105, , 
14.07, 0.063934, , 
14.10, 0.063705, , 
14.13, 0.063442, , 
14.16, 0.063150, , 
14.19, 0.063030, , 
14.22, 0.062744, , 
14.25, 0.062497, , 
14.28, 0.062294, , 
14.31, 0.062113, , 
14.34, 0.061850, , 
14.37, 0.061685, , 
14.40, 0.061564, , 
14.43, 0.061367, , 
14.46, 0.061187, , 
14.49, 0.060946, , 
14.52, 0.060752, , 
14.55, 0.060609, , 
14.58, 0.060394, , 
14.61, 0.060235, , 
14.64, 0.060057, , 
14.67, 0.059931, , 
14.70, 0.059731, , 
14.73, 0.059544, , 
14.76, 0.059360, , 
14.79, 0.059169, , 
14.82, 0.058969, , 
14.86, 0.058751, , 
14.88, 0.058627, , 
14.92, 0.058471, , 
14.94, 0.058329, , 
14.97, 0.058126, , 
15.00, 0.057986, , 
15.03, 0.057850, , 
15.06, 0.057663, , 
15.09, 0.057494, , 
15.12, 0.057383, , 
15.15, 0.057228, , 
15.18, 0.056977, , 
15.21, 0.056863, , 
15.24, 0.056797, , 
15.27, 0.056774, , 
15.30, 0.056635, , 
15.33, 0.056492, , 
15.36, 0.056419, , 
15.39, 0.056340, , 
15.42, 0.056207, , 
15.45, 0.056210, , 
15.48, 0.056257, , 
15.51, 0.056210, , 
15.54, 0.056289, , 
15.57, 0.056416, , 
15.60, 0.056568, , 
15.63, 0.056610, , 
15.66, 0.056638, , 
15.69, 0.056736, , 
15.72, 0.056882, , 
15.75, 0.056996, , 
15.78, 0.057073, , 
15.81, 0.057152, , 
15.84, 0.057291, , 
15.87, 0.057390, , 
15.90, 0.057510, , 
15.93, 0.057659, , 
15.96, 0.057840, , 
15.99, 0.057973, 5, 0.586
15.99, 0.058012, , 
16.02, 0.058116, , 
16.05, 0.058357, , 
16.08, 0.058554, , 
16.11, 0.058757, , 
16.14, 0.058960, , 
16.17, 0.059201, , 
16.20, 0.059442, , 
16.23, 0.059613, , 
16.26, 0.059835, , 
16.29, 0.060083, , 
16.32, 0.060289, , 
16.35, 0.060501, , 
16.38, 0.060787, , 
16.41, 0.061117, , 
16.44, 0.061405, , 
16.47, 0.061659, , 
16.50, 0.061995, , 
16.53, 0.062335, , 
16.56, 0.062589, , 
16.59, 0.062807, , 
16.62, 0.063058, , 
16.65, 0.063439, , 
16.68, 0.063689, , 
16.71, 0.063911, , 
16.74, 0.064209, , 
16.77, 0.064473, , 
16.80, 0.064698, , 
16.83, 0.064876, , 
16.86, 0.065155, , 
16.89, 0.065402, , 
16.92, 0.065577, , 
16.95, 0.065795, , 
16.98, 0.065935, , 
17.01, 0.066154, , 
17.04, 0.066322, , 
17.07, 0.066544, , 
17.10, 0.066804, , 
17.13, 0.066918, , 
17.16, 0.066998, , 
17.19, 0.067074, , 
17.22, 0.067239, , 
17.25, 0.067435, , 
17.28, 0.067483, , 
17.31, 0.067534, , 
17.34, 0.067594, , 
17.37, 0.067648, , 
17.40, 0.067616, , 
17.43, 0.067683, , 
17.46, 0.067822, , 
17.49, 0.067902, , 
17.52, 0.067851, , 
17.55, 0.067711, , 
17.58, 0.067724, , 
17.61, 0.067689, , 
17.64, 0.067600, , 
17.67, 0.067594, , 
17.70, 0.067629, , 
17.73, 0.067543, , 
17.76, 0.067381, , 
17.79, 0.067280, , 
17.82, 0.067169, , 
17.85, 0.066979, , 
17.88, 0.066795, , 
17.91, 0.066687, , 
17.94, 0.066560, , 
17.97, 0.066408, , 
18.00, 0.066265, , 
18.03, 0.066106, , 
18.06, 0.065913, , 
18.09, 0.065707, , 
18.12, 0.065491, , 
18.15, 0.065275, , 
18.18, 0.065085, , 
18.21, 0.064888, , 
18.24, 0.064596, , 
18.27, 0.064387, , 
18.30, 0.064095, , 
18.33, 0.063845, , 
18.36, 0.063540, , 
18.39, 0.063312, , 
18.42, 0.063036, , 
18.45, 0.062792, , 
18.48, 0.062449, , 
18.51, 0.062157, , 
18.54, 0.061910, , 
18.57, 0.061624, , 
18.60, 0.061218, , 
18.63, 0.061003, , 
18.66, 0.060679, , 
18.69, 0.060337, , 
18.72, 0.060089, , 
18.75, 0.059800, , 
18.78, 0.059512, , 
18.81, 0.059099, , 
18.84, 0.058811, , 
18.87, 0.058554, , 
18.90, 0.058100, , 
18.93, 0.057736, , 
18.96, 0.057469, , 
18.99, 0.057193, , 
19.02, 0.056895, , 
19.05, 0.056495, , 
19.08, 0.056216, , 
19.11, 0.055924, , 
19.14, 0.055629, , 
19.17, 0.055407, , 
19.19, 0.055100, 6, 0.587
19.20, 0.054992, , 
19.23, 0.054710, , 
19.26, 0.054465, , 
19.29, 0.054145, , 
19.32, 0.053917, , 
19.35, 0.053596, , 
19.38, 0.053380, , 
19.41, 0.053063, , 
19.44, 0.052800, , 
19.47, 0.052562, , 
19.50, 0.052293, , 
19.53, 0.052010, , 
19.56, 0.051814, , 
19.59, 0.051544, , 
19.62, 0.051246, , 
19.65, 0.050951, , 
19.68, 0.050789, , 
19.71, 0.050602, , 
19.74, 0.050370, , 
19.77, 0.050190, , 
19.80, 0.050006, , 
19.83, 0.049777, , 
19.86, 0.049561, , 
19.89, 0.049263, , 
19.92, 0.049070, , 
19.95, 0.048911, , 
19.99, 0.048715, , 
20.01, 0.048559, , 
20.04, 0.048404, , 
20.07, 0.048204, , 
20.10, 0.047922, , 
20.13, 0.047773, , 
20.16, 0.047639, , 
20.19, 0.047474, , 
20.22, 0.047309, , 
20.25, 0.047154, , 
20.28, 0.047011, , 
20.31, 0.046862, , 
20.34, 0.046719, , 
20.37, 0.046650, , 
20.40, 0.046570, , 
20.43, 0.046405, , 
20.46, 0.046256, , 
20.49, 0.046168, , 
20.52, 0.046056, , 
20.55, 0.045895, , 
20.58, 0.045784, , 
20.61, 0.045711, , 
20.64, 0.045590, , 
20.67, 0.045409, , 
20.70, 0.045292, , 
20.73, 0.045235, , 
20.76, 0.045200, , 
20.79, 0.045146, , 
20.82, 0.044981, , 
20.85, 0.044880, , 
20.88, 0.044810, , 
20.91, 0.044734, , 
20.94, 0.044642, , 
20.97, 0.044572, , 
21.00, 0.044455, , 
21.03, 0.044318, , 
21.06, 0.044188, , 
21.09, 0.044122, , 
21.12, 0.044128, , 
21.15, 0.043992, , 
21.18, 0.043852, , 
21.21, 0.043776, , 
21.24, 0.043706, , 
21.27, 0.043598, , 
21.30, 0.043373, , 
21.33, 0.043272, , 
21.36, 0.043183, , 
21.39, 0.043107, , 
21.42, 0.043049, , 
21.45, 0.042961, , 
21.48, 0.042827, , 
21.51, 0.042710, , 
21.54, 0.042571, , 
21.57, 0.042463, , 
21.60, 0.042380, , 
21.63, 0.042260, , 
21.66, 0.042130, , 
21.69, 0.042060, , 
21.72, 0.041920, , 
21.75, 0.041746, , 
21.78, 0.041651, , 
21.81, 0.041606, , 
21.84, 0.041556, , 
21.87, 0.041425, , 
21.90, 0.041283, , 
21.93, 0.041213, , 
21.96, 0.041102, , 
21.99, 0.040959, , 
22.02, 0.040886, , 
22.05, 0.040804, , 
22.08, 0.040642, , 
22.11, 0.040569, , 
22.14, 0.040515, , 
22.17, 0.040388, , 
22.20, 0.040284, , 
22.23, 0.040109, , 
22.26, 0.040074, , 
22.29, 0.040033, , 
22.32, 0.039922, , 
22.35, 0.039763, , 
22.38, 0.039675, , 
22.39, 0.039675, 7, 0.585
22.41, 0.039627, , 
22.44, 0.039541, , 
22.47, 0.039535, , 
22.50, 0.039598, , 
22.53, 0.039560, , 
22.56, 0.039541, , 
22.59, 0.039503, , 
22.62, 0.039487, , 
22.65, 0.039497, , 
22.68, 0.039484, , 
22.71, 0.039491, , 
22.74, 0.039532, , 
22.77, 0.039519, , 
22.80, 0.039494, , 
22.83, 0.039481, , 
22.86, 0.039519, , 
22.89, 0.039598, , 
22.92, 0.039652, , 
22.95, 0.039808, , 
22.98, 0.039903, , 
23.01, 0.039992, , 
23.04, 0.040071, , 
23.07, 0.040220, , 
23.10, 0.040442, , 
23.13, 0.040753, , 
23.16, 0.041029, , 
23.19, 0.041359, , 
23.22, 0.041641, , 
23.25, 0.041974, , 
23.28, 0.042368, , 
23.31, 0.042818, , 
23.34, 0.043291, , 
23.37, 0.043801, , 
23.40, 0.044150, , 
23.43, 0.044616, , 
23.46, 0.045368, , 
23.49, 0.046006, , 
23.52, 0.046729, , 
23.55, 0.047516, , 
23.58, 0.048328, , 
23.61, 0.049168, , 
23.64, 0.050037, , 
23.67, 0.051157, , 
23.70, 0.051991, , 
23.73, 0.052851, , 
23.76, 0.053923, , 
23.79, 0.054884, , 
23.82, 0.056010, , 
23.85, 0.057098, , 
23.88, 0.058294, , 
23.91, 0.059715, , 
23.94, 0.060771, , 
23.97, 0.062224, , 
24.00, 0.063448, , 
24.03, 0.064460, , 
24.06, 0.065973, , 
24.09, 0.067071, , 
24.12, 0.068504, , 
24.15, 0.069729, , 
24.18, 0.070975, , 
24.21, 0.072374, , 
24.24, 0.073449, , 
24.27, 0.074715, , 
24.30, 0.075993, , 
24.33, 0.076894, , 
24.36, 0.077992, , 
24.39, 0.079184, , 
24.42, 0.080056, , 
24.45, 0.081021, , 
24.48, 0.082112, , 
24.51, 0.083016, , 
24.54, 0.083980, , 
24.57, 0.084719, , 
24.60, 0.085500, , 
24.63, 0.086388, , 
24.66, 0.087009, , 
24.69, 0.087742, , 
24.72, 0.088326, , 
24.75, 0.088865, , 
24.78, 0.089458, , 
24.81, 0.089880, , 
24.84, 0.090324, , 
24.87, 0.090679, , 
24.90, 0.090892, , 
24.93, 0.091187, , 
24.96, 0.091434, , 
25.00, 0.091631, , 
25.02, 0.091704, , 
25.05, 0.091726, , 
25.08, 0.091840, , 
25.11, 0.091894, , 
25.14, 0.091847, , 
25.17, 0.091751, , 
25.20, 0.091647, , 
25.23, 0.091548, , 
25.26, 0.091387, , 
25.29, 0.091142, , 
25.32, 0.090984, , 
25.35, 0.090790, , 
25.38, 0.090489, , 
25.41, 0.090124, , 
25.44, 0.089782, , 
25.47, 0.089493, , 
25.50, 0.089087, , 
25.53, 0.088757, , 
25.56, 0.088468, , 
25.59, 0.088120, 8, 0.586
25.60, 0.088062, , 
25.62, 0.087771, , 
25.65, 0.087390, , 
25.68, 0.087095, , 
25.71, 0.086616, , 
25.75, 0.086102, , 
25.77, 0.085747, , 
25.80, 0.085258, , 
25.83, 0.084862, , 
25.86, 0.084415, , 
25.89, 0.084101, , 
25.92, 0.083793, , 
25.95, 0.083349, , 
25.98, 0.083016, , 
26.01, 0.082537, , 
26.04, 0.082125, , 
26.07, 0.081665, , 
26.10, 0.081182, , 
26.13, 0.080742, , 
26.16, 0.080466, , 
26.19, 0.080050, , 
26.22, 0.079765, , 
26.25, 0.079416, , 
26.28, 0.078988, , 
26.31, 0.078566, , 
26.34, 0.077972, , 
26.37, 0.077557, , 
26.40, 0.077148, , 
26.43, 0.076707, , 
26.46, 0.076212, , 
26.49, 0.075927, , 
26.52, 0.075606, , 
26.55, 0.075276, , 
26.58, 0.074867, , 
26.61, 0.074401, , 
26.64, 0.074052, , 
26.67, 0.073570, , 
26.70, 0.073015, , 
26.73, 0.072599, , 
26.76, 0.072215, , 
26.79, 0.071806, , 
26.82, 0.071321, , 
26.85, 0.070785, , 
26.88, 0.070373, , 
26.91, 0.069928, , 
26.94, 0.069402, , 
26.97, 0.069063, , 
27.00, 0.068603, , 
27.03, 0.068143, , 
27.06, 0.067711, , 
27.09, 0.067223, , 
27.12, 0.066826, , 
27.15, 0.066224, , 
27.18, 0.065789, , 
27.21, 0.065402, , 
27.24, 0.065053, , 
27.27, 0.064635, , 
27.30, 0.064336, , 
27.33, 0.064045, , 
27.36, 0.063553, , 
27.39, 0.063093, , 
27.42, 0.062709, , 
27.45, 0.062440, , 
27.48, 0.062087, , 
27.51, 0.061688, , 
27.54, 0.061383, , 
27.57, 0.061063, , 
27.60, 0.060781, , 
27.63, 0.060375, , 
27.66, 0.060026, , 
27.69, 0.059696, , 
27.72, 0.059347, , 
27.75, 0.059055, , 
27.78, 0.058820, , 
27.81, 0.058579, , 
27.84, 0.058294, , 
27.87, 0.057977, , 
27.90, 0.057726, , 
27.93, 0.057437, , 
27.96, 0.057180, , 
27.99, 0.056987, , 
28.02, 0.056803, , 
28.05, 0.056686, , 
28.08, 0.056514, , 
28.11, 0.056229, , 
28.14, 0.056061, , 
28.17, 0.055874, , 
28.20, 0.055699, , 
28.23, 0.055575, , 
28.26, 0.055417, , 
28.29, 0.055325, , 
28.32, 0.055179, , 
28.35, 0.055049, , 
28.38, 0.054935, , 
28.41, 0.054814, , 
28.44, 0.054729, , 
28.47, 0.054697, , 
28.50, 0.054662, , 
28.53, 0.054640, , 
28.56, 0.054618, , 
28.59, 0.054630, , 
28.62, 0.054678, , 
28.65, 0.054656, , 
28.68, 0.054630, , 
28.71, 0.054633, , 
28.74, 0.054671, , 
28.77, 0.054656, , 
28.79, 0.054621, 9, 0.585
28.80, 0.054611, , 
28.83, 0.054649, , 
28.86, 0.054710, , 
28.89, 0.054814, , 
28.92, 0.054941, , 
28.95, 0.055077, , 
28.98, 0.055274, , 
29.01, 0.055420, , 
29.04, 0.055591, , 
29.07, 0.055861, , 
29.10, 0.056064, , 
29.13, 0.056251, , 
29.16, 0.056448, , 
29.19, 0.056797, , 
29.22, 0.057196, , 
29.25, 0.057539, , 
29.28, 0.058008, , 
29.31, 0.058398, , 
29.34, 0.058865, , 
29.37, 0.059322, , 
29.40, 0.059842, , 
29.43, 0.060470, , 
29.46, 0.061209, , 
29.49, 0.061792, , 
29.52, 0.062608, , 
29.55, 0.063673, , 
29.58, 0.064635, , 
29.61, 0.065618, , 
29.64, 0.066649, , 
29.67, 0.067968, , 
29.70, 0.069570, , 
29.73, 0.071051, , 
29.76, 0.073037, , 
29.79, 0.074785, , 
29.82, 0.076583, , 
29.85, 0.079045, , 
29.88, 0.081389, , 
29.91, 0.084307, , 
29.94, 0.086794, , 
29.97, 0.089988, , 
30.00, 0.093781, , 
30.03, 0.097312, , 
30.06, 0.100969, , 
30.09, 0.105594, , 
30.12, 0.108737, , 
30.15, 0.113669, , 
30.18, 0.119198, , 
30.21, 0.124283, , 
30.24, 0.130541, , 
30.27, 0.136139, , 
30.30, 0.141497, , 
30.33, 0.148123, , 
30.36, 0.154518, , 
30.39, 0.162184, , 
30.42, 0.168953, , 
30.45, 0.175326, , 
30.48, 0.184280, , 
30.51, 0.190392, , 
30.54, 0.199048, , 
30.57, 0.206541, , 
30.60, 0.213503, , 
30.63, 0.221794, , 
30.66, 0.230708, , 
30.69, 0.238377, , 
30.72, 0.247344, , 
30.75, 0.254291, , 
30.78, 0.262303, , 
30.81, 0.270772, , 
30.84, 0.276634, , 
30.87, 0.284637, , 
30.90, 0.290771, , 
30.93, 0.297914, , 
30.96, 0.305365, , 
30.99, 0.311424, , 
31.03, 0.318117, , 
31.05, 0.322167, , 
31.08, 0.328035, , 
31.11, 0.333799, , 
31.14, 0.338509, , 
31.17, 0.343695, , 
31.20, 0.347857, , 
31.23, 0.351374, , 
31.26, 0.355165, , 
31.29, 0.358965, , 
31.32, 0.362007, , 
31.35, 0.364354, , 
31.38, 0.367215, , 
31.41, 0.369239, , 
31.44, 0.371738, , 
31.47, 0.373429, , 
31.50, 0.374897, , 
31.53, 0.376391, , 
31.56, 0.377092, , 
31.59, 0.377987, , 
31.62, 0.378437, , 
31.65, 0.378729, , 
31.68, 0.378843, , 
31.71, 0.378700, , 
31.74, 0.378313, , 
31.77, 0.377854, , 
31.80, 0.377206, , 
31.83, 0.376093, , 
31.86, 0.374964, , 
31.89, 0.373705, , 
31.92, 0.372306, , 
31.95, 0.370774, , 
31.98, 0.369172, , 
31.99, 0.368623, 10, 0.586
32.01, 0.367510, , 
32.04, 0.365467, , 
32.07, 0.363361, , 
32.10, 0.361280, , 
32.13, 0.358806, , 
32.16, 0.356484, , 
32.19, 0.354238, , 
32.22, 0.351590, , 
32.25, 0.349030, , 
32.28, 0.345988, , 
32.31, 0.343333, , 
32.34, 0.340146, , 
32.38, 0.337611, , 
32.40, 0.334982, , 
32.43, 0.331518, , 
32.46, 0.328565, , 
32.49, 0.325574, , 
32.52, 0.322021, , 
32.55, 0.319192, , 
32.58, 0.315918, , 
32.61, 0.312896, , 
32.65, 0.309327, , 
32.67, 0.306253, , 
32.70, 0.303392, , 
32.73, 0.299957, , 
32.76, 0.296271, , 
32.79, 0.293118, , 
32.82, 0.290026, , 
32.85, 0.287203, , 
32.88, 0.283869, , 
32.91, 0.280294, , 
32.94, 0.277281, , 
32.97, 0.273811, , 
33.00, 0.270871, , 
33.03, 0.268120, , 
33.06, 0.264907, , 
33.09, 0.261967, , 
33.12, 0.258532, , 
33.15, 0.255106, , 
33.18, 0.252388, , 
33.21, 0.249206, , 
33.24, 0.246272, , 
33.27, 0.243344, , 
33.30, 0.240493, , 
33.33, 0.237645, , 
33.36, 0.235025, , 
33.39, 0.231462, , 
33.42, 0.228655, , 
33.45, 0.225854, , 
33.48, 0.223044, , 
33.51, 0.219764, , 
33.54, 0.217024, , 
33.57, 0.214305, , 
33.60, 0.211146, , 
33.63, 0.208082, , 
33.66, 0.205919, , 
33.69, 0.203346, , 
33.72, 0.200508, , 
33.75, 0.197846, , 
33.78, 0.194998, , 
33.81, 0.192942, , 
33.84, 0.190034, , 
33.87, 0.187744, , 
33.90, 0.185155, , 
33.93, 0.182412, , 
33.96, 0.180118, , 
33.99, 0.177787, , 
34.02, 0.175452, , 
34.05, 0.173337, , 
34.08, 0.170482, , 
34.11, 0.168293, , 
34.14, 0.166305, , 
34.17, 0.163535, , 
34.20, 0.161455, , 
34.23, 0.159168, , 
34.26, 0.157115, , 
34.29, 0.155079, , 
34.32, 0.152589, , 
34.35, 0.150740, , 
34.38, 0.148577, , 
34.41, 0.146226, , 
34.44, 0.144304, , 
34.47, 0.142417, , 
34.50, 0.140507, , 
34.53, 0.138585, , 
34.56, 0.136409, , 
34.59, 0.134652, , 
34.62, 0.132863, , 
34.65, 0.130785, , 
34.68, 0.129183, , 
34.71, 0.127429, , 
34.74, 0.125793, , 
34.77, 0.124124, , 
34.80, 0.122265, , 
34.83, 0.120838, , 
34.86, 0.119135, , 
34.89, 0.117536, , 
34.92, 0.115769, , 
34.95, 0.114272, , 
34.98, 0.112842, , 
35.01, 0.111316, , 
35.04, 0.109882, , 
35.07, 0.108572, , 
35.10, 0.107268, , 
35.13, 0.105679, , 
35.16, 0.104464, , 
35.19, 0.103082, , 
35.21, 0.102821, 11, 0.588
35.22, 0.102254, , 
35.25, 0.100243, , 
35.28, 0.098977, , 
35.31, 0.097794, , 
35.34, 0.096712, , 
35.37, 0.095440, , 
35.40, 0.093943, , 
35.43, 0.093014, , 
35.46, 0.091859, , 
35.49, 0.090600, , 
35.52, 0.089483, , 
35.55, 0.088465, , 
35.58, 0.087447, , 
35.61, 0.086423, , 
35.64, 0.085369, , 
35.67, 0.084605, , 
35.70, 0.083634, , 
35.73, 0.082550, , 
35.76, 0.081554, , 
35.79, 0.080830, , 
35.82, 0.079952, , 
35.85, 0.078978, , 
35.88, 0.078064, , 
35.91, 0.077027, , 
35.94, 0.076203, , 
35.97, 0.075457, , 
36.00, 0.074791, , 
36.03, 0.073944, , 
36.06, 0.072961, , 
36.09, 0.072260, , 
36.12, 0.071568, , 
36.15, 0.070687, , 
36.18, 0.070001, , 
36.21, 0.069231, , 
36.24, 0.068596, , 
36.27, 0.067940, , 
36.30, 0.067178, , 
36.33, 0.066563, , 
36.36, 0.065834, , 
36.39, 0.065234, , 
36.42, 0.064523, , 
36.45, 0.063918, , 
36.48, 0.063385, , 
36.51, 0.062757, , 
36.54, 0.062097, , 
36.57, 0.061539, , 
36.60, 0.061038, , 
36.63, 0.060540, , 
36.66, 0.059969, , 
36.69, 0.059455, , 
36.72, 0.058824, , 
36.75, 0.058246, , 
36.78, 0.057789, , 
36.81, 0.057272, , 
36.84, 0.056774, , 
36.87, 0.056213, , 
36.90, 0.055740, , 
36.93, 0.055322, , 
36.96, 0.054865, , 
37.00, 0.054389, , 
37.02, 0.053948, , 
37.05, 0.053498, , 
37.08, 0.053085, , 
37.11, 0.052594, , 
37.14, 0.052099, , 
37.17, 0.051601, , 
37.20, 0.051220, , 
37.23, 0.050837, , 
37.26, 0.050485, , 
37.29, 0.050174, , 
37.32, 0.049758, , 
37.35, 0.049378, , 
37.38, 0.049060, , 
37.41, 0.048797, , 
37.44, 0.048470, , 
37.47, 0.048131, , 
37.50, 0.047855, , 
37.53, 0.047633, , 
37.56, 0.047414, , 
37.59, 0.047027, , 
37.62, 0.046719, , 
37.65, 0.046472, , 
37.68, 0.046269, , 
37.71, 0.046015, , 
37.74, 0.045660, , 
37.77, 0.045375, , 
37.80, 0.045111, , 
37.83, 0.044772, , 
37.86, 0.044540, , 
37.89, 0.044277, , 
37.92, 0.044084, , 
37.95, 0.043839, , 
37.98, 0.043579, , 
38.01, 0.043408, , 
38.04, 0.043132, , 
38.07, 0.042862, , 
38.10, 0.042666, , 
38.13, 0.042482, , 
38.16, 0.042269, , 
38.19, 0.041936, , 
38.22, 0.041724, , 
38.25, 0.041508, , 
38.28, 0.041235, , 
38.31, 0.041038, , 
38.34, 0.040858, , 
38.37, 0.040715, , 
38.40, 0.040563, 12, 0.584
38.40, 0.040525, , 
38.43, 0.040268, , 
38.46, 0.040122, , 
38.49, 0.039960, , 
38.52, 0.039817, , 
38.55, 0.039636, , 
38.58, 0.039427, , 
38.61, 0.039259, , 
38.64, 0.038967, , 
38.67, 0.038786, , 
38.70, 0.038641, , 
38.73, 0.038457, , 
38.76, 0.038311, , 
38.79, 0.037984, , 
38.82, 0.037832, , 
38.85, 0.037752, , 
38.88, 0.037467, , 
38.91, 0.037283, , 
38.94, 0.037099, , 
38.97, 0.036921, , 
39.00, 0.036769, , 
39.03, 0.036550, , 
39.06, 0.036407, , 
39.09, 0.036230, , 
39.12, 0.036036, , 
39.16, 0.035856, , 
39.18, 0.035729, , 
39.21, 0.035665, , 
39.24, 0.035570, , 
39.27, 0.035488, , 
39.30, 0.035345, , 
39.33, 0.035281, , 
39.37, 0.035161, , 
39.39, 0.035075, , 
39.42, 0.034986, , 
39.45, 0.034844, , 
39.48, 0.034663, , 
39.51, 0.034596, , 
39.54, 0.034584, , 
39.57, 0.034533, , 
39.60, 0.034463, , 
39.63, 0.034314, , 
39.66, 0.034219, , 
39.69, 0.034146, , 
39.72, 0.033994, , 
39.75, 0.033984, , 
39.78, 0.033990, , 
39.81, 0.033978, , 
39.84, 0.033962, , 
39.87, 0.033971, , 
39.90, 0.033984, , 
39.93, 0.033984, , 
39.96, 0.033930, , 
39.99, 0.033905, , 
40.02, 0.033975, , 
40.05, 0.033959, , 
40.08, 0.033911, , 
40.11, 0.033971, , 
40.14, 0.033984, , 
40.17, 0.034003, , 
40.20, 0.034152, , 
40.23, 0.034254, , 
40.26, 0.034308, , 
40.29, 0.034396, , 
40.32, 0.034565, , 
40.35, 0.034691, , 
40.38, 0.034799, , 
40.41, 0.034977, , 
40.44, 0.035164, , 
40.47, 0.035383, , 
40.50, 0.035640, , 
40.53, 0.035767, , 
40.56, 0.036078, , 
40.59, 0.036417, , 
40.62, 0.036693, , 
40.65, 0.036959, , 
40.68, 0.037216, , 
40.71, 0.037572, , 
40.74, 0.037832, , 
40.77, 0.038190, , 
40.80, 0.038631, , 
40.83, 0.039018, , 
40.86, 0.039319, , 
40.89, 0.039665, , 
40.92, 0.040011, , 
40.95, 0.040506, , 
40.98, 0.041197, , 
41.01, 0.041705, , 
41.04, 0.042244, , 
41.07, 0.042716, , 
41.10, 0.043243, , 
41.13, 0.043766, , 
41.16, 0.044283, , 
41.19, 0.044988, , 
41.22, 0.045539, , 
41.25, 0.046187, , 
41.28, 0.046957, , 
41.31, 0.047627, , 
41.34, 0.048309, , 
41.37, 0.048908, , 
41.40, 0.049565, , 
41.43, 0.050402, , 
41.46, 0.050941, , 
41.49, 0.051566, , 
41.52, 0.052489, , 
41.55, 0.053219, , 
41.58, 0.053910, , 
41.59, 0.054253, 13, 0.585
41.61, 0.054595, , 
41.64, 0.055474, , 
41.67, 0.056169, , 
41.70, 0.056971, , 
41.73, 0.057840, , 
41.76, 0.058659, , 
41.79, 0.059623, , 
41.82, 0.060159, , 
41.85, 0.061025, , 
41.88, 0.061808, , 
41.91, 0.062620, , 
41.94, 0.063585, , 
41.97, 0.064355, , 
42.01, 0.065228, , 
42.03, 0.065903, , 
42.06, 0.066674, , 
42.09, 0.067470, , 
42.12, 0.068162, , 
42.15, 0.068882, , 
42.18, 0.069795, , 
42.22, 0.070433, , 
42.24, 0.071140, , 
42.27, 0.071822, , 
42.30, 0.072520, , 
42.33, 0.073218, , 
42.36, 0.073903, , 
42.39, 0.074642, , 
42.43, 0.075153, , 
42.45, 0.075527, , 
42.48, 0.076234, , 
42.51, 0.076856, , 
42.54, 0.077398, , 
42.57, 0.077871, , 
42.60, 0.078436, , 
42.63, 0.078883, , 
42.66, 0.079333, , 
42.69, 0.079631, , 
42.72, 0.080003, , 
42.75, 0.080409, , 
42.78, 0.080586, , 
42.81, 0.080881, , 
42.84, 0.081125, , 
42.87, 0.081252, , 
42.90, 0.081357, , 
42.93, 0.081401, , 
42.96, 0.081474, , 
42.99, 0.081589, , 
43.02, 0.081550, , 
43.05, 0.081512, , 
43.08, 0.081484, , 
43.11, 0.081497, , 
43.14, 0.081401, , 
43.17, 0.081294, , 
43.20, 0.081132, , 
43.23, 0.081002, , 
43.26, 0.080745, , 
43.29, 0.080472, , 
43.32, 0.080332, , 
43.35, 0.080091, , 
43.38, 0.079796, , 
43.41, 0.079451, , 
43.44, 0.079178, , 
43.47, 0.078892, , 
43.50, 0.078556, , 
43.53, 0.078163, , 
43.56, 0.077801, , 
43.59, 0.077294, , 
43.62, 0.076834, , 
43.65, 0.076415, , 
43.68, 0.076006, , 
43.71, 0.075647, , 
43.74, 0.075292, , 
43.77, 0.074880, , 
43.80, 0.074433, , 
43.83, 0.073814, , 
43.86, 0.073332, , 
43.89, 0.072821, , 
43.92, 0.072336, , 
43.95, 0.071892, , 
43.98, 0.071486, , 
44.01, 0.071001, , 
44.04, 0.070585, , 
44.07, 0.070027, , 
44.10, 0.069630, , 
44.13, 0.069161, , 
44.16, 0.068736, , 
44.19, 0.068273, , 
44.22, 0.067787, , 
44.25, 0.067388, , 
44.28, 0.066928, , 
44.31, 0.066414, , 
44.34, 0.065992, , 
44.38, 0.065504, , 
44.40, 0.065152, , 
44.43, 0.064711, , 
44.46, 0.064156, , 
44.49, 0.063715, , 
44.52, 0.063277, , 
44.55, 0.062807, , 
44.58, 0.062440, , 
44.61, 0.061967, , 
44.64, 0.061507, , 
44.67, 0.061006, , 
44.70, 0.060540, , 
44.73, 0.060172, , 
44.76, 0.059699, , 
44.79, 0.059293, , 
44.80, 0.059201, 14, 0.587
44.82, 0.058779, , 
44.85, 0.058402, , 
44.88, 0.058088, , 
44.91, 0.057720, , 
44.94, 0.057339, , 
44.97, 0.056981, , 
45.00, 0.056540, , 
45.03, 0.056054, , 
45.06, 0.055690, , 
45.09, 0.055366, , 
45.12, 0.055122, , 
45.15, 0.054713, , 
45.18, 0.054307, , 
45.21, 0.054031, , 
45.24, 0.053698, , 
45.27, 0.053333, , 
45.30, 0.052895, , 
45.33, 0.052553, , 
45.36, 0.052210, , 
45.39, 0.051833, , 
45.42, 0.051528, , 
45.45, 0.051160, , 
45.48, 0.050770, , 
45.51, 0.050472, , 
45.54, 0.050205, , 
45.57, 0.049926, , 
45.60, 0.049600, , 
45.63, 0.049194, , 
45.66, 0.048873, , 
45.69, 0.048578, , 
45.72, 0.048302, , 
45.75, 0.048020, , 
45.78, 0.047661, , 
45.81, 0.047424, , 
45.84, 0.047122, , 
45.87, 0.046938, , 
45.90, 0.046662, , 
45.93, 0.046405, , 
45.96, 0.046212, , 
45.99, 0.045806, , 
46.02, 0.045574, , 
46.05, 0.045311, , 
46.08, 0.044984, , 
46.11, 0.044724, , 
46.14, 0.044439, , 
46.17, 0.044312, , 
46.20, 0.044201, , 
46.23, 0.044020, , 
46.26, 0.043862, , 
46.29, 0.043636, , 
46.32, 0.043373, , 
46.35, 0.043141, , 
46.38, 0.042907, , 
46.41, 0.042710, , 
46.44, 0.042472, , 
46.47, 0.042174, , 
46.50, 0.042015, , 
46.53, 0.041838, , 
46.56, 0.041654, , 
46.59, 0.041444, , 
46.62, 0.041305, , 
46.65, 0.041219, , 
46.68, 0.040994, , 
46.71, 0.040823, , 
46.74, 0.040690, , 
46.78, 0.040458, , 
46.80, 0.040341, , 
46.83, 0.040185, , 
46.86, 0.040131, , 
46.89, 0.040020, , 
46.92, 0.039840, , 
46.95, 0.039687, , 
46.98, 0.039611, , 
47.01, 0.039592, , 
47.04, 0.039535, , 
47.07, 0.039361, , 
47.10, 0.039259, , 
47.13, 0.039170, , 
47.16, 0.039072, , 
47.19, 0.039002, , 
47.22, 0.038983, , 
47.25, 0.038945, , 
47.28, 0.038799, , 
47.31, 0.038628, , 
47.34, 0.038577, , 
47.37, 0.038514, , 
47.40, 0.038498, , 
47.43, 0.038507, , 
47.46, 0.038495, , 
47.49, 0.038453, , 
47.52, 0.038333, , 
47.55, 0.038196, , 
47.58, 0.038111, , 
47.61, 0.038035, , 
47.64, 0.037955, , 
47.67, 0.037905, , 
47.70, 0.037930, , 
47.73, 0.037955, , 
47.76, 0.037943, , 
47.79, 0.037879, , 
47.82, 0.037905, , 
47.85, 0.037943, , 
47.88, 0.037997, , 
47.91, 0.038143, , 
47.95, 0.038279, , 
47.97, 0.038349, , 
47.99, 0.038346, 15, 0.584
48.00, 0.038349, , 
48.03, 0.038418, , 
48.06, 0.038514, , 
48.09, 0.038647, , 
48.12, 0.038764, , 
48.15, 0.038920, , 
48.18, 0.038961, , 
48.21, 0.039015, , 
48.24, 0.039139, , 
48.27, 0.039259, , 
48.30, 0.039383, , 
48.33, 0.039472, , 
48.36, 0.039579, , 
48.39, 0.039744, , 
48.42, 0.039865, , 
48.45, 0.040058, , 
48.48, 0.040239, , 
48.51, 0.040382, , 
48.54, 0.040648, , 
48.57, 0.040893, , 
48.60, 0.041118, , 
48.63, 0.041422, , 
48.66, 0.041556, , 
48.69, 0.041828, , 
48.72, 0.042076, , 
48.75, 0.042434, , 
48.78, 0.042910, , 
48.81, 0.043170, , 
48.84, 0.043452, , 
48.87, 0.043846, , 
48.90, 0.044245, , 
48.93, 0.044693, , 
48.96, 0.045137, , 
48.99, 0.045603, , 
49.02, 0.046053, , 
49.05, 0.046475, , 
49.08, 0.047014, , 
49.11, 0.047608, , 
49.14, 0.048188, , 
49.17, 0.048813, , 
49.20, 0.049384, , 
49.23, 0.050021, , 
49.26, 0.050703, , 
49.29, 0.051331, , 
49.32, 0.052080, , 
49.35, 0.052825, , 
49.38, 0.053774, , 
49.41, 0.054532, , 
49.44, 0.055049, , 
49.47, 0.055981, , 
49.50, 0.056803, , 
49.53, 0.057577, , 
49.56, 0.058544, , 
49.59, 0.059442, , 
49.62, 0.060298, , 
49.65, 0.061288, , 
49.68, 0.062195, , 
49.71, 0.063182, , 
49.74, 0.064130, , 
49.77, 0.065088, , 
49.80, 0.066230, , 
49.83, 0.067159, , 
49.86, 0.068222, , 
49.89, 0.069063, , 
49.92, 0.069843, , 
49.95, 0.071086, , 
49.98, 0.072044, , 
50.01, 0.073129, , 
50.04, 0.074065, , 
50.07, 0.074969, , 
50.10, 0.076041, , 
50.13, 0.076840, , 
50.16, 0.078011, , 
50.19, 0.078949, , 
50.22, 0.079730, , 
50.25, 0.080602, , 
50.28, 0.081411, , 
50.31, 0.082391, , 
50.35, 0.083102, , 
50.37, 0.083672, , 
50.40, 0.084513, , 
50.43, 0.085106, , 
50.46, 0.085823, , 
50.49, 0.086486, , 
50.52, 0.087054, , 
50.55, 0.087514, , 
50.59, 0.087936, , 
50.61, 0.088256, , 
50.64, 0.088633, , 
50.67, 0.088957, , 
50.70, 0.089185, , 
50.73, 0.089433, , 
50.76, 0.089645, , 
50.79, 0.089756, , 
50.82, 0.089842, , 
50.85, 0.089931, , 
50.88, 0.089988, , 
50.91, 0.089972, , 
50.94, 0.089921, , 
50.97, 0.089842, , 
51.00, 0.089756, , 
51.03, 0.089575, , 
51.06, 0.089357, , 
51.09, 0.089144, , 
51.12, 0.088985, , 
51.15, 0.088713, , 
51.18, 0.088526, , 
51.19, 0.088475, 16, 0.585
51.21, 0.088227, , 
51.24, 0.087932, , 
51.27, 0.087542, , 
51.30, 0.087044, , 
51.33, 0.086724, , 
51.36, 0.086223, , 
51.39, 0.085718, , 
51.42, 0.085341, , 
51.45, 0.085074, , 
51.48, 0.084833, , 
51.51, 0.084339, , 
51.54, 0.083952, , 
51.57, 0.083498, , 
51.60, 0.083082, , 
51.63, 0.082546, , 
51.66, 0.082201, , 
51.69, 0.081703, , 
51.72, 0.081262, , 
51.75, 0.080716, , 
51.78, 0.080139, , 
51.81, 0.079539, , 
51.84, 0.079121, , 
51.87, 0.078426, , 
51.90, 0.077976, , 
51.93, 0.077551, , 
51.97, 0.077043, , 
51.99, 0.076767, , 
52.02, 0.076171, , 
52.05, 0.075571, , 
52.08, 0.075029, , 
52.11, 0.074366, , 
52.14, 0.073893, , 
52.17, 0.073449, , 
52.20, 0.073012, , 
52.23, 0.072529, , 
52.26, 0.072000, , 
52.29, 0.071572, , 
52.32, 0.071229, , 
52.35, 0.070582, , 
52.38, 0.070151, , 
52.41, 0.069716, , 
52.44, 0.069348, , 
52.47, 0.068971, , 
52.50, 0.068374, , 
52.53, 0.067971, , 
52.56, 0.067454, , 
52.59, 0.066979, , 
52.62, 0.066652, , 
52.65, 0.066167, , 
52.68, 0.065703, , 
52.71, 0.065139, , 
52.74, 0.064790, , 
52.77, 0.064340, , 
52.80, 0.063987, , 
52.83, 0.063540, , 
52.86, 0.063179, , 
52.89, 0.062874, , 
52.92, 0.062465, , 
52.95, 0.062040, , 
52.98, 0.061678, , 
53.01, 0.061209, , 
53.04, 0.060784, , 
53.07, 0.060501, , 
53.10, 0.060226, , 
53.13, 0.059991, , 
53.16, 0.059636, , 
53.19, 0.059306, , 
53.22, 0.058928, , 
53.25, 0.058608, , 
53.28, 0.058319, , 
53.31, 0.057951, , 
53.34, 0.057650, , 
53.37, 0.057393, , 
53.40, 0.057095, , 
53.43, 0.056841, , 
53.46, 0.056575, , 
53.49, 0.056273, , 
53.52, 0.055953, , 
53.55, 0.055677, , 
53.58, 0.055499, , 
53.61, 0.055157, , 
53.65, 0.054913, , 
53.67, 0.054767, , 
53.70, 0.054668, , 
53.73, 0.054548, , 
53.76, 0.054297, , 
53.79, 0.054148, , 
53.82, 0.054053, , 
53.85, 0.053831, , 
53.88, 0.053685, , 
53.91, 0.053511, , 
53.94, 0.053393, , 
53.97, 0.053235, , 
54.00, 0.053158, , 
54.03, 0.053143, , 
54.06, 0.053044, , 
54.09, 0.052882, , 
54.12, 0.052743, , 
54.15, 0.052692, , 
54.18, 0.052657, , 
54.21, 0.052600, , 
54.24, 0.052543, , 
54.27, 0.052562, , 
54.30, 0.052584, , 
54.33, 0.052559, , 
54.36, 0.052549, , 
54.39, 0.052591, 17, 0.586
54.39, 0.052588, , 
54.42, 0.052588, , 
54.45, 0.052600, , 
54.48, 0.052600, , 
54.51, 0.052610, , 
54.54, 0.052629, , 
54.57, 0.052568, , 
54.60, 0.052664, , 
54.63, 0.052879, , 
54.66, 0.052965, , 
54.69, 0.053085, , 
54.72, 0.053235, , 
54.75, 0.053479, , 
54.78, 0.053685, , 
54.81, 0.053850, , 
54.84, 0.054056, , 
54.87, 0.054367, , 
54.90, 0.054557, , 
54.93, 0.054852, , 
54.96, 0.055185, , 
54.99, 0.055414, , 
55.02, 0.055829, , 
55.05, 0.056099, , 
55.08, 0.056502, , 
55.11, 0.057044, , 
55.14, 0.057377, , 
55.17, 0.057948, , 
55.20, 0.058411, , 
55.23, 0.058881, , 
55.26, 0.059369, , 
55.29, 0.059816, , 
55.32, 0.060673, , 
55.35, 0.061333, , 
55.38, 0.061897, , 
55.41, 0.062455, , 
55.44, 0.063277, , 
55.47, 0.063870, , 
55.50, 0.064774, , 
55.53, 0.065459, , 
55.56, 0.066328, , 
55.59, 0.067166, , 
55.62, 0.067794, , 
55.65, 0.068752, , 
55.68, 0.069776, , 
55.71, 0.070649, , 
55.74, 0.071483, , 
55.77, 0.072529, , 
55.80, 0.073224, , 
55.83, 0.074306, , 
55.86, 0.075432, , 
55.89, 0.076453, , 
55.92, 0.077500, , 
55.95, 0.078242, , 
55.98, 0.079273, , 
56.01, 0.080310, , 
56.04, 0.081205, , 
56.07, 0.082058, , 
56.10, 0.083070, , 
56.13, 0.083774, , 
56.16, 0.084818, , 
56.19, 0.085703, , 
56.22, 0.086616, , 
56.25, 0.087390, , 
56.28, 0.088132, , 
56.31, 0.088671, , 
56.34, 0.089487, , 
56.37, 0.090267, , 
56.40, 0.090828, , 
56.43, 0.091412, , 
56.46, 0.091932, , 
56.49, 0.092646, , 
56.52, 0.093217, , 
56.55, 0.093632, , 
56.58, 0.093997, , 
56.61, 0.094286, , 
56.64, 0.094743, , 
56.67, 0.094996, , 
56.70, 0.095177, , 
56.73, 0.095409, , 
56.76, 0.095548, , 
56.79, 0.095688, , 
56.82, 0.095767, , 
56.85, 0.095843, , 
56.88, 0.095888, , 
56.91, 0.095862, , 
56.94, 0.095713, , 
56.97, 0.095634, , 
57.00, 0.095501, , 
57.03, 0.095291, , 
57.06, 0.095142, , 
57.09, 0.095009, , 
57.12, 0.094768, , 
57.15, 0.094501, , 
57.18, 0.094254, , 
57.21, 0.093931, , 
57.24, 0.093582, , 
57.27, 0.093182, , 
57.30, 0.092836, , 
57.33, 0.092538, , 
57.36, 0.092129, , 
57.39, 0.091767, , 
57.42, 0.091285, , 
57.45, 0.090803, , 
57.48, 0.090365, , 
57.51, 0.089908, , 
57.54, 0.089502, , 
57.57, 0.088973, , 
57.59, 0.088744, 18, 0.585
57.60, 0.088506, , 
57.63, 0.088110, , 
57.66, 0.087698, , 
57.69, 0.087171, , 
57.72, 0.086492, , 
57.75, 0.085871, , 
57.78, 0.085373, , 
57.81, 0.085030, , 
57.84, 0.084567, , 
57.87, 0.083996, , 
57.90, 0.083504, , 
57.93, 0.083067, , 
57.96, 0.082578, , 
57.99, 0.082001, , 
58.02, 0.081446, , 
58.05, 0.080846, , 
58.08, 0.080326, , 
58.11, 0.079831, , 
58.14, 0.079419, , 
58.17, 0.078927, , 
58.20, 0.078340, , 
58.23, 0.077881, , 
58.26, 0.077563, , 
58.29, 0.077138, , 
58.32, 0.076577, , 
58.35, 0.076130, , 
58.38, 0.075654, , 
58.41, 0.075222, , 
58.44, 0.074759, , 
58.47, 0.074299, , 
58.50, 0.073931, , 
58.53, 0.073465, , 
58.56, 0.073024, , 
58.59, 0.072669, , 
58.63, 0.072374, , 
58.65, 0.071939, , 
58.68, 0.071603, , 
58.71, 0.071308, , 
58.74, 0.071020, , 
58.77, 0.070569, , 
58.80, 0.070290, , 
58.83, 0.069875, , 
58.86, 0.069595, , 
58.89, 0.069266, , 
58.92, 0.068917, , 
58.95, 0.068758, , 
58.98, 0.068422, , 
59.01, 0.068184, , 
59.04, 0.067927, , 
59.07, 0.067711, , 
59.10, 0.067511, , 
59.13, 0.067347, , 
59.16, 0.067118, , 
59.19, 0.066947, , 
59.22, 0.066747, , 
59.25, 0.066636, , 
59.28, 0.066582, , 
59.31, 0.066515, , 
59.34, 0.066297, , 
59.37, 0.066189, , 
59.40, 0.066125, , 
59.43, 0.066084, , 
59.46, 0.066075, , 
59.50, 0.066040, , 
59.52, 0.066033, , 
59.55, 0.066052, , 
59.58, 0.066151, , 
59.61, 0.066224, , 
59.64, 0.066338, , 
59.67, 0.066477, , 
59.70, 0.066541, , 
59.73, 0.066642, , 
59.76, 0.066804, , 
59.79, 0.067001, , 
59.82, 0.067124, , 
59.85, 0.067261, , 
59.88, 0.067534, , 
59.91, 0.067810, , 
59.94, 0.068013, , 
59.97, 0.068343, , 
60.00, 0.068679, , 
60.03, 0.069110, , 
60.06, 0.069465, , 
60.09, 0.069811, , 
60.12, 0.070388, , 
60.15, 0.070839, , 
60.18, 0.071200, , 
60.21, 0.071708, , 
60.24, 0.072257, , 
60.27, 0.072599, , 
60.30, 0.073196, , 
60.33, 0.073757, , 
60.36, 0.074309, , 
60.39, 0.074994, , 
60.42, 0.075454, , 
60.45, 0.076161, , 
60.48, 0.076957, , 
60.51, 0.077516, , 
60.54, 0.078128, , 
60.57, 0.078594, , 
60.60, 0.079387, , 
60.63, 0.080133, , 
60.66, 0.080754, , 
60.69, 0.081519, , 
60.72, 0.081893, , 
60.75, 0.082642, , 
60.78, 0.083305, , 
60.79, 0.083403, 19, 0.586
60.81, 0.083936, , 
60.84, 0.084653, , 
60.87, 0.085081, , 
60.90, 0.085696, , 
60.93, 0.086267, , 
60.96, 0.086857, , 
60.99, 0.087438, , 
61.02, 0.087790, , 
61.05, 0.088383, , 
61.08, 0.088874, , 
61.11, 0.089379, , 
61.14, 0.089731, , 
61.17, 0.090140, , 
61.20, 0.090413, , 
61.24, 0.090774, , 
61.26, 0.091009, , 
61.29, 0.091285, , 
61.32, 0.091602, , 
61.35, 0.091780, , 
61.38, 0.092008, , 
61.41, 0.092180, , 
61.44, 0.092253, , 
61.47, 0.092389, , 
61.50, 0.092503, , 
61.53, 0.092703, , 
61.56, 0.092732, , 
61.59, 0.092611, , 
61.62, 0.092497, , 
61.66, 0.092532, , 
61.68, 0.092481, , 
61.71, 0.092370, , 
61.74, 0.092326, , 
61.77, 0.092214, , 
61.80, 0.092053, , 
61.83, 0.091913, , 
61.86, 0.091631, , 
61.89, 0.091358, , 
61.92, 0.091139, , 
61.95, 0.090863, , 
61.98, 0.090714, , 
62.01, 0.090426, , 
62.04, 0.090083, , 
62.07, 0.089801, , 
62.10, 0.089528, , 
62.13, 0.089347, , 
62.16, 0.088947, , 
62.19, 0.088415, , 
62.22, 0.088053, , 
62.25, 0.087625, , 
62.28, 0.087304, , 
62.31, 0.087047, , 
62.34, 0.086635, , 
62.37, 0.086204, , 
62.40, 0.085852, , 
62.43, 0.085350, , 
62.46, 0.085017, , 
62.49, 0.084523, , 
62.52, 0.084091, , 
62.55, 0.083806, , 
62.58, 0.083435, , 
62.61, 0.083225, , 
62.64, 0.082772, , 
62.67, 0.082385, , 
62.70, 0.082144, , 
62.73, 0.081750, , 
62.76, 0.081401, , 
62.79, 0.081122, , 
62.82, 0.080853, , 
62.85, 0.080516, , 
62.88, 0.080072, , 
62.91, 0.079628, , 
62.94, 0.079333, , 
62.97, 0.078981, , 
63.00, 0.078632, , 
63.03, 0.078325, , 
63.06, 0.078106, , 
63.09, 0.077928, , 
63.12, 0.077557, , 
63.15, 0.077265, , 
63.18, 0.076916, , 
63.21, 0.076513, , 
63.24, 0.076314, , 
63.27, 0.075987, , 
63.30, 0.075778, , 
63.33, 0.075486, , 
63.36, 0.075299, , 
63.39, 0.075251, , 
63.42, 0.075156, , 
63.45, 0.075083, , 
63.48, 0.075051, , 
63.51, 0.074994, , 
63.54, 0.074896, , 
63.57, 0.074728, , 
63.60, 0.074728, , 
63.63, 0.074823, , 
63.66, 0.074924, , 
63.69, 0.074969, , 
63.72, 0.074991, , 
63.75, 0.075083, , 
63.78, 0.075235, , 
63.81, 0.075314, , 
63.84, 0.075397, , 
63.87, 0.075533, , 
63.90, 0.075781, , 
63.93, 0.075882, , 
63.96, 0.076123, , 
63.99, 0.076368, , 
64.01, 0.076402, 20, 0.589
64.02, 0.076555, , 
64.05, 0.076926, , 
64.08, 0.077240, , 
64.11, 0.077579, , 
64.14, 0.077871, , 
64.17, 0.078229, , 
64.20, 0.078531, , 
64.23, 0.079019, , 
64.26, 0.079327, , 
64.29, 0.079590, , 
64.32, 0.080063, , 
64.35, 0.080475, , 
64.38, 0.080888, , 
64.41, 0.081290, , 
64.44, 0.081766, , 
64.47, 0.082194, , 
64.50, 0.082496, , 
64.53, 0.082848, , 
64.56, 0.083174, , 
64.59, 0.083587, , 
64.62, 0.084018, , 
64.65, 0.084405, , 
64.68, 0.084738, , 
64.71, 0.085141, , 
64.74, 0.085439, , 
64.77, 0.085801, , 
64.80, 0.086128, , 
64.83, 0.086480, , 
64.86, 0.086695, , 
64.89, 0.086965, , 
64.92, 0.087304, , 
64.95, 0.087549, , 
64.98, 0.087707, , 
65.01, 0.087847, , 
65.04, 0.088094, , 
65.08, 0.088237, , 
65.10, 0.088310, , 
65.13, 0.088545, , 
65.16, 0.088700, , 
65.19, 0.088811, , 
65.22, 0.088836, , 
65.25, 0.088852, , 
65.29, 0.088935, , 
65.31, 0.088944, , 
65.34, 0.088878, , 
65.37, 0.088789, , 
65.40, 0.088732, , 
65.43, 0.088618, , 
65.46, 0.088475, , 
65.49, 0.088449, , 
65.52, 0.088421, , 
65.56, 0.088250, , 
65.58, 0.088110, , 
65.61, 0.087913, , 
65.64, 0.087637, , 
65.67, 0.087419, , 
65.70, 0.087054, , 
65.73, 0.086819, , 
65.76, 0.086626, , 
65.79, 0.086356, , 
65.83, 0.086150, , 
65.85, 0.085925, , 
65.88, 0.085718, , 
65.91, 0.085436, , 
65.94, 0.085100, , 
65.97, 0.084871, , 
66.00, 0.084681, , 
66.03, 0.084301, , 
66.06, 0.083958, , 
66.09, 0.083672, , 
66.12, 0.083317, , 
66.15, 0.083162, , 
66.18, 0.082816, , 
66.21, 0.082496, , 
66.24, 0.082185, , 
66.27, 0.081814, , 
66.30, 0.081538, , 
66.33, 0.081322, , 
66.36, 0.080973, , 
66.39, 0.080694, , 
66.42, 0.080418, , 
66.45, 0.080212, , 
66.48, 0.079996, , 
66.51, 0.079657, , 
66.54, 0.079486, , 
66.57, 0.079314, , 
66.60, 0.079146, , 
66.63, 0.079048, , 
66.66, 0.078845, , 
66.69, 0.078727, , 
66.72, 0.078607, , 
66.75, 0.078569, , 
66.78, 0.078616, , 
66.81, 0.078597, , 
66.84, 0.078531, , 
66.87, 0.078480, , 
66.90, 0.078521, , 
66.93, 0.078550, , 
66.97, 0.078518, , 
66.99, 0.078509, , 
67.02, 0.078521, , 
67.05, 0.078553, , 
67.08, 0.078591, , 
67.11, 0.078769, , 
67.14, 0.078972, , 
67.17, 0.079219, , 
67.20, 0.079321, 21, 0.584
67.20, 0.079343, , 
67.23, 0.079552, , 
67.26, 0.079869, , 
67.29, 0.080126, , 
67.32, 0.080285, , 
67.35, 0.080542, , 
67.38, 0.080783, , 
67.41, 0.080979, , 
67.44, 0.081255, , 
67.48, 0.081493, , 
67.50, 0.081880, , 
67.53, 0.082115, , 
67.56, 0.082299, , 
67.59, 0.082629, , 
67.62, 0.082854, , 
67.65, 0.083235, , 
67.69, 0.083476, , 
67.71, 0.083660, , 
67.74, 0.083945, , 
67.77, 0.084126, , 
67.80, 0.084402, , 
67.83, 0.084615, , 
67.86, 0.084833, , 
67.89, 0.084922, , 
67.92, 0.085036, , 
67.95, 0.085246, , 
67.98, 0.085360, , 
68.01, 0.085401, , 
68.04, 0.085509, , 
68.07, 0.085668, , 
68.10, 0.085842, , 
68.13, 0.085874, , 
68.16, 0.085886, , 
68.19, 0.085937, , 
68.22, 0.085982, , 
68.25, 0.085969, , 
68.28, 0.085909, , 
68.31, 0.085912, , 
68.34, 0.085890, , 
68.37, 0.085756, , 
68.40, 0.085658, , 
68.43, 0.085525, , 
68.46, 0.085477, , 
68.49, 0.085357, , 
68.52, 0.085220, , 
68.55, 0.085021, , 
68.58, 0.084868, , 
68.61, 0.084564, , 
68.65, 0.084361, , 
68.67, 0.084199, , 
68.70, 0.083917, , 
68.73, 0.083745, , 
68.76, 0.083416, , 
68.79, 0.083124, , 
68.82, 0.082857, , 
68.85, 0.082597, , 
68.88, 0.082423, , 
68.91, 0.082128, , 
68.94, 0.081883, , 
68.97, 0.081658, , 
69.00, 0.081433, , 
69.03, 0.081259, , 
69.06, 0.080957, , 
69.09, 0.080773, , 
69.12, 0.080643, , 
69.15, 0.080469, , 
69.18, 0.080250, , 
69.21, 0.080120, , 
69.24, 0.079942, , 
69.27, 0.079777, , 
69.30, 0.079603, , 
69.33, 0.079501, , 
69.36, 0.079473, , 
69.39, 0.079447, , 
69.42, 0.079419, , 
69.45, 0.079397, , 
69.48, 0.079438, , 
69.51, 0.079454, , 
69.54, 0.079394, , 
69.57, 0.079400, , 
69.60, 0.079422, , 
69.63, 0.079419, , 
69.66, 0.079381, , 
69.69, 0.079454, , 
69.72, 0.079524, , 
69.75, 0.079616, , 
69.78, 0.079692, , 
69.81, 0.079803, , 
69.84, 0.079920, , 
69.87, 0.079977, , 
69.90, 0.080145, , 
69.93, 0.080275, , 
69.96, 0.080405, , 
69.99, 0.080558, , 
70.02, 0.080707, , 
70.05, 0.080957, , 
70.08, 0.081160, , 
70.11, 0.081284, , 
70.14, 0.081471, , 
70.17, 0.081576, , 
70.20, 0.081779, , 
70.23, 0.081963, , 
70.26, 0.082099, , 
70.29, 0.082270, , 
70.32, 0.082328, , 
70.35, 0.082369, , 
70.38, 0.082407, , 
70.39, 0.082496, 22, 0.585
70.41, 0.082623, , 
70.44, 0.082730, , 
70.47, 0.082810, , 
70.50, 0.082838, , 
70.53, 0.082930, , 
70.56, 0.082940, , 
70.59, 0.082918, , 
70.63, 0.082889, , 
70.65, 0.082867, , 
70.68, 0.082876, , 
70.71, 0.082816, , 
70.74, 0.082692, , 
70.77, 0.082556, , 
70.80, 0.082499, , 
70.83, 0.082429, , 
70.86, 0.082290, , 
70.89, 0.082169, , 
70.92, 0.081991, , 
70.95, 0.081839, , 
70.98, 0.081731, , 
71.01, 0.081512, , 
71.04, 0.081252, , 
71.07, 0.081030, , 
71.10, 0.080859, , 
71.13, 0.080672, , 
71.16, 0.080539, , 
71.19, 0.080323, , 
71.22, 0.080117, , 
71.25, 0.079984, , 
71.28, 0.079723, , 
71.31, 0.079593, , 
71.34, 0.079435, , 
71.37, 0.079270, , 
71.40, 0.079118, , 
71.43, 0.078899, , 
71.46, 0.078797, , 
71.49, 0.078693, , 
71.52, 0.078493, , 
71.55, 0.078356, , 
71.58, 0.078220, , 
71.61, 0.078074, , 
71.64, 0.078020, , 
71.67, 0.077976, , 
71.70, 0.078023, , 
71.73, 0.078011, , 
71.76, 0.077941, , 
71.79, 0.077928, , 
71.82, 0.078011, , 
71.85, 0.077998, , 
71.88, 0.077953, , 
71.91, 0.077941, , 
71.94, 0.077950, , 
71.97, 0.078001, , 
72.00, 0.078068, , 
72.03, 0.078198, , 
72.06, 0.078359, , 
72.09, 0.078407, , 
72.12, 0.078401, , 
72.15, 0.078448, , 
72.18, 0.078486, , 
72.21, 0.078451, , 
72.24, 0.078445, , 
72.27, 0.078455, , 
72.30, 0.078470, , 
72.33, 0.078436, , 
72.36, 0.078426, , 
72.39, 0.078461, , 
72.42, 0.078490, , 
72.45, 0.078445, , 
72.48, 0.078458, , 
72.51, 0.078483, , 
72.54, 0.078436, , 
72.57, 0.078445, , 
72.60, 0.078464, , 
72.63, 0.078467, , 
72.66, 0.078461, , 
72.69, 0.078436, , 
72.72, 0.078426, , 
72.75, 0.078398, , 
72.78, 0.078309, , 
72.81, 0.078156, , 
72.84, 0.078058, , 
72.87, 0.077995, , 
72.90, 0.077836, , 
72.93, 0.077716, , 
72.96, 0.077563, , 
72.99, 0.077408, , 
73.02, 0.077240, , 
73.05, 0.076938, , 
73.08, 0.076808, , 
73.11, 0.076678, , 
73.14, 0.076488, , 
73.17, 0.076282, , 
73.20, 0.076117, , 
73.23, 0.076022, , 
73.26, 0.075816, , 
73.29, 0.075724, , 
73.33, 0.075597, , 
73.35, 0.075441, , 
73.38, 0.075276, , 
73.41, 0.075169, , 
73.44, 0.074966, , 
73.47, 0.074845, , 
73.50, 0.074674, , 
73.53, 0.074556, , 
73.56, 0.074540, , 
73.59, 0.074448, 23, 0.585
73.60, 0.074439, , 
73.63, 0.074318, , 
73.65, 0.074239, , 
73.68, 0.074192, , 
73.71, 0.074192, , 
73.74, 0.074125, , 
73.77, 0.074020, , 
73.80, 0.073989, , 
73.83, 0.073849, , 
73.86, 0.073671, , 
73.89, 0.073617, , 
73.92, 0.073598, , 
73.95, 0.073570, , 
73.98, 0.073519, , 
74.01, 0.073541, , 
74.04, 0.073576, , 
74.07, 0.073560, , 
74.10, 0.073516, , 
74.13, 0.073522, , 
74.16, 0.073548, , 
74.19, 0.073554, , 
74.22, 0.073532, , 
74.25, 0.073494, , 
74.29, 0.073433, , 
74.31, 0.073386, , 
74.34, 0.073202, , 
74.37, 0.073135, , 
74.40, 0.073094, , 
74.43, 0.073027, , 
74.46, 0.072882, , 
74.49, 0.072755, , 
74.52, 0.072698, , 
74.55, 0.072606, , 
74.58, 0.072498, , 
74.61, 0.072361, , 
74.64, 0.072260, , 
74.67, 0.072047, , 
74.70, 0.071873, , 
74.73, 0.071727, , 
74.76, 0.071546, , 
74.79, 0.071365, , 
74.82, 0.071194, , 
74.85, 0.071153, , 
74.88, 0.071042, , 
74.91, 0.070826, , 
74.94, 0.070674, , 
74.97, 0.070582, , 
75.00, 0.070414, , 
75.03, 0.070281, , 
75.06, 0.070087, , 
75.09, 0.069954, , 
75.12, 0.069811, , 
75.15, 0.069643, , 
75.18, 0.069472, , 
75.21, 0.069351, , 
75.24, 0.069186, , 
75.27, 0.069050, , 
75.30, 0.068825, , 
75.33, 0.068701, , 
75.36, 0.068631, , 
75.39, 0.068476, , 
75.42, 0.068362, , 
75.45, 0.068266, , 
75.48, 0.068159, , 
75.52, 0.068038, , 
75.54, 0.067867, , 
75.57, 0.067730, , 
75.60, 0.067661, , 
75.63, 0.067534, , 
75.66, 0.067496, , 
75.69, 0.067458, , 
75.72, 0.067299, , 
75.75, 0.067182, , 
75.78, 0.067102, , 
75.81, 0.067067, , 
75.84, 0.067010, , 
75.87, 0.066829, , 
75.90, 0.066709, , 
75.93, 0.066620, , 
75.96, 0.066544, , 
75.99, 0.066481, , 
76.02, 0.066401, , 
76.05, 0.066287, , 
76.08, 0.066160, , 
76.11, 0.066062, , 
76.14, 0.066046, , 
76.17, 0.066030, , 
76.20, 0.065843, , 
76.23, 0.065691, , 
76.26, 0.065589, , 
76.29, 0.065475, , 
76.32, 0.065228, , 
76.35, 0.065101, , 
76.38, 0.065015, , 
76.41, 0.064831, , 
76.44, 0.064704, , 
76.47, 0.064501, , 
76.50, 0.064359, , 
76.53, 0.064270, , 
76.56, 0.064083, , 
76.59, 0.063972, , 
76.62, 0.063778, , 
76.65, 0.063613, , 
76.68, 0.063502, , 
76.71, 0.063280, , 
76.74, 0.063213, , 
76.77, 0.063061, , 
76.79, 0.062893, 24, 0.586
76.80, 0.062858, , 
76.83, 0.062658, , 
76.86, 0.062595, , 
76.89, 0.062459, , 
76.92, 0.062313, , 
76.95, 0.062151, , 
76.98, 0.061992, , 
77.01, 0.061786, , 
77.04, 0.061659, , 
77.07, 0.061593, , 
77.10, 0.061488, , 
77.13, 0.061304, , 
77.16, 0.061149, , 
77.19, 0.061072, , 
77.22, 0.060984, , 
77.25, 0.060689, , 
77.28, 0.060609, , 
77.31, 0.060527, , 
77.34, 0.060435, , 
77.37, 0.060260, , 
77.40, 0.060092, , 
77.43, 0.059978, , 
77.46, 0.059864, , 
77.49, 0.059686, , 
77.52, 0.059582, , 
77.55, 0.059477, , 
77.58, 0.059334, , 
77.61, 0.059239, , 
77.64, 0.059090, , 
77.67, 0.058969, , 
77.70, 0.058766, , 
77.73, 0.058649, , 
77.76, 0.058516, , 
77.79, 0.058376, , 
77.82, 0.058265, , 
77.85, 0.058053, , 
77.88, 0.057837, , 
77.91, 0.057701, , 
77.94, 0.057631, , 
77.97, 0.057501, , 
78.00, 0.057279, , 
78.03, 0.057142, , 
78.06, 0.057060, , 
78.09, 0.056946, , 
78.12, 0.056860, , 
78.15, 0.056686, , 
78.18, 0.056562, , 
78.21, 0.056391, , 
78.24, 0.056248, , 
78.27, 0.056181, , 
78.30, 0.055953, , 
78.33, 0.055759, , 
78.36, 0.055658, , 
78.39, 0.055588, , 
78.42, 0.055506, , 
78.45, 0.055268, , 
78.48, 0.055119, , 
78.51, 0.055068, , 
78.54, 0.054922, , 
78.57, 0.054814, , 
78.60, 0.054681, , 
78.63, 0.054599, , 
78.66, 0.054491, , 
78.69, 0.054319, , 
78.72, 0.054234, , 
78.75, 0.054034, , 
78.78, 0.053853, , 
78.81, 0.053745, , 
78.84, 0.053663, , 
78.87, 0.053609, , 
78.90, 0.053434, , 
78.93, 0.053292, , 
78.96, 0.053212, , 
78.99, 0.053152, , 
79.02, 0.052974, , 
79.05, 0.052911, , 
79.08, 0.052752, , 
79.11, 0.052603, , 
79.14, 0.052429, , 
79.17, 0.052312, , 
79.20, 0.052235, , 
79.23, 0.052074, , 
79.26, 0.051978, , 
79.29, 0.051833, , 
79.32, 0.051728, , 
79.35, 0.051636, , 
79.38, 0.051389, , 
79.41, 0.051239, , 
79.44, 0.051103, , 
79.47, 0.050935, , 
79.50, 0.050811, , 
79.53, 0.050722, , 
79.56, 0.050551, , 
79.59, 0.050377, , 
79.62, 0.050113, , 
79.65, 0.049847, , 
79.68, 0.049682, , 
79.71, 0.049460, , 
79.74, 0.049184, , 
79.77, 0.048975, , 
79.80, 0.048762, , 
79.83, 0.048673, , 
79.86, 0.048350, , 
79.89, 0.048102, , 
79.92, 0.047960, , 
79.95, 0.047820, , 
79.98, 0.047608, , 
80.00, 0.047528, 25, 0.586
80.01, 0.047446, , 
80.04, 0.047240, , 
80.07, 0.047040, , 
80.10, 0.046881, , 
80.13, 0.046748, , 
80.16, 0.046624, , 
80.19, 0.046431, , 
80.22, 0.046221, , 
80.25, 0.046018, , 
80.28, 0.045904, , 
80.31, 0.045768, , 
80.34, 0.045517, , 
80.37, 0.045425, , 
80.40, 0.045317, , 
80.43, 0.045133, , 
80.46, 0.044991, , 
80.49, 0.044680, , 
80.52, 0.044521, , 
80.55, 0.044236, , 
80.58, 0.043985, , 
80.61, 0.043862, , 
80.64, 0.043770, , 
80.67, 0.043538, , 
80.70, 0.043303, , 
80.73, 0.043113, , 
80.76, 0.042900, , 
80.79, 0.042599, , 
80.82, 0.042510, , 
80.85, 0.042314, , 
80.88, 0.042158, , 
80.91, 0.041889, , 
80.94, 0.041648, , 
80.97, 0.041514, , 
81.00, 0.041197, , 
81.03, 0.041000, , 
81.06, 0.040737, , 
81.09, 0.040528, , 
81.12, 0.040372, , 
81.15, 0.040033, , 
81.18, 0.039830, , 
81.21, 0.039589, , 
81.24, 0.039332, , 
81.27, 0.039173, , 
81.30, 0.038831, , 
81.33, 0.038663, , 
81.36, 0.038482, , 
81.39, 0.038260, , 
81.42, 0.038184, , 
81.45, 0.038035, , 
81.48, 0.037860, , 
81.51, 0.037698, , 
81.54, 0.037606, , 
81.57, 0.037489, , 
81.60, 0.037181, , 
81.63, 0.037051, , 
81.66, 0.037001, , 
81.69, 0.036896, , 
81.72, 0.036794, , 
81.75, 0.036541, , 
81.78, 0.036468, , 
81.81, 0.036420, , 
81.84, 0.036271, , 
81.87, 0.036090, , 
81.90, 0.036020, , 
81.94, 0.035827, , 
81.96, 0.035678, , 
81.99, 0.035494, , 
82.02, 0.035434, , 
82.05, 0.035386, , 
82.08, 0.035126, , 
82.11, 0.034983, , 
82.15, 0.034999, , 
82.17, 0.034894, , 
82.20, 0.034783, , 
82.23, 0.034580, , 
82.26, 0.034454, , 
82.29, 0.034266, , 
82.32, 0.034089, , 
82.35, 0.033946, , 
82.38, 0.033924, , 
82.41, 0.033851, , 
82.44, 0.033737, , 
82.47, 0.033623, , 
82.50, 0.033518, , 
82.53, 0.033426, , 
82.56, 0.033302, , 
82.59, 0.033286, , 
82.62, 0.033144, , 
82.65, 0.032991, , 
82.68, 0.032880, , 
82.71, 0.032826, , 
82.74, 0.032776, , 
82.77, 0.032566, , 
82.80, 0.032433, , 
82.83, 0.032354, , 
82.86, 0.032319, , 
82.89, 0.032274, , 
82.92, 0.032259, , 
82.95, 0.032262, , 
82.98, 0.032141, , 
83.01, 0.032037, , 
83.04, 0.031878, , 
83.07, 0.031830, , 
83.10, 0.031824, , 
83.13, 0.031805, , 
83.16, 0.031789, , 
83.19, 0.031783, 26, 0.585
83.20, 0.031795, , 
83.22, 0.031780, , 
83.25, 0.031672, , 
83.28, 0.031564, , 
83.31, 0.031450, , 
83.34, 0.031431, , 
83.37, 0.031323, , 
83.40, 0.031272, , 
83.43, 0.031317, , 
83.46, 0.031291, , 
83.49, 0.031237, , 
83.52, 0.031085, , 
83.55, 0.030974, , 
83.58, 0.030869, , 
83.61, 0.030831, , 
83.64, 0.030831, , 
83.67, 0.030825, , 
83.70, 0.030825, , 
83.73, 0.030749, , 
83.76, 0.030752, , 
83.79, 0.030806, , 
83.82, 0.030761, , 
83.85, 0.030682, , 
83.88, 0.030619, , 
83.92, 0.030463, , 
83.94, 0.030349, , 
83.97, 0.030286, , 
84.00, 0.030289, , 
84.03, 0.030305, , 
84.06, 0.030260, , 
84.09, 0.030159, , 
84.12, 0.030137, , 
84.15, 0.030060, , 
84.18, 0.029940, , 
84.21, 0.029848, , 
84.24, 0.029835, , 
84.27, 0.029800, , 
84.30, 0.029769, , 
84.33, 0.029721, , 
84.36, 0.029731, , 
84.39, 0.029753, , 
84.42, 0.029737, , 
84.45, 0.029724, , 
84.48, 0.029677, , 
84.51, 0.029499, , 
84.54, 0.029372, , 
84.57, 0.029344, , 
84.60, 0.029337, , 
84.63, 0.029252, , 
84.66, 0.029214, , 
84.69, 0.029223, , 
84.72, 0.029248, , 
84.75, 0.029242, , 
84.78, 0.029210, , 
84.81, 0.029217, , 
84.84, 0.029258, , 
84.87, 0.029245, , 
84.90, 0.029204, , 
84.93, 0.029239, , 
84.96, 0.029283, , 
84.99, 0.029264, , 
85.02, 0.029182, , 
85.05, 0.029064, , 
85.09, 0.028995, , 
85.11, 0.028874, , 
85.14, 0.028798, , 
85.17, 0.028776, , 
85.20, 0.028792, , 
85.23, 0.028785, , 
85.26, 0.028766, , 
85.29, 0.028738, , 
85.32, 0.028744, , 
85.35, 0.028760, , 
85.38, 0.028779, , 
85.41, 0.028754, , 
85.44, 0.028798, , 
85.47, 0.028766, , 
85.50, 0.028652, , 
85.53, 0.028582, , 
85.56, 0.028421, , 
85.59, 0.028360, , 
85.62, 0.028268, , 
85.65, 0.028284, , 
85.68, 0.028297, , 
85.71, 0.028268, , 
85.74, 0.028281, , 
85.77, 0.028265, , 
85.80, 0.028271, , 
85.83, 0.028262, , 
85.86, 0.028271, , 
85.89, 0.028281, , 
85.92, 0.028278, , 
85.95, 0.028249, , 
85.98, 0.028249, , 
86.01, 0.028287, , 
86.04, 0.028284, , 
86.07, 0.028224, , 
86.10, 0.028252, , 
86.13, 0.028294, , 
86.16, 0.028303, , 
86.19, 0.028252, , 
86.22, 0.028227, , 
86.25, 0.028179, , 
86.28, 0.028049, , 
86.31, 0.027954, , 
86.34, 0.027862, , 
86.37, 0.027837, , 
86.39, 0.027834, 27, 0.586
86.40, 0.027818, , 
86.43, 0.027761, , 
86.46, 0.027796, , 
86.49, 0.027853, , 
86.52, 0.027824, , 
86.55, 0.027808, , 
86.58, 0.027821, , 
86.61, 0.027799, , 
86.64, 0.027720, , 
86.67, 0.027732, , 
86.70, 0.027761, , 
86.73, 0.027777, , 
86.76, 0.027758, , 
86.79, 0.027735, , 
86.82, 0.027742, , 
86.85, 0.027764, , 
86.88, 0.027742, , 
86.91, 0.027710, , 
86.94, 0.027764, , 
86.97, 0.027758, , 
87.00, 0.027707, , 
87.03, 0.027742, , 
87.06, 0.027789, , 
87.09, 0.027767, , 
87.12, 0.027735, , 
87.15, 0.027735, , 
87.18, 0.027732, , 
87.21, 0.027701, , 
87.24, 0.027469, , 
87.27, 0.027364, , 
87.30, 0.027352, , 
87.33, 0.027333, , 
87.36, 0.027301, , 
87.39, 0.027329, , 
87.42, 0.027317, , 
87.45, 0.027307, , 
87.48, 0.027272, , 
87.51, 0.027307, , 
87.54, 0.027333, , 
87.57, 0.027329, , 
87.60, 0.027298, , 
87.63, 0.027333, , 
87.66, 0.027342, , 
87.69, 0.027314, , 
87.72, 0.027317, , 
87.75, 0.027345, , 
87.78, 0.027421, , 
87.81, 0.027367, , 
87.84, 0.027358, , 
87.87, 0.027371, , 
87.90, 0.027406, , 
87.93, 0.027390, , 
87.96, 0.027358, , 
87.99, 0.027361, , 
88.02, 0.027415, , 
88.05, 0.027402, , 
88.08, 0.027406, , 
88.11, 0.027421, , 
88.14, 0.027386, , 
88.17, 0.027193, , 
88.20, 0.027088, , 
88.23, 0.027069, , 
88.26, 0.027028, , 
88.29, 0.026993, , 
88.32, 0.026996, , 
88.36, 0.027019, , 
88.38, 0.027022, , 
88.41, 0.026955, , 
88.44, 0.026958, , 
88.47, 0.027003, , 
88.50, 0.027009, , 
88.53, 0.026949, , 
88.56, 0.026968, , 
88.59, 0.027060, , 
88.62, 0.027139, , 
88.65, 0.027260, , 
88.68, 0.027383, , 
88.71, 0.027485, , 
88.74, 0.027482, , 
88.77, 0.027440, , 
88.80, 0.027478, , 
88.83, 0.027526, , 
88.86, 0.027485, , 
88.89, 0.027415, , 
88.92, 0.027431, , 
88.95, 0.027482, , 
88.98, 0.027444, , 
89.01, 0.027469, , 
89.04, 0.027488, , 
89.08, 0.027520, , 
89.10, 0.027507, , 
89.13, 0.027501, , 
89.16, 0.027517, , 
89.19, 0.027532, , 
89.22, 0.027510, , 
89.25, 0.027459, , 
89.28, 0.027475, , 
89.31, 0.027485, , 
89.34, 0.027463, , 
89.37, 0.027469, , 
89.40, 0.027498, , 
89.43, 0.027507, , 
89.46, 0.027513, , 
89.49, 0.027494, , 
89.52, 0.027510, , 
89.55, 0.027510, , 
89.58, 0.027475, , 
89.61, 0.027488, , 
89.64, 0.027520, , 
89.67, 0.027536, , 
89.70, 0.027472, , 
89.73, 0.027478, , 
89.76, 0.027504, , 
89.79, 0.027485, , 
89.82, 0.027450, , 
89.85, 0.027475, , 
89.88, 0.027501, , 
89.91, 0.027459, , 
89.94, 0.027415, , 
89.97, 0.027437, , 
90.00, 0.027517, , 
90.03, 0.027488, , 
90.06, 0.027444, , 
90.09, 0.027482, , 
90.12, 0.027475, , 
90.15, 0.027440, , 
90.18, 0.027386, , 
90.22, 0.027393, , 
90.24, 0.027402, , 
90.27, 0.027386, , 
90.30, 0.027402, , 
90.33, 0.027428, , 
90.36, 0.027418, , 
90.39, 0.027364, , 
90.42, 0.027333, , 
90.45, 0.027355, , 
90.48, 0.027396, , 
90.51, 0.027377, , 
90.54, 0.027336, , 
90.57, 0.027380, , 
90.60, 0.027377, , 
90.63, 0.027314, , 
90.66, 0.027345, , 
90.69, 0.027377, , 
90.72, 0.027329, , 
90.75, 0.027310, , 
90.78, 0.027323, , 
90.81, 0.027333, , 
90.84, 0.027345, , 
90.87, 0.027320, , 
90.90, 0.027339, , 
90.93, 0.027317, , 
90.96, 0.027339, , 
90.99, 0.027352, , 
91.02, 0.027323, , 
91.05, 0.027393, , 
91.08, 0.027358, , 
91.11, 0.027339, , 
91.14, 0.027355, , 
91.17, 0.027402, , 
91.21, 0.027367, , 
91.23, 0.027288, , 
91.26, 0.027317, , 
91.29, 0.027320, , 
91.32, 0.027307, , 
91.35, 0.027323, , 
91.38, 0.027336, , 
91.41, 0.027371, , 
91.45, 0.027361, , 
91.47, 0.027348, , 
91.50, 0.027348, , 
91.53, 0.027336, , 
91.56, 0.027301, , 
91.59, 0.027355, , 
91.62, 0.027399, , 
91.65, 0.027377, , 
91.68, 0.027339, , 
91.71, 0.027348, , 
91.74, 0.027374, , 
91.77, 0.027339, , 
91.80, 0.027342, , 
91.83, 0.027352, , 
91.86, 0.027377, , 
91.89, 0.027386, , 
91.92, 0.027333, , 
91.95, 0.027339, , 
91.98, 0.027352, , 
92.01, 0.027371, , 
92.04, 0.027342, , 
92.07, 0.027371, , 
92.10, 0.027402, , 
92.13, 0.027396, , 
92.16, 0.027377, , 
92.19, 0.027393, , 
92.22, 0.027425, , 
92.25, 0.027431, , 
92.28, 0.027383, , 
92.31, 0.027377, , 
92.34, 0.027402, , 
92.37, 0.027386, , 
92.40, 0.027409, , 
92.43, 0.027437, , 
92.46, 0.027425, , 
92.49, 0.027393, , 
92.52, 0.027361, , 
92.55, 0.027409, , 
92.58, 0.027412, , 
92.61, 0.027393, , 
92.64, 0.027415, , 
92.67, 0.027399, , 
92.70, 0.027386, , 
92.73, 0.027358, , 
92.76, 0.027323, , 
92.79, 0.027358, , 
92.82, 0.027377, , 
92.85, 0.027333, , 
92.88, 0.027374, , 
92.91, 0.027425, , 
92.94, 0.027418, , 
92.97, 0.027390, , 
93.00, 0.027364, , 
93.03, 0.027393, , 
93.06, 0.027399, , 
93.09, 0.027345, , 
93.12, 0.027301, , 
93.15, 0.027374, , 
93.18, 0.027336, , 
93.21, 0.027339, , 
93.24, 0.027339, , 
93.27, 0.027326, , 
93.30, 0.027333, , 
93.33, 0.027314, , 
93.36, 0.027314, , 
93.39, 0.027390, , 
93.42, 0.027396, , 
93.45, 0.027329, , 
93.48, 0.027320, , 
93.51, 0.027307, , 
93.54, 0.027314, , 
93.57, 0.027310, , 
93.60, 0.027336, , 
93.63, 0.027348, , 
93.66, 0.027329, , 
93.69, 0.027320, , 
93.72, 0.027336, , 
93.75, 0.027345, , 
93.78, 0.027352, , 
93.81, 0.027336, , 
93.84, 0.027361, , 
93.87, 0.027301, , 
93.90, 0.027272, , 
93.93, 0.027272, , 
93.96, 0.027307, , 
93.99, 0.027285, , 
94.02, 0.027225, , 
94.05, 0.027241, , 
94.08, 0.027282, , 
94.11, 0.027285, , 
94.14, 0.027279, , 
94.17, 0.027279, , 
94.20, 0.027288, , 
94.23, 0.027275, , 
94.26, 0.027231, , 
94.29, 0.027247, , 
94.32, 0.027231, , 
94.35, 0.027222, , 
94.38, 0.027253, , 
94.41, 0.027272, , 
94.44, 0.027304, , 
94.48, 0.027256, , 
94.50, 0.027250, , 
94.53, 0.027260, , 
94.56, 0.027320, , 
94.59, 0.027279, , 
94.62, 0.027256, , 
94.65, 0.027294, , 
94.68, 0.027260, , 
94.71, 0.027225, , 
94.74, 0.027199, , 
94.77, 0.027234, , 
94.80, 0.027253, , 
94.83, 0.027256, , 
94.86, 0.027209, , 
94.89, 0.027196, , 
94.92, 0.027218, , 
94.95, 0.027218, , 
94.98, 0.027234, , 
95.01, 0.027244, , 
95.04, 0.027225, , 
95.07, 0.027155, , 
95.11, 0.027126, , 
95.13, 0.027031, , 
95.16, 0.026980, , 
95.19, 0.026863, , 
95.22, 0.026803, , 
95.25, 0.026790, , 
95.28, 0.026727, , 
95.31, 0.026708, , 
95.34, 0.026717, , 
95.37, 0.026743, , 
95.40, 0.026755, , 
95.43, 0.026762, , 
95.46, 0.026752, , 
95.49, 0.026800, , 
95.52, 0.026787, , 
95.55, 0.026695, , 
95.58, 0.026730, , 
95.61, 0.026746, , 
95.64, 0.026730, , 
95.67, 0.026689, , 
95.70, 0.026705, , 
95.73, 0.026739, , 
95.76, 0.026746, , 
95.79, 0.026736, , 
95.82, 0.026755, , 
95.85, 0.026714, , 
95.88, 0.026705, , 
95.91, 0.026727, , 
95.94, 0.026724, , 
95.97, 0.026752, , 
96.00, 0.026717, , 
