Gradient Profiler Text Data File: 20241017_yHG005_rep1_sample_2_30C.csv
Date: 2024-10-17
Time: 15:13:14

User: jared
Experiment name: 
UV Unit: EM-1
Rotor Manufacturer: Beckman
Rotor Model: SW28.1
Speed: 28 rpm
Gradient: sucrose 10.0% to 50.0% w/v
Time: 4
w2t:  x 10^0
Sample Volume: 18 ml
Number of Tubes: 6
Volume per mm: 0.183 ml/mm

Absorbance Units Full Scale (AUFS): 2.00
Event Mark-triggered gradient; (with distance; auto start and stop)
Delay: No Delay
UV Wavelength: 254 nm
Samples / sec: 10 Hz
EM1 Speed: 0.30 mm/sec
Distance: 3.20 mm
Number: 30
Dead Volume: 0.000000 ml; Distance due to Dead Volume: 0.00 mm
Total Distance: 96.00 mm

Data Columns:
Distance(mm), Absorbance, Fraction Number, Fraction Volume(ml)
0.00, 0.059544, 0, 0.000
0.03, 0.059601, , 
0.06, 0.059604, , 
0.09, 0.059585, , 
0.12, 0.059639, , 
0.15, 0.059629, , 
0.18, 0.059594, , 
0.21, 0.059582, , 
0.24, 0.059591, , 
0.27, 0.059525, , 
0.30, 0.059379, , 
0.33, 0.059233, , 
0.36, 0.059125, , 
0.39, 0.059112, , 
0.42, 0.059090, , 
0.45, 0.059099, , 
0.48, 0.059103, , 
0.51, 0.059068, , 
0.54, 0.059112, , 
0.57, 0.059236, , 
0.60, 0.060381, , 
0.63, 0.063949, , 
0.66, 0.078531, , 
0.69, 0.106085, , 
0.72, 0.158264, , 
0.75, 0.216596, , 
0.78, 0.282860, , 
0.81, 0.366063, , 
0.84, 0.427739, , 
0.87, 0.515918, , 
0.90, 0.592698, , 
0.93, 0.670131, , 
0.96, 0.761182, , 
0.99, 0.839633, , 
1.02, 0.931524, , 
1.05, 0.997462, , 
1.08, 1.076504, , 
1.11, 1.168449, , 
1.14, 1.245654, , 
1.17, 1.329593, , 
1.20, 1.390278, , 
1.23, 1.436059, , 
1.26, 1.467131, , 
1.29, 1.487082, , 
1.32, 1.501343, , 
1.35, 1.508997, , 
1.38, 1.514336, , 
1.41, 1.518948, , 
1.44, 1.521970, , 
1.47, 1.524467, , 
1.50, 1.526922, , 
1.53, 1.528825, , 
1.56, 1.530281, , 
1.59, 1.532305, , 
1.62, 1.534255, , 
1.65, 1.536641, , 
1.68, 1.538556, , 
1.71, 1.540298, , 
1.74, 1.542350, , 
1.77, 1.543831, , 
1.80, 1.545820, , 
1.83, 1.547403, , 
1.86, 1.548976, , 
1.89, 1.550721, , 
1.92, 1.552024, , 
1.95, 1.553322, , 
1.98, 1.554153, , 
2.01, 1.554955, , 
2.04, 1.555463, , 
2.07, 1.555650, , 
2.10, 1.555742, , 
2.13, 1.555755, , 
2.16, 1.555771, , 
2.19, 1.555771, , 
2.22, 1.555717, , 
2.25, 1.555520, , 
2.28, 1.555095, , 
2.31, 1.554616, , 
2.34, 1.553988, , 
2.38, 1.553420, , 
2.40, 1.552833, , 
2.43, 1.552221, , 
2.46, 1.551495, , 
2.49, 1.550683, , 
2.52, 1.549718, , 
2.55, 1.549017, , 
2.58, 1.548247, , 
2.61, 1.547555, , 
2.64, 1.546667, , 
2.67, 1.545519, , 
2.70, 1.544091, , 
2.73, 1.542084, , 
2.76, 1.540127, , 
2.79, 1.538055, , 
2.82, 1.535334, , 
2.85, 1.533085, , 
2.88, 1.529593, , 
2.91, 1.526291, , 
2.94, 1.522700, , 
2.97, 1.518840, , 
3.00, 1.514091, , 
3.03, 1.509803, , 
3.06, 1.505200, , 
3.09, 1.500198, , 
3.12, 1.493864, , 
3.15, 1.488145, , 
3.18, 1.481084, , 
3.19, 1.480037, 1, 0.584
3.21, 1.474664, , 
3.24, 1.467949, , 
3.27, 1.461003, , 
3.30, 1.452543, , 
3.33, 1.446291, , 
3.36, 1.437308, , 
3.39, 1.429340, , 
3.42, 1.421198, , 
3.45, 1.411292, , 
3.48, 1.402477, , 
3.51, 1.391956, , 
3.54, 1.384327, , 
3.57, 1.375135, , 
3.60, 1.364290, , 
3.63, 1.354809, , 
3.66, 1.343429, , 
3.69, 1.333247, , 
3.72, 1.322843, , 
3.75, 1.312299, , 
3.78, 1.301572, , 
3.81, 1.288878, , 
3.84, 1.277849, , 
3.87, 1.266728, , 
3.90, 1.253545, , 
3.93, 1.242155, , 
3.96, 1.230790, , 
3.99, 1.219412, , 
4.02, 1.205966, , 
4.05, 1.194306, , 
4.08, 1.182510, , 
4.11, 1.170726, , 
4.14, 1.159025, , 
4.17, 1.145557, , 
4.20, 1.134246, , 
4.23, 1.123100, , 
4.26, 1.110072, , 
4.29, 1.098837, , 
4.32, 1.087599, , 
4.35, 1.076517, , 
4.38, 1.065532, , 
4.41, 1.054630, , 
4.44, 1.041920, , 
4.47, 1.029296, , 
4.50, 1.018556, , 
4.53, 1.008015, , 
4.56, 0.997589, , 
4.59, 0.987166, , 
4.62, 0.974973, , 
4.65, 0.964389, , 
4.68, 0.953645, , 
4.71, 0.940989, , 
4.74, 0.931924, , 
4.77, 0.919430, , 
4.80, 0.908927, , 
4.83, 0.898511, , 
4.86, 0.886258, , 
4.89, 0.875793, , 
4.92, 0.863762, , 
4.95, 0.855284, , 
4.98, 0.845187, , 
5.01, 0.833597, , 
5.04, 0.823644, , 
5.07, 0.811977, , 
5.10, 0.801938, , 
5.13, 0.792019, , 
5.16, 0.782339, , 
5.19, 0.772829, , 
5.22, 0.761965, , 
5.25, 0.752833, , 
5.28, 0.743831, , 
5.31, 0.733494, , 
5.34, 0.724809, , 
5.37, 0.716499, , 
5.40, 0.708509, , 
5.43, 0.700652, , 
5.46, 0.691609, , 
5.49, 0.683986, , 
5.52, 0.676491, , 
5.55, 0.667714, , 
5.58, 0.661488, , 
5.61, 0.652898, , 
5.64, 0.645508, , 
5.67, 0.638082, , 
5.70, 0.629372, , 
5.73, 0.621893, , 
5.76, 0.613284, , 
5.79, 0.607143, , 
5.82, 0.599775, , 
5.85, 0.591268, , 
5.88, 0.583979, , 
5.91, 0.575398, , 
5.94, 0.567929, , 
5.97, 0.560414, , 
6.00, 0.552805, , 
6.03, 0.545103, , 
6.06, 0.536181, , 
6.09, 0.528720, , 
6.12, 0.521441, , 
6.15, 0.513178, , 
6.18, 0.506317, , 
6.21, 0.499741, , 
6.24, 0.493391, , 
6.27, 0.487124, , 
6.30, 0.479952, , 
6.33, 0.474014, , 
6.36, 0.467207, , 
6.39, 0.462449, 2, 0.585
6.39, 0.461504, , 
6.42, 0.456981, , 
6.45, 0.451005, , 
6.48, 0.446003, , 
6.51, 0.440081, , 
6.54, 0.434907, , 
6.57, 0.429740, , 
6.60, 0.423767, , 
6.63, 0.419622, , 
6.66, 0.413773, , 
6.69, 0.408786, , 
6.72, 0.403851, , 
6.75, 0.398071, , 
6.78, 0.393161, , 
6.81, 0.387576, , 
6.84, 0.383630, , 
6.87, 0.378945, , 
6.90, 0.373492, , 
6.93, 0.368693, , 
6.96, 0.362907, , 
6.99, 0.357905, , 
7.02, 0.353046, , 
7.05, 0.348418, , 
7.08, 0.343987, , 
7.11, 0.338988, , 
7.14, 0.334791, , 
7.17, 0.330741, , 
7.20, 0.326122, , 
7.24, 0.322237, , 
7.26, 0.318481, , 
7.29, 0.314859, , 
7.32, 0.311329, , 
7.35, 0.307303, , 
7.38, 0.303928, , 
7.41, 0.300040, , 
7.45, 0.296804, , 
7.47, 0.294162, , 
7.50, 0.290410, , 
7.53, 0.287181, , 
7.56, 0.283311, , 
7.59, 0.279968, , 
7.62, 0.276612, , 
7.65, 0.273158, , 
7.68, 0.269691, , 
7.71, 0.265719, , 
7.74, 0.262268, , 
7.77, 0.258754, , 
7.80, 0.254618, , 
7.83, 0.251195, , 
7.86, 0.247877, , 
7.89, 0.244356, , 
7.92, 0.240747, , 
7.95, 0.236626, , 
7.98, 0.233093, , 
8.01, 0.229639, , 
8.04, 0.225743, , 
8.07, 0.222597, , 
8.10, 0.219526, , 
8.13, 0.216519, , 
8.16, 0.213516, , 
8.19, 0.210144, , 
8.22, 0.207356, , 
8.25, 0.204292, , 
8.28, 0.201833, , 
8.31, 0.199832, , 
8.34, 0.197091, , 
8.37, 0.194842, , 
8.40, 0.192311, , 
8.43, 0.190180, , 
8.46, 0.188029, , 
8.49, 0.185495, , 
8.52, 0.183766, , 
8.55, 0.181403, , 
8.58, 0.179316, , 
8.61, 0.177149, , 
8.64, 0.174644, , 
8.67, 0.172506, , 
8.70, 0.169933, , 
8.73, 0.168106, , 
8.76, 0.165924, , 
8.79, 0.163415, , 
8.82, 0.161264, , 
8.85, 0.158800, , 
8.88, 0.156735, , 
8.91, 0.154695, , 
8.94, 0.152595, , 
8.97, 0.150496, , 
9.00, 0.148240, , 
9.03, 0.146426, , 
9.06, 0.144672, , 
9.09, 0.142775, , 
9.12, 0.141186, , 
9.15, 0.139702, , 
9.18, 0.138347, , 
9.21, 0.137062, , 
9.24, 0.135622, , 
9.27, 0.134347, , 
9.30, 0.132955, , 
9.33, 0.131867, , 
9.36, 0.130976, , 
9.39, 0.129729, , 
9.42, 0.128619, , 
9.45, 0.127325, , 
9.48, 0.126313, , 
9.51, 0.125272, , 
9.54, 0.123972, , 
9.57, 0.123020, , 
9.59, 0.122275, 3, 0.586
9.60, 0.121726, , 
9.63, 0.120626, , 
9.66, 0.119487, , 
9.69, 0.118215, , 
9.72, 0.117187, , 
9.76, 0.115880, , 
9.78, 0.114935, , 
9.81, 0.113838, , 
9.84, 0.112569, , 
9.87, 0.111440, , 
9.90, 0.110133, , 
9.93, 0.109118, , 
9.96, 0.108249, , 
9.99, 0.107433, , 
10.02, 0.106602, , 
10.05, 0.105629, , 
10.08, 0.104798, , 
10.11, 0.103986, , 
10.14, 0.103082, , 
10.17, 0.102498, , 
10.20, 0.101787, , 
10.23, 0.101118, , 
10.26, 0.100465, , 
10.29, 0.099776, , 
10.32, 0.099152, , 
10.35, 0.098317, , 
10.38, 0.097724, , 
10.41, 0.097036, , 
10.44, 0.096256, , 
10.47, 0.095583, , 
10.50, 0.094828, , 
10.53, 0.094064, , 
10.56, 0.093191, , 
10.59, 0.092443, , 
10.62, 0.091577, , 
10.65, 0.090873, , 
10.68, 0.090191, , 
10.71, 0.089512, , 
10.74, 0.088852, , 
10.77, 0.088059, , 
10.80, 0.087292, , 
10.83, 0.086505, , 
10.86, 0.085703, , 
10.90, 0.085160, , 
10.92, 0.084548, , 
10.95, 0.083939, , 
10.98, 0.083349, , 
11.01, 0.082667, , 
11.04, 0.082137, , 
11.07, 0.081474, , 
11.10, 0.080941, , 
11.13, 0.080558, , 
11.16, 0.080060, , 
11.19, 0.079571, , 
11.22, 0.079051, , 
11.25, 0.078632, , 
11.28, 0.078122, , 
11.32, 0.077443, , 
11.34, 0.077011, , 
11.37, 0.076428, , 
11.40, 0.075911, , 
11.43, 0.075397, , 
11.46, 0.074905, , 
11.49, 0.074499, , 
11.52, 0.074023, , 
11.55, 0.073557, , 
11.58, 0.073142, , 
11.61, 0.072663, , 
11.64, 0.072152, , 
11.67, 0.071676, , 
11.70, 0.071254, , 
11.73, 0.070867, , 
11.76, 0.070119, , 
11.79, 0.069554, , 
11.82, 0.069021, , 
11.85, 0.068539, , 
11.88, 0.068155, , 
11.91, 0.067829, , 
11.94, 0.067594, , 
11.97, 0.067150, , 
12.00, 0.066706, , 
12.03, 0.066249, , 
12.06, 0.065970, , 
12.09, 0.065650, , 
12.12, 0.065218, , 
12.15, 0.064942, , 
12.18, 0.064628, , 
12.21, 0.064267, , 
12.24, 0.064029, , 
12.27, 0.063803, , 
12.30, 0.063604, , 
12.33, 0.063337, , 
12.36, 0.063001, , 
12.39, 0.062715, , 
12.42, 0.062478, , 
12.45, 0.062157, , 
12.48, 0.061818, , 
12.51, 0.061520, , 
12.54, 0.061272, , 
12.57, 0.060996, , 
12.60, 0.060720, , 
12.63, 0.060470, , 
12.66, 0.060187, , 
12.69, 0.059921, , 
12.72, 0.059582, , 
12.75, 0.059274, , 
12.78, 0.058979, , 
12.79, 0.058941, 4, 0.585
12.81, 0.058770, , 
12.84, 0.058617, , 
12.87, 0.058468, , 
12.90, 0.058259, , 
12.93, 0.058021, , 
12.96, 0.057748, , 
12.99, 0.057558, , 
13.02, 0.057403, , 
13.05, 0.057199, , 
13.08, 0.057012, , 
13.11, 0.056870, , 
13.14, 0.056663, , 
13.17, 0.056400, , 
13.20, 0.056238, , 
13.23, 0.056118, , 
13.26, 0.055934, , 
13.29, 0.055693, , 
13.32, 0.055512, , 
13.35, 0.055369, , 
13.38, 0.055176, , 
13.41, 0.054989, , 
13.44, 0.054859, , 
13.47, 0.054586, , 
13.50, 0.054408, , 
13.53, 0.054265, , 
13.56, 0.054120, , 
13.59, 0.053983, , 
13.62, 0.053834, , 
13.65, 0.053660, , 
13.68, 0.053492, , 
13.71, 0.053422, , 
13.74, 0.053311, , 
13.77, 0.053127, , 
13.80, 0.053028, , 
13.83, 0.052955, , 
13.86, 0.052829, , 
13.89, 0.052746, , 
13.92, 0.052711, , 
13.95, 0.052660, , 
13.98, 0.052505, , 
14.01, 0.052394, , 
14.04, 0.052372, , 
14.07, 0.052324, , 
14.10, 0.052258, , 
14.13, 0.052232, , 
14.16, 0.052245, , 
14.19, 0.052153, , 
14.22, 0.051988, , 
14.25, 0.051909, , 
14.28, 0.051861, , 
14.31, 0.051823, , 
14.34, 0.051779, , 
14.37, 0.051807, , 
14.40, 0.051937, , 
14.43, 0.052055, , 
14.46, 0.052156, , 
14.49, 0.052235, , 
14.52, 0.052308, , 
14.55, 0.052312, , 
14.58, 0.052346, , 
14.61, 0.052432, , 
14.64, 0.052537, , 
14.67, 0.052660, , 
14.70, 0.052797, , 
14.73, 0.053003, , 
14.76, 0.053155, , 
14.79, 0.053282, , 
14.82, 0.053441, , 
14.85, 0.053631, , 
14.88, 0.053831, , 
14.91, 0.054018, , 
14.94, 0.054129, , 
14.97, 0.054357, , 
15.00, 0.054560, , 
15.03, 0.054697, , 
15.06, 0.054951, , 
15.09, 0.055150, , 
15.12, 0.055490, , 
15.15, 0.055772, , 
15.18, 0.056029, , 
15.21, 0.056400, , 
15.24, 0.056622, , 
15.27, 0.056911, , 
15.30, 0.057225, , 
15.33, 0.057558, , 
15.36, 0.057853, , 
15.39, 0.058084, , 
15.42, 0.058475, , 
15.45, 0.058792, , 
15.48, 0.059176, , 
15.51, 0.059639, , 
15.54, 0.060070, , 
15.57, 0.060511, , 
15.60, 0.060990, , 
15.63, 0.061364, , 
15.66, 0.061723, , 
15.69, 0.062059, , 
15.72, 0.062373, , 
15.75, 0.062779, , 
15.78, 0.063185, , 
15.81, 0.063689, , 
15.84, 0.064060, , 
15.87, 0.064352, , 
15.90, 0.064730, , 
15.93, 0.065028, , 
15.96, 0.065370, , 
15.99, 0.065634, 5, 0.585
15.99, 0.065684, , 
16.02, 0.065979, , 
16.05, 0.066233, , 
16.08, 0.066481, , 
16.11, 0.066779, , 
16.14, 0.067105, , 
16.18, 0.067277, , 
16.20, 0.067400, , 
16.23, 0.067572, , 
16.26, 0.067753, , 
16.29, 0.067936, , 
16.32, 0.068076, , 
16.35, 0.068225, , 
16.38, 0.068333, , 
16.41, 0.068393, , 
16.44, 0.068428, , 
16.47, 0.068463, , 
16.50, 0.068561, , 
16.53, 0.068701, , 
16.56, 0.068806, , 
16.59, 0.068847, , 
16.62, 0.068793, , 
16.65, 0.068676, , 
16.68, 0.068574, , 
16.71, 0.068542, , 
16.74, 0.068530, , 
16.77, 0.068415, , 
16.80, 0.068257, , 
16.83, 0.068149, , 
16.86, 0.068108, , 
16.89, 0.067889, , 
16.92, 0.067695, , 
16.95, 0.067527, , 
16.98, 0.067232, , 
17.01, 0.067071, , 
17.04, 0.066836, , 
17.07, 0.066652, , 
17.10, 0.066452, , 
17.13, 0.066113, , 
17.16, 0.065808, , 
17.19, 0.065577, , 
17.22, 0.065313, , 
17.25, 0.065034, , 
17.29, 0.064803, , 
17.31, 0.064558, , 
17.34, 0.064314, , 
17.37, 0.063934, , 
17.40, 0.063677, , 
17.43, 0.063404, , 
17.46, 0.063049, , 
17.49, 0.062792, , 
17.52, 0.062474, , 
17.55, 0.062224, , 
17.58, 0.061945, , 
17.61, 0.061567, , 
17.64, 0.061209, , 
17.67, 0.060873, , 
17.70, 0.060600, , 
17.73, 0.060254, , 
17.76, 0.059832, , 
17.79, 0.059461, , 
17.82, 0.059027, , 
17.85, 0.058586, , 
17.88, 0.058237, , 
17.91, 0.057910, , 
17.94, 0.057571, , 
17.97, 0.057222, , 
18.00, 0.056870, , 
18.03, 0.056537, , 
18.06, 0.056140, , 
18.09, 0.055772, , 
18.12, 0.055506, , 
18.15, 0.055185, , 
18.18, 0.054840, , 
18.21, 0.054462, , 
18.24, 0.054218, , 
18.27, 0.053970, , 
18.30, 0.053558, , 
18.33, 0.053269, , 
18.36, 0.053003, , 
18.39, 0.052727, , 
18.42, 0.052365, , 
18.45, 0.052055, , 
18.48, 0.051810, , 
18.51, 0.051506, , 
18.54, 0.051252, , 
18.57, 0.051030, , 
18.60, 0.050849, , 
18.63, 0.050618, , 
18.66, 0.050329, , 
18.69, 0.050085, , 
18.72, 0.049936, , 
18.75, 0.049685, , 
18.78, 0.049393, , 
18.81, 0.049146, , 
18.84, 0.048965, , 
18.87, 0.048718, , 
18.90, 0.048432, , 
18.93, 0.048248, , 
18.96, 0.048014, , 
18.99, 0.047845, , 
19.02, 0.047684, , 
19.05, 0.047512, , 
19.08, 0.047341, , 
19.11, 0.047033, , 
19.14, 0.046869, , 
19.17, 0.046773, , 
19.19, 0.046678, 6, 0.586
19.20, 0.046589, , 
19.23, 0.046424, , 
19.26, 0.046288, , 
19.29, 0.046161, , 
19.32, 0.045980, , 
19.35, 0.045796, , 
19.38, 0.045739, , 
19.41, 0.045625, , 
19.44, 0.045473, , 
19.47, 0.045343, , 
19.50, 0.045210, , 
19.53, 0.045162, , 
19.56, 0.044997, , 
19.59, 0.044854, , 
19.62, 0.044731, , 
19.65, 0.044661, , 
19.68, 0.044559, , 
19.71, 0.044379, , 
19.74, 0.044325, , 
19.77, 0.044252, , 
19.80, 0.044166, , 
19.83, 0.043973, , 
19.86, 0.043893, , 
19.89, 0.043779, , 
19.92, 0.043617, , 
19.95, 0.043424, , 
19.98, 0.043344, , 
20.01, 0.043272, , 
20.04, 0.043135, , 
20.07, 0.042891, , 
20.10, 0.042793, , 
20.13, 0.042764, , 
20.16, 0.042643, , 
20.19, 0.042463, , 
20.22, 0.042364, , 
20.25, 0.042288, , 
20.28, 0.042082, , 
20.31, 0.041885, , 
20.34, 0.041816, , 
20.37, 0.041759, , 
20.40, 0.041619, , 
20.43, 0.041425, , 
20.46, 0.041318, , 
20.49, 0.041273, , 
20.52, 0.041086, , 
20.55, 0.040927, , 
20.58, 0.040842, , 
20.61, 0.040750, , 
20.64, 0.040658, , 
20.67, 0.040604, , 
20.70, 0.040525, , 
20.73, 0.040372, , 
20.76, 0.040223, , 
20.79, 0.040179, , 
20.82, 0.040090, , 
20.85, 0.039906, , 
20.88, 0.039706, , 
20.91, 0.039611, , 
20.94, 0.039614, , 
20.97, 0.039624, , 
21.00, 0.039551, , 
21.03, 0.039468, , 
21.06, 0.039326, , 
21.09, 0.039227, , 
21.12, 0.039161, , 
21.15, 0.039145, , 
21.18, 0.039113, , 
21.21, 0.038977, , 
21.24, 0.038856, , 
21.27, 0.038767, , 
21.30, 0.038682, , 
21.33, 0.038577, , 
21.36, 0.038536, , 
21.39, 0.038593, , 
21.42, 0.038583, , 
21.45, 0.038536, , 
21.48, 0.038552, , 
21.51, 0.038574, , 
21.54, 0.038574, , 
21.57, 0.038574, , 
21.60, 0.038533, , 
21.63, 0.038561, , 
21.66, 0.038545, , 
21.69, 0.038571, , 
21.72, 0.038669, , 
21.75, 0.038809, , 
21.78, 0.038967, , 
21.81, 0.039008, , 
21.84, 0.039126, , 
21.87, 0.039361, , 
21.90, 0.039538, , 
21.93, 0.039668, , 
21.96, 0.039871, , 
21.99, 0.040211, , 
22.02, 0.040496, , 
22.05, 0.040763, , 
22.08, 0.041140, , 
22.11, 0.041410, , 
22.14, 0.041835, , 
22.17, 0.042209, , 
22.20, 0.042672, , 
22.23, 0.043265, , 
22.26, 0.043823, , 
22.29, 0.044540, , 
22.32, 0.045095, , 
22.35, 0.045774, , 
22.38, 0.046554, , 
22.39, 0.046694, 7, 0.586
22.41, 0.047243, , 
22.44, 0.048121, , 
22.47, 0.049175, , 
22.50, 0.050018, , 
22.53, 0.050856, , 
22.56, 0.051883, , 
22.59, 0.052838, , 
22.62, 0.053806, , 
22.65, 0.054824, , 
22.68, 0.055905, , 
22.71, 0.057165, , 
22.74, 0.058259, , 
22.77, 0.059620, , 
22.80, 0.060765, , 
22.83, 0.061707, , 
22.86, 0.063093, , 
22.89, 0.064311, , 
22.92, 0.065748, , 
22.95, 0.066915, , 
22.98, 0.068044, , 
23.01, 0.069469, , 
23.04, 0.070395, , 
23.07, 0.071714, , 
23.10, 0.072767, , 
23.13, 0.073871, , 
23.16, 0.075188, , 
23.19, 0.076161, , 
23.22, 0.077475, , 
23.25, 0.078344, , 
23.28, 0.079336, , 
23.31, 0.080390, , 
23.34, 0.081271, , 
23.37, 0.082331, , 
23.40, 0.083194, , 
23.43, 0.083936, , 
23.46, 0.084576, , 
23.49, 0.085230, , 
23.52, 0.086102, , 
23.55, 0.086711, , 
23.58, 0.087276, , 
23.61, 0.087888, , 
23.64, 0.088383, , 
23.67, 0.088836, , 
23.70, 0.089230, , 
23.73, 0.089550, , 
23.76, 0.089896, , 
23.79, 0.090080, , 
23.82, 0.090340, , 
23.85, 0.090594, , 
23.88, 0.090730, , 
23.91, 0.090778, , 
23.94, 0.090806, , 
23.97, 0.090841, , 
24.00, 0.090860, , 
24.03, 0.090841, , 
24.06, 0.090816, , 
24.09, 0.090667, , 
24.12, 0.090587, , 
24.15, 0.090432, , 
24.18, 0.090283, , 
24.21, 0.090134, , 
24.24, 0.089889, , 
24.27, 0.089598, , 
24.30, 0.089252, , 
24.34, 0.089030, , 
24.36, 0.088830, , 
24.39, 0.088519, , 
24.42, 0.088246, , 
24.45, 0.087958, , 
24.48, 0.087568, , 
24.51, 0.087095, , 
24.54, 0.086778, , 
24.57, 0.086467, , 
24.60, 0.086150, , 
24.63, 0.085718, , 
24.66, 0.085316, , 
24.69, 0.085014, , 
24.72, 0.084687, , 
24.75, 0.084332, , 
24.78, 0.084006, , 
24.81, 0.083571, , 
24.84, 0.083155, , 
24.87, 0.082730, , 
24.90, 0.082321, , 
24.93, 0.081887, , 
24.96, 0.081351, , 
24.99, 0.080878, , 
25.02, 0.080339, , 
25.05, 0.079987, , 
25.08, 0.079603, , 
25.11, 0.079095, , 
25.14, 0.078807, , 
25.17, 0.078464, , 
25.20, 0.078068, , 
25.23, 0.077719, , 
25.26, 0.077275, , 
25.29, 0.076897, , 
25.32, 0.076342, , 
25.35, 0.075876, , 
25.38, 0.075470, , 
25.41, 0.074997, , 
25.44, 0.074553, , 
25.47, 0.074008, , 
25.50, 0.073684, , 
25.53, 0.073208, , 
25.56, 0.072656, , 
25.59, 0.072193, 8, 0.586
25.60, 0.072117, , 
25.62, 0.071787, , 
25.65, 0.071340, , 
25.68, 0.070902, , 
25.71, 0.070474, , 
25.74, 0.069979, , 
25.77, 0.069618, , 
25.80, 0.069050, , 
25.83, 0.068637, , 
25.86, 0.068222, , 
25.89, 0.067695, , 
25.92, 0.067245, , 
25.95, 0.066715, , 
25.98, 0.066357, , 
26.01, 0.065989, , 
26.04, 0.065389, , 
26.07, 0.065063, , 
26.10, 0.064796, , 
26.13, 0.064435, , 
26.16, 0.064064, , 
26.19, 0.063629, , 
26.22, 0.063347, , 
26.25, 0.063007, , 
26.28, 0.062617, , 
26.31, 0.062271, , 
26.34, 0.062011, , 
26.37, 0.061716, , 
26.40, 0.061371, , 
26.43, 0.061145, , 
26.46, 0.060888, , 
26.49, 0.060559, , 
26.52, 0.060257, , 
26.55, 0.060080, , 
26.58, 0.059889, , 
26.61, 0.059604, , 
26.64, 0.059379, , 
26.67, 0.059191, , 
26.70, 0.058963, , 
26.73, 0.058713, , 
26.76, 0.058490, , 
26.79, 0.058360, , 
26.82, 0.058211, , 
26.85, 0.057989, , 
26.88, 0.057777, , 
26.91, 0.057577, , 
26.94, 0.057447, , 
26.97, 0.057317, , 
27.00, 0.057155, , 
27.03, 0.057079, , 
27.06, 0.056958, , 
27.09, 0.056787, , 
27.12, 0.056698, , 
27.15, 0.056641, , 
27.18, 0.056641, , 
27.21, 0.056594, , 
27.24, 0.056476, , 
27.27, 0.056397, , 
27.30, 0.056308, , 
27.33, 0.056251, , 
27.36, 0.056349, , 
27.39, 0.056530, , 
27.42, 0.056575, , 
27.45, 0.056537, , 
27.48, 0.056587, , 
27.51, 0.056743, , 
27.54, 0.056946, , 
27.57, 0.057028, , 
27.60, 0.057146, , 
27.63, 0.057330, , 
27.66, 0.057545, , 
27.69, 0.057691, , 
27.72, 0.057935, , 
27.75, 0.058275, , 
27.78, 0.058551, , 
27.81, 0.058763, , 
27.84, 0.059004, , 
27.87, 0.059404, , 
27.90, 0.059794, , 
27.93, 0.060235, , 
27.96, 0.060911, , 
27.99, 0.061482, , 
28.03, 0.062110, , 
28.05, 0.062703, , 
28.08, 0.063445, , 
28.11, 0.064340, , 
28.14, 0.065240, , 
28.17, 0.066297, , 
28.20, 0.067708, , 
28.23, 0.068729, , 
28.26, 0.070017, , 
28.29, 0.071743, , 
28.32, 0.073433, , 
28.35, 0.075311, , 
28.38, 0.077776, , 
28.41, 0.080072, , 
28.44, 0.082591, , 
28.47, 0.085807, , 
28.50, 0.088729, , 
28.53, 0.092487, , 
28.56, 0.095447, , 
28.59, 0.099234, , 
28.62, 0.103967, , 
28.65, 0.108372, , 
28.68, 0.113983, , 
28.71, 0.119135, , 
28.74, 0.124648, , 
28.77, 0.130420, , 
28.79, 0.134446, 9, 0.585
28.80, 0.136517, , 
28.83, 0.143990, , 
28.86, 0.150721, , 
28.89, 0.157788, , 
28.92, 0.166428, , 
28.95, 0.174107, , 
28.98, 0.182037, , 
29.01, 0.190272, , 
29.04, 0.198776, , 
29.07, 0.208926, , 
29.10, 0.217810, , 
29.13, 0.228348, , 
29.17, 0.237473, , 
29.19, 0.244229, , 
29.22, 0.255912, , 
29.25, 0.265190, , 
29.28, 0.276104, , 
29.31, 0.285350, , 
29.34, 0.294479, , 
29.37, 0.304991, , 
29.40, 0.312359, , 
29.43, 0.321028, , 
29.46, 0.330855, , 
29.49, 0.339112, , 
29.52, 0.348583, , 
29.55, 0.356418, , 
29.58, 0.363859, , 
29.61, 0.371094, , 
29.64, 0.378088, , 
29.67, 0.385894, , 
29.70, 0.392200, , 
29.73, 0.399169, , 
29.76, 0.403949, , 
29.79, 0.409364, , 
29.82, 0.415273, , 
29.85, 0.420078, , 
29.88, 0.424567, , 
29.91, 0.429280, , 
29.94, 0.432972, , 
29.97, 0.437004, , 
30.00, 0.440185, , 
30.03, 0.442574, , 
30.06, 0.445584, , 
30.09, 0.447820, , 
30.12, 0.450050, , 
30.15, 0.451604, , 
30.18, 0.452892, , 
30.21, 0.454139, , 
30.24, 0.454789, , 
30.27, 0.455385, , 
30.30, 0.455706, , 
30.33, 0.455778, , 
30.36, 0.455604, , 
30.39, 0.455163, , 
30.42, 0.454376, , 
30.45, 0.453723, , 
30.48, 0.452794, , 
30.51, 0.451461, , 
30.54, 0.450123, , 
30.57, 0.448388, , 
30.60, 0.446777, , 
30.63, 0.444962, , 
30.66, 0.443011, , 
30.69, 0.441023, , 
30.72, 0.438504, , 
30.75, 0.436122, , 
30.78, 0.433686, , 
30.81, 0.431177, , 
30.84, 0.428132, , 
30.87, 0.425344, , 
30.90, 0.421982, , 
30.94, 0.419066, , 
30.96, 0.416592, , 
30.99, 0.413014, , 
31.02, 0.409871, , 
31.05, 0.406176, , 
31.08, 0.403242, , 
31.11, 0.399626, , 
31.14, 0.396270, , 
31.17, 0.392857, , 
31.20, 0.389396, , 
31.23, 0.385342, , 
31.26, 0.381828, , 
31.29, 0.378282, , 
31.32, 0.374678, , 
31.35, 0.370434, , 
31.38, 0.366891, , 
31.41, 0.362727, , 
31.44, 0.359101, , 
31.47, 0.355466, , 
31.50, 0.351901, , 
31.53, 0.348402, , 
31.56, 0.344320, , 
31.59, 0.340805, , 
31.62, 0.337586, , 
31.65, 0.333231, , 
31.68, 0.329735, , 
31.71, 0.326195, , 
31.74, 0.322760, , 
31.77, 0.319369, , 
31.80, 0.315433, , 
31.83, 0.312020, , 
31.86, 0.308122, , 
31.90, 0.304807, , 
31.92, 0.302339, , 
31.95, 0.298136, , 
31.98, 0.294904, , 
31.99, 0.293826, 10, 0.585
32.01, 0.291133, , 
32.04, 0.287897, , 
32.07, 0.284672, , 
32.10, 0.281458, , 
32.13, 0.278306, , 
32.16, 0.274607, , 
32.19, 0.271400, , 
32.22, 0.268190, , 
32.25, 0.264749, , 
32.28, 0.261390, , 
32.31, 0.258253, , 
32.34, 0.255287, , 
32.37, 0.252356, , 
32.40, 0.248867, , 
32.43, 0.245873, , 
32.46, 0.242440, , 
32.49, 0.239557, , 
32.52, 0.237086, , 
32.55, 0.233670, , 
32.58, 0.230812, , 
32.61, 0.227431, , 
32.64, 0.224598, , 
32.67, 0.221820, , 
32.70, 0.219016, , 
32.73, 0.216253, , 
32.76, 0.213078, , 
32.79, 0.210353, , 
32.82, 0.207251, , 
32.85, 0.204514, , 
32.88, 0.202243, , 
32.91, 0.199042, , 
32.94, 0.196340, , 
32.97, 0.193237, , 
33.00, 0.190617, , 
33.03, 0.188020, , 
33.06, 0.185111, , 
33.09, 0.183030, , 
33.12, 0.180071, , 
33.15, 0.177568, , 
33.18, 0.175135, , 
33.21, 0.172299, , 
33.24, 0.169854, , 
33.27, 0.167025, , 
33.30, 0.165324, , 
33.33, 0.162828, , 
33.36, 0.160167, , 
33.39, 0.157912, , 
33.42, 0.155377, , 
33.45, 0.153239, , 
33.48, 0.151098, , 
33.51, 0.149005, , 
33.54, 0.146949, , 
33.57, 0.144574, , 
33.60, 0.142528, , 
33.63, 0.140504, , 
33.66, 0.138265, , 
33.69, 0.136425, , 
33.72, 0.134541, , 
33.75, 0.132657, , 
33.78, 0.130792, , 
33.81, 0.128644, , 
33.84, 0.126789, , 
33.87, 0.124698, , 
33.90, 0.122960, , 
33.93, 0.121593, , 
33.96, 0.119680, , 
33.99, 0.117990, , 
34.02, 0.116150, , 
34.05, 0.114573, , 
34.08, 0.112975, , 
34.12, 0.111160, , 
34.14, 0.109885, , 
34.17, 0.108141, , 
34.20, 0.106650, , 
34.23, 0.105245, , 
34.26, 0.103684, , 
34.29, 0.102381, , 
34.33, 0.100801, , 
34.35, 0.099669, , 
34.38, 0.098451, , 
34.41, 0.097141, , 
34.44, 0.095834, , 
34.47, 0.094454, , 
34.50, 0.093293, , 
34.53, 0.092341, , 
34.56, 0.091044, , 
34.59, 0.089940, , 
34.62, 0.088649, , 
34.65, 0.087545, , 
34.68, 0.086448, , 
34.71, 0.085277, , 
34.74, 0.084494, , 
34.77, 0.083346, , 
34.80, 0.082302, , 
34.83, 0.081306, , 
34.86, 0.080206, , 
34.89, 0.079241, , 
34.92, 0.078153, , 
34.95, 0.077421, , 
34.98, 0.076558, , 
35.01, 0.075584, , 
35.04, 0.074604, , 
35.07, 0.073687, , 
35.10, 0.072964, , 
35.13, 0.072187, , 
35.16, 0.071365, , 
35.19, 0.070629, 11, 0.586
35.20, 0.070503, , 
35.22, 0.069846, , 
35.25, 0.069113, , 
35.28, 0.068415, , 
35.31, 0.067622, , 
35.34, 0.066969, , 
35.37, 0.066287, , 
35.40, 0.065580, , 
35.43, 0.064910, , 
35.46, 0.064152, , 
35.49, 0.063489, , 
35.52, 0.062684, , 
35.55, 0.062068, , 
35.58, 0.061615, , 
35.61, 0.060993, , 
35.64, 0.060406, , 
35.67, 0.059753, , 
35.70, 0.059223, , 
35.73, 0.058716, , 
35.77, 0.058100, , 
35.79, 0.057606, , 
35.82, 0.056965, , 
35.85, 0.056429, , 
35.88, 0.055918, , 
35.91, 0.055379, , 
35.94, 0.054932, , 
35.98, 0.054415, , 
36.00, 0.054024, , 
36.03, 0.053656, , 
36.06, 0.053054, , 
36.09, 0.052483, , 
36.12, 0.051877, , 
36.15, 0.051560, , 
36.18, 0.051166, , 
36.21, 0.050773, , 
36.24, 0.050339, , 
36.27, 0.049888, , 
36.30, 0.049495, , 
36.33, 0.049010, , 
36.36, 0.048489, , 
36.39, 0.048077, , 
36.42, 0.047807, , 
36.45, 0.047420, , 
36.48, 0.047078, , 
36.51, 0.046777, , 
36.54, 0.046469, , 
36.57, 0.046123, , 
36.60, 0.045673, , 
36.63, 0.045384, , 
36.66, 0.045035, , 
36.69, 0.044727, , 
36.72, 0.044471, , 
36.75, 0.044176, , 
36.78, 0.043953, , 
36.81, 0.043538, , 
36.84, 0.043306, , 
36.87, 0.043049, , 
36.90, 0.042815, , 
36.93, 0.042555, , 
36.96, 0.042285, , 
36.99, 0.042025, , 
37.02, 0.041720, , 
37.05, 0.041403, , 
37.08, 0.041156, , 
37.11, 0.040899, , 
37.14, 0.040655, , 
37.17, 0.040410, , 
37.20, 0.040217, , 
37.23, 0.040103, , 
37.26, 0.039951, , 
37.29, 0.039703, , 
37.32, 0.039456, , 
37.35, 0.039269, , 
37.38, 0.039177, , 
37.41, 0.038897, , 
37.44, 0.038732, , 
37.47, 0.038644, , 
37.50, 0.038457, , 
37.53, 0.038295, , 
37.56, 0.038108, , 
37.59, 0.038009, , 
37.62, 0.037873, , 
37.65, 0.037654, , 
37.68, 0.037511, , 
37.71, 0.037340, , 
37.74, 0.037188, , 
37.77, 0.037058, , 
37.80, 0.037026, , 
37.83, 0.036988, , 
37.86, 0.036924, , 
37.89, 0.036807, , 
37.93, 0.036718, , 
37.95, 0.036630, , 
37.98, 0.036499, , 
38.01, 0.036436, , 
38.04, 0.036398, , 
38.07, 0.036442, , 
38.10, 0.036420, , 
38.13, 0.036379, , 
38.16, 0.036360, , 
38.19, 0.036417, , 
38.22, 0.036420, , 
38.25, 0.036357, , 
38.28, 0.036354, , 
38.31, 0.036407, , 
38.34, 0.036436, , 
38.37, 0.036388, , 
38.38, 0.036385, 12, 0.583
38.40, 0.036426, , 
38.44, 0.036582, , 
38.46, 0.036706, , 
38.49, 0.036788, , 
38.52, 0.036918, , 
38.55, 0.037042, , 
38.58, 0.037140, , 
38.61, 0.037251, , 
38.64, 0.037375, , 
38.67, 0.037556, , 
38.70, 0.037759, , 
38.73, 0.037981, , 
38.76, 0.038323, , 
38.79, 0.038615, , 
38.82, 0.038891, , 
38.85, 0.039161, , 
38.88, 0.039361, , 
38.91, 0.039744, , 
38.94, 0.040077, , 
38.97, 0.040445, , 
39.00, 0.040908, , 
39.03, 0.041381, , 
39.06, 0.041660, , 
39.09, 0.042041, , 
39.12, 0.042434, , 
39.15, 0.042827, , 
39.18, 0.043316, , 
39.21, 0.043865, , 
39.24, 0.044464, , 
39.27, 0.045080, , 
39.30, 0.045505, , 
39.33, 0.046037, , 
39.36, 0.046545, , 
39.39, 0.047122, , 
39.42, 0.047677, , 
39.45, 0.048220, , 
39.48, 0.048943, , 
39.51, 0.049587, , 
39.54, 0.050316, , 
39.57, 0.050951, , 
39.60, 0.051519, , 
39.63, 0.052331, , 
39.66, 0.052930, , 
39.69, 0.053599, , 
39.72, 0.054367, , 
39.75, 0.055055, , 
39.78, 0.055693, , 
39.81, 0.056416, , 
39.84, 0.057092, , 
39.88, 0.057878, , 
39.90, 0.058414, , 
39.93, 0.059042, , 
39.96, 0.059807, , 
39.99, 0.060505, , 
40.02, 0.061250, , 
40.05, 0.061872, , 
40.08, 0.062541, , 
40.11, 0.063220, , 
40.14, 0.063734, , 
40.17, 0.064438, , 
40.20, 0.065028, , 
40.23, 0.065567, , 
40.26, 0.066198, , 
40.29, 0.066763, , 
40.32, 0.067394, , 
40.35, 0.067905, , 
40.38, 0.068473, , 
40.41, 0.069164, , 
40.44, 0.069697, , 
40.47, 0.070239, , 
40.50, 0.070804, , 
40.53, 0.071185, , 
40.56, 0.071689, , 
40.59, 0.072098, , 
40.62, 0.072460, , 
40.65, 0.072771, , 
40.68, 0.073170, , 
40.71, 0.073513, , 
40.74, 0.073865, , 
40.77, 0.074153, , 
40.80, 0.074534, , 
40.83, 0.074737, , 
40.86, 0.074829, , 
40.89, 0.075035, , 
40.92, 0.075232, , 
40.95, 0.075283, , 
40.98, 0.075308, , 
41.01, 0.075362, , 
41.04, 0.075416, , 
41.07, 0.075403, , 
41.10, 0.075397, , 
41.13, 0.075400, , 
41.16, 0.075416, , 
41.19, 0.075416, , 
41.22, 0.075333, , 
41.25, 0.075264, , 
41.28, 0.075172, , 
41.31, 0.074934, , 
41.34, 0.074705, , 
41.37, 0.074480, , 
41.40, 0.074318, , 
41.43, 0.074081, , 
41.46, 0.073801, , 
41.50, 0.073570, , 
41.52, 0.073291, , 
41.55, 0.072977, , 
41.58, 0.072606, , 
41.58, 0.072548, 13, 0.587
41.61, 0.072292, , 
41.64, 0.072038, , 
41.67, 0.071622, , 
41.70, 0.071362, , 
41.73, 0.070947, , 
41.76, 0.070445, , 
41.79, 0.069992, , 
41.82, 0.069456, , 
41.85, 0.069078, , 
41.88, 0.068609, , 
41.91, 0.068152, , 
41.94, 0.067699, , 
41.97, 0.067229, , 
42.00, 0.066826, , 
42.03, 0.066357, , 
42.06, 0.065846, , 
42.09, 0.065367, , 
42.12, 0.064987, , 
42.15, 0.064508, , 
42.18, 0.064048, , 
42.21, 0.063594, , 
42.24, 0.063182, , 
42.27, 0.062614, , 
42.30, 0.062179, , 
42.33, 0.061815, , 
42.36, 0.061342, , 
42.39, 0.060847, , 
42.42, 0.060375, , 
42.45, 0.059937, , 
42.48, 0.059480, , 
42.51, 0.058992, , 
42.54, 0.058563, , 
42.57, 0.058161, , 
42.60, 0.057713, , 
42.63, 0.057234, , 
42.66, 0.056749, , 
42.69, 0.056356, , 
42.72, 0.055823, , 
42.75, 0.055366, , 
42.78, 0.054995, , 
42.81, 0.054554, , 
42.84, 0.054101, , 
42.87, 0.053536, , 
42.90, 0.053162, , 
42.93, 0.052886, , 
42.96, 0.052546, , 
42.99, 0.052172, , 
43.02, 0.051760, , 
43.05, 0.051354, , 
43.08, 0.050932, , 
43.11, 0.050510, , 
43.14, 0.050205, , 
43.17, 0.049844, , 
43.20, 0.049520, , 
43.23, 0.049130, , 
43.26, 0.048810, , 
43.29, 0.048540, , 
43.32, 0.048102, , 
43.35, 0.047693, , 
43.39, 0.047420, , 
43.41, 0.047141, , 
43.44, 0.046796, , 
43.47, 0.046431, , 
43.50, 0.046171, , 
43.53, 0.045898, , 
43.56, 0.045451, , 
43.59, 0.045105, , 
43.62, 0.044823, , 
43.65, 0.044483, , 
43.68, 0.044201, , 
43.71, 0.043947, , 
43.74, 0.043649, , 
43.77, 0.043376, , 
43.80, 0.043138, , 
43.83, 0.042808, , 
43.86, 0.042599, , 
43.89, 0.042352, , 
43.92, 0.042092, , 
43.95, 0.041870, , 
43.98, 0.041562, , 
44.01, 0.041353, , 
44.04, 0.040962, , 
44.07, 0.040674, , 
44.10, 0.040534, , 
44.13, 0.040363, , 
44.16, 0.040198, , 
44.19, 0.039855, , 
44.22, 0.039687, , 
44.25, 0.039529, , 
44.28, 0.039297, , 
44.31, 0.039005, , 
44.34, 0.038834, , 
44.37, 0.038669, , 
44.40, 0.038514, , 
44.43, 0.038273, , 
44.46, 0.038130, , 
44.49, 0.038019, , 
44.53, 0.037819, , 
44.55, 0.037635, , 
44.58, 0.037543, , 
44.61, 0.037419, , 
44.64, 0.037207, , 
44.67, 0.037058, , 
44.70, 0.036982, , 
44.73, 0.036915, , 
44.76, 0.036753, , 
44.79, 0.036579, 14, 0.587
44.79, 0.036563, , 
44.82, 0.036499, , 
44.85, 0.036461, , 
44.88, 0.036347, , 
44.91, 0.036160, , 
44.94, 0.036030, , 
44.97, 0.035979, , 
45.00, 0.035929, , 
45.03, 0.035843, , 
45.06, 0.035887, , 
45.09, 0.035903, , 
45.12, 0.035795, , 
45.15, 0.035694, , 
45.18, 0.035564, , 
45.21, 0.035465, , 
45.24, 0.035342, , 
45.27, 0.035300, , 
45.30, 0.035316, , 
45.33, 0.035326, , 
45.36, 0.035310, , 
45.39, 0.035304, , 
45.42, 0.035377, , 
45.45, 0.035500, , 
45.48, 0.035614, , 
45.51, 0.035713, , 
45.54, 0.035792, , 
45.57, 0.035827, , 
45.60, 0.035798, , 
45.63, 0.035862, , 
45.66, 0.036049, , 
45.69, 0.036147, , 
45.72, 0.036246, , 
45.75, 0.036360, , 
45.78, 0.036534, , 
45.81, 0.036683, , 
45.84, 0.036798, , 
45.87, 0.036905, , 
45.90, 0.037108, , 
45.93, 0.037356, , 
45.96, 0.037581, , 
45.99, 0.037778, , 
46.02, 0.038051, , 
46.05, 0.038288, , 
46.08, 0.038507, , 
46.11, 0.038726, , 
46.14, 0.038977, , 
46.17, 0.039192, , 
46.20, 0.039424, , 
46.23, 0.039805, , 
46.26, 0.040157, , 
46.29, 0.040534, , 
46.32, 0.040820, , 
46.35, 0.041150, , 
46.38, 0.041565, , 
46.41, 0.041949, , 
46.44, 0.042453, , 
46.47, 0.042815, , 
46.50, 0.043097, , 
46.53, 0.043538, , 
46.56, 0.043896, , 
46.59, 0.044407, , 
46.62, 0.044981, , 
46.65, 0.045479, , 
46.68, 0.046022, , 
46.71, 0.046567, , 
46.74, 0.047078, , 
46.77, 0.047592, , 
46.80, 0.047956, , 
46.83, 0.048493, , 
46.86, 0.049105, , 
46.89, 0.049571, , 
46.92, 0.050190, , 
46.95, 0.050837, , 
46.98, 0.051474, , 
47.01, 0.052232, , 
47.04, 0.052838, , 
47.07, 0.053542, , 
47.10, 0.054231, , 
47.13, 0.054874, , 
47.16, 0.055610, , 
47.19, 0.056248, , 
47.22, 0.057063, , 
47.25, 0.057713, , 
47.28, 0.058360, , 
47.31, 0.059087, , 
47.34, 0.059829, , 
47.37, 0.060533, , 
47.40, 0.061367, , 
47.43, 0.062078, , 
47.46, 0.062906, , 
47.49, 0.063734, , 
47.52, 0.064425, , 
47.55, 0.065266, , 
47.58, 0.065786, , 
47.61, 0.066503, , 
47.64, 0.067312, , 
47.67, 0.068070, , 
47.70, 0.068764, , 
47.73, 0.069538, , 
47.76, 0.070227, , 
47.79, 0.071020, , 
47.82, 0.071568, , 
47.85, 0.072206, , 
47.88, 0.072920, , 
47.91, 0.073621, , 
47.94, 0.074433, , 
47.97, 0.075057, , 
47.99, 0.075318, 15, 0.585
48.00, 0.075559, , 
48.03, 0.076095, , 
48.06, 0.076580, , 
48.09, 0.077072, , 
48.12, 0.077551, , 
48.15, 0.077982, , 
48.18, 0.078442, , 
48.21, 0.078743, , 
48.24, 0.078972, , 
48.27, 0.079225, , 
48.30, 0.079479, , 
48.33, 0.079704, , 
48.36, 0.079828, , 
48.39, 0.080012, , 
48.42, 0.080256, , 
48.45, 0.080336, , 
48.48, 0.080377, , 
48.51, 0.080415, , 
48.54, 0.080431, , 
48.57, 0.080390, , 
48.60, 0.080298, , 
48.63, 0.080193, , 
48.66, 0.080075, , 
48.69, 0.079968, , 
48.73, 0.079841, , 
48.75, 0.079701, , 
48.78, 0.079543, , 
48.81, 0.079295, , 
48.84, 0.079121, , 
48.87, 0.078788, , 
48.90, 0.078505, , 
48.93, 0.078283, , 
48.96, 0.077893, , 
48.99, 0.077595, , 
49.02, 0.077268, , 
49.05, 0.077027, , 
49.08, 0.076656, , 
49.11, 0.076333, , 
49.14, 0.075879, , 
49.17, 0.075590, , 
49.20, 0.075207, , 
49.23, 0.074886, , 
49.26, 0.074579, , 
49.29, 0.074141, , 
49.32, 0.073640, , 
49.35, 0.073291, , 
49.38, 0.072859, , 
49.41, 0.072545, , 
49.44, 0.072165, , 
49.47, 0.071825, , 
49.50, 0.071416, , 
49.53, 0.070912, , 
49.56, 0.070496, , 
49.59, 0.070103, , 
49.62, 0.069567, , 
49.65, 0.069116, , 
49.68, 0.068717, , 
49.71, 0.068222, , 
49.74, 0.067864, , 
49.77, 0.067321, , 
49.80, 0.066928, , 
49.83, 0.066496, , 
49.86, 0.065960, , 
49.89, 0.065497, , 
49.93, 0.065075, , 
49.95, 0.064850, , 
49.98, 0.064539, , 
50.01, 0.064051, , 
50.04, 0.063705, , 
50.07, 0.063271, , 
50.10, 0.062814, , 
50.13, 0.062493, , 
50.16, 0.062205, , 
50.19, 0.061853, , 
50.22, 0.061399, , 
50.25, 0.060999, , 
50.28, 0.060730, , 
50.31, 0.060314, , 
50.34, 0.060042, , 
50.37, 0.059639, , 
50.40, 0.059309, , 
50.43, 0.058900, , 
50.46, 0.058389, , 
50.49, 0.058037, , 
50.52, 0.057783, , 
50.55, 0.057406, , 
50.59, 0.057060, , 
50.61, 0.056575, , 
50.64, 0.056229, , 
50.67, 0.055899, , 
50.70, 0.055547, , 
50.73, 0.055204, , 
50.76, 0.054865, , 
50.79, 0.054507, , 
50.82, 0.054180, , 
50.85, 0.053809, , 
50.88, 0.053542, , 
50.91, 0.053273, , 
50.94, 0.052936, , 
50.97, 0.052654, , 
51.00, 0.052375, , 
51.03, 0.052090, , 
51.06, 0.051874, , 
51.09, 0.051639, , 
51.12, 0.051430, , 
51.15, 0.051166, , 
51.18, 0.050944, , 
51.19, 0.050910, 16, 0.586
51.21, 0.050786, , 
51.24, 0.050665, , 
51.27, 0.050554, , 
51.30, 0.050364, , 
51.33, 0.050205, , 
51.36, 0.050107, , 
51.39, 0.049952, , 
51.42, 0.049755, , 
51.45, 0.049682, , 
51.48, 0.049565, , 
51.51, 0.049384, , 
51.54, 0.049263, , 
51.57, 0.049222, , 
51.60, 0.049083, , 
51.63, 0.048905, , 
51.66, 0.048803, , 
51.69, 0.048756, , 
51.72, 0.048715, , 
51.75, 0.048696, , 
51.78, 0.048664, , 
51.81, 0.048670, , 
51.84, 0.048680, , 
51.87, 0.048657, , 
51.90, 0.048648, , 
51.93, 0.048664, , 
51.96, 0.048721, , 
51.99, 0.048677, , 
52.02, 0.048635, , 
52.05, 0.048749, , 
52.08, 0.048883, , 
52.11, 0.048959, , 
52.14, 0.049098, , 
52.17, 0.049298, , 
52.20, 0.049438, , 
52.23, 0.049530, , 
52.26, 0.049745, , 
52.29, 0.049939, , 
52.32, 0.050196, , 
52.35, 0.050367, , 
52.38, 0.050576, , 
52.41, 0.050868, , 
52.44, 0.051141, , 
52.47, 0.051423, , 
52.50, 0.051690, , 
52.53, 0.052115, , 
52.56, 0.052496, , 
52.59, 0.052791, , 
52.62, 0.053158, , 
52.65, 0.053606, , 
52.68, 0.054164, , 
52.71, 0.054602, , 
52.74, 0.055090, , 
52.77, 0.055636, , 
52.80, 0.056112, , 
52.83, 0.056740, , 
52.86, 0.057371, , 
52.89, 0.058148, , 
52.92, 0.058766, , 
52.95, 0.059287, , 
52.98, 0.060162, , 
53.01, 0.060879, , 
53.04, 0.061707, , 
53.07, 0.062474, , 
53.10, 0.063299, , 
53.13, 0.064117, , 
53.16, 0.064961, , 
53.19, 0.065941, , 
53.22, 0.066836, , 
53.25, 0.067724, , 
53.28, 0.068590, , 
53.31, 0.069545, , 
53.34, 0.070423, , 
53.37, 0.071464, , 
53.40, 0.072339, , 
53.43, 0.073024, , 
53.46, 0.074087, , 
53.49, 0.074985, , 
53.52, 0.075977, , 
53.55, 0.076818, , 
53.58, 0.077652, , 
53.61, 0.078575, , 
53.64, 0.079194, , 
53.67, 0.080034, , 
53.70, 0.080805, , 
53.73, 0.081363, , 
53.76, 0.082248, , 
53.79, 0.082851, , 
53.82, 0.083476, , 
53.85, 0.083869, , 
53.88, 0.084310, , 
53.91, 0.084846, , 
53.94, 0.085322, , 
53.97, 0.085801, , 
54.00, 0.086156, , 
54.03, 0.086464, , 
54.06, 0.086727, , 
54.09, 0.086930, , 
54.12, 0.087098, , 
54.15, 0.087225, , 
54.18, 0.087288, , 
54.21, 0.087368, , 
54.24, 0.087368, , 
54.27, 0.087393, , 
54.30, 0.087428, , 
54.33, 0.087377, , 
54.36, 0.087171, , 
54.39, 0.087057, 17, 0.586
54.39, 0.087041, , 
54.42, 0.086879, , 
54.45, 0.086702, , 
54.48, 0.086495, , 
54.51, 0.086207, , 
54.54, 0.085937, , 
54.57, 0.085595, , 
54.60, 0.085249, , 
54.63, 0.084913, , 
54.66, 0.084494, , 
54.69, 0.084139, , 
54.72, 0.083657, , 
54.75, 0.083244, , 
54.78, 0.082797, , 
54.81, 0.082331, , 
54.84, 0.081817, , 
54.88, 0.081325, , 
54.90, 0.080967, , 
54.93, 0.080516, , 
54.96, 0.079930, , 
54.99, 0.079406, , 
55.02, 0.078785, , 
55.05, 0.078309, , 
55.08, 0.077687, , 
55.11, 0.077259, , 
55.14, 0.076881, , 
55.17, 0.076307, , 
55.20, 0.075831, , 
55.23, 0.075378, , 
55.26, 0.075045, , 
55.29, 0.074531, , 
55.32, 0.073836, , 
55.35, 0.073316, , 
55.38, 0.072796, , 
55.41, 0.072215, , 
55.44, 0.071736, , 
55.47, 0.071302, , 
55.50, 0.070813, , 
55.53, 0.070433, , 
55.56, 0.069922, , 
55.59, 0.069580, , 
55.62, 0.069069, , 
55.65, 0.068539, , 
55.68, 0.068082, , 
55.71, 0.067607, , 
55.74, 0.067236, , 
55.77, 0.066798, , 
55.80, 0.066290, , 
55.83, 0.065859, , 
55.86, 0.065380, , 
55.89, 0.065075, , 
55.92, 0.064701, , 
55.95, 0.064422, , 
55.98, 0.064038, , 
56.01, 0.063562, , 
56.04, 0.063223, , 
56.07, 0.062938, , 
56.10, 0.062509, , 
56.13, 0.062151, , 
56.16, 0.061818, , 
56.19, 0.061536, , 
56.22, 0.061234, , 
56.25, 0.060888, , 
56.28, 0.060552, , 
56.31, 0.060286, , 
56.34, 0.059962, , 
56.37, 0.059718, , 
56.40, 0.059540, , 
56.43, 0.059375, , 
56.46, 0.059217, , 
56.49, 0.059052, , 
56.52, 0.058871, , 
56.55, 0.058732, , 
56.58, 0.058500, , 
56.61, 0.058348, , 
56.64, 0.058265, , 
56.67, 0.058230, , 
56.70, 0.058157, , 
56.73, 0.058097, , 
56.76, 0.058104, , 
56.79, 0.058113, , 
56.82, 0.058107, , 
56.85, 0.058110, , 
56.88, 0.058129, , 
56.91, 0.058224, , 
56.94, 0.058354, , 
56.97, 0.058462, , 
57.00, 0.058522, , 
57.03, 0.058636, , 
57.06, 0.058808, , 
57.09, 0.058982, , 
57.12, 0.059220, , 
57.15, 0.059458, , 
57.18, 0.059607, , 
57.21, 0.059829, , 
57.24, 0.060124, , 
57.27, 0.060473, , 
57.30, 0.060714, , 
57.33, 0.060914, , 
57.36, 0.061313, , 
57.39, 0.061650, , 
57.42, 0.062094, , 
57.45, 0.062522, , 
57.48, 0.062972, , 
57.51, 0.063455, , 
57.54, 0.063861, , 
57.57, 0.064314, , 
57.58, 0.064466, 18, 0.584
57.60, 0.064669, , 
57.63, 0.065291, , 
57.66, 0.065951, , 
57.69, 0.066519, , 
57.72, 0.067086, , 
57.75, 0.067692, , 
57.78, 0.068101, , 
57.81, 0.068755, , 
57.84, 0.069335, , 
57.87, 0.069906, , 
57.90, 0.070585, , 
57.93, 0.071112, , 
57.96, 0.071981, , 
57.99, 0.072555, , 
58.02, 0.073062, , 
58.05, 0.073773, , 
58.08, 0.074439, , 
58.11, 0.075061, , 
58.14, 0.075778, , 
58.17, 0.076339, , 
58.20, 0.076891, , 
58.23, 0.077455, , 
58.27, 0.078017, , 
58.29, 0.078591, , 
58.32, 0.079114, , 
58.35, 0.079628, , 
58.38, 0.080075, , 
58.41, 0.080561, , 
58.44, 0.081024, , 
58.47, 0.081300, , 
58.50, 0.081722, , 
58.53, 0.082067, , 
58.56, 0.082359, , 
58.59, 0.082651, , 
58.62, 0.082930, , 
58.65, 0.083165, , 
58.68, 0.083393, , 
58.71, 0.083511, , 
58.74, 0.083863, , 
58.77, 0.084059, , 
58.80, 0.084177, , 
58.83, 0.084259, , 
58.86, 0.084348, , 
58.89, 0.084424, , 
58.92, 0.084415, , 
58.95, 0.084405, , 
58.98, 0.084399, , 
59.01, 0.084434, , 
59.04, 0.084424, , 
59.07, 0.084316, , 
59.10, 0.084177, , 
59.13, 0.084075, , 
59.16, 0.083955, , 
59.19, 0.083752, , 
59.22, 0.083549, , 
59.25, 0.083371, , 
59.28, 0.083114, , 
59.31, 0.082905, , 
59.34, 0.082626, , 
59.37, 0.082324, , 
59.40, 0.082026, , 
59.43, 0.081668, , 
59.46, 0.081405, , 
59.49, 0.081065, , 
59.52, 0.080719, , 
59.55, 0.080409, , 
59.58, 0.079952, , 
59.61, 0.079606, , 
59.64, 0.079295, , 
59.67, 0.078886, , 
59.70, 0.078559, , 
59.73, 0.078128, , 
59.76, 0.077766, , 
59.79, 0.077414, , 
59.82, 0.076846, , 
59.85, 0.076526, , 
59.88, 0.076190, , 
59.91, 0.075806, , 
59.94, 0.075460, , 
59.97, 0.075105, , 
60.00, 0.074642, , 
60.03, 0.074195, , 
60.06, 0.073697, , 
60.09, 0.073281, , 
60.12, 0.072926, , 
60.15, 0.072536, , 
60.18, 0.072162, , 
60.21, 0.071876, , 
60.24, 0.071461, , 
60.27, 0.070994, , 
60.30, 0.070744, , 
60.33, 0.070474, , 
60.36, 0.070059, , 
60.39, 0.069783, , 
60.42, 0.069516, , 
60.45, 0.069240, , 
60.48, 0.068936, , 
60.51, 0.068631, , 
60.54, 0.068431, , 
60.57, 0.068105, , 
60.60, 0.067902, , 
60.63, 0.067667, , 
60.66, 0.067470, , 
60.69, 0.067289, , 
60.72, 0.067083, , 
60.75, 0.066915, , 
60.78, 0.066795, 19, 0.586
60.79, 0.066779, , 
60.81, 0.066690, , 
60.84, 0.066646, , 
60.87, 0.066636, , 
60.90, 0.066639, , 
60.93, 0.066639, , 
60.96, 0.066503, , 
60.99, 0.066515, , 
61.02, 0.066607, , 
61.05, 0.066585, , 
61.08, 0.066554, , 
61.11, 0.066595, , 
61.14, 0.066690, , 
61.17, 0.066788, , 
61.20, 0.066899, , 
61.23, 0.067096, , 
61.26, 0.067264, , 
61.29, 0.067477, , 
61.32, 0.067654, , 
61.35, 0.067908, , 
61.38, 0.068114, , 
61.41, 0.068279, , 
61.44, 0.068609, , 
61.47, 0.068980, , 
61.50, 0.069377, , 
61.53, 0.069551, , 
61.56, 0.069862, , 
61.59, 0.070281, , 
61.62, 0.070680, , 
61.65, 0.071074, , 
61.68, 0.071527, , 
61.71, 0.071974, , 
61.74, 0.072406, , 
61.77, 0.072790, , 
61.80, 0.073303, , 
61.83, 0.073779, , 
61.86, 0.074322, , 
61.90, 0.074715, , 
61.92, 0.075077, , 
61.95, 0.075578, , 
61.98, 0.076038, , 
62.01, 0.076469, , 
62.04, 0.076881, , 
62.07, 0.077256, , 
62.10, 0.077665, , 
62.13, 0.077969, , 
62.17, 0.078353, , 
62.19, 0.078772, , 
62.22, 0.079035, , 
62.25, 0.079394, , 
62.28, 0.079727, , 
62.31, 0.080053, , 
62.34, 0.080370, , 
62.37, 0.080554, , 
62.40, 0.080796, , 
62.43, 0.081110, , 
62.46, 0.081335, , 
62.49, 0.081509, , 
62.52, 0.081677, , 
62.55, 0.081883, , 
62.58, 0.082036, , 
62.61, 0.082166, , 
62.64, 0.082296, , 
62.67, 0.082372, , 
62.70, 0.082439, , 
62.73, 0.082407, , 
62.76, 0.082439, , 
62.79, 0.082493, , 
62.82, 0.082477, , 
62.85, 0.082439, , 
62.88, 0.082416, , 
62.91, 0.082340, , 
62.94, 0.082182, , 
62.97, 0.082029, , 
63.00, 0.081931, , 
63.03, 0.081792, , 
63.06, 0.081563, , 
63.09, 0.081268, , 
63.12, 0.081056, , 
63.15, 0.080913, , 
63.18, 0.080672, , 
63.21, 0.080437, , 
63.24, 0.080231, , 
63.27, 0.080060, , 
63.30, 0.079774, , 
63.33, 0.079454, , 
63.36, 0.079200, , 
63.39, 0.078899, , 
63.42, 0.078597, , 
63.45, 0.078302, , 
63.48, 0.077982, , 
63.51, 0.077738, , 
63.54, 0.077332, , 
63.57, 0.077021, , 
63.60, 0.076808, , 
63.63, 0.076498, , 
63.66, 0.076285, , 
63.69, 0.076038, , 
63.72, 0.075717, , 
63.75, 0.075448, , 
63.78, 0.075089, , 
63.81, 0.074848, , 
63.84, 0.074690, , 
63.87, 0.074395, , 
63.90, 0.074163, , 
63.93, 0.073941, , 
63.96, 0.073722, , 
63.98, 0.073583, 20, 0.586
63.99, 0.073500, , 
64.02, 0.073313, , 
64.05, 0.073186, , 
64.08, 0.073034, , 
64.11, 0.072818, , 
64.14, 0.072666, , 
64.17, 0.072507, , 
64.20, 0.072368, , 
64.23, 0.072231, , 
64.26, 0.072082, , 
64.29, 0.072050, , 
64.32, 0.072063, , 
64.35, 0.072009, , 
64.38, 0.071997, , 
64.41, 0.072120, , 
64.44, 0.072257, , 
64.47, 0.072326, , 
64.50, 0.072387, , 
64.53, 0.072514, , 
64.56, 0.072704, , 
64.59, 0.072840, , 
64.63, 0.073043, , 
64.65, 0.073234, , 
64.68, 0.073392, , 
64.71, 0.073554, , 
64.74, 0.073751, , 
64.77, 0.073947, , 
64.80, 0.074265, , 
64.84, 0.074547, , 
64.86, 0.074731, , 
64.89, 0.075023, , 
64.92, 0.075295, , 
64.95, 0.075597, , 
64.98, 0.075879, , 
65.01, 0.076174, , 
65.04, 0.076421, , 
65.07, 0.076758, , 
65.10, 0.077027, , 
65.13, 0.077373, , 
65.16, 0.077709, , 
65.19, 0.078030, , 
65.22, 0.078274, , 
65.25, 0.078610, , 
65.28, 0.078934, , 
65.31, 0.079206, , 
65.34, 0.079425, , 
65.37, 0.079723, , 
65.40, 0.079968, , 
65.43, 0.080161, , 
65.46, 0.080431, , 
65.49, 0.080615, , 
65.52, 0.080815, , 
65.55, 0.080926, , 
65.58, 0.081078, , 
65.61, 0.081262, , 
65.64, 0.081347, , 
65.67, 0.081379, , 
65.70, 0.081471, , 
65.73, 0.081646, , 
65.76, 0.081693, , 
65.79, 0.081766, , 
65.82, 0.081899, , 
65.85, 0.081855, , 
65.88, 0.081715, , 
65.91, 0.081566, , 
65.94, 0.081493, , 
65.97, 0.081522, , 
66.01, 0.081427, , 
66.03, 0.081259, , 
66.06, 0.081125, , 
66.09, 0.081037, , 
66.12, 0.080853, , 
66.15, 0.080634, , 
66.18, 0.080529, , 
66.21, 0.080323, , 
66.24, 0.080091, , 
66.27, 0.079822, , 
66.30, 0.079587, , 
66.33, 0.079362, , 
66.36, 0.079146, , 
66.39, 0.078864, , 
66.42, 0.078677, , 
66.45, 0.078572, , 
66.48, 0.078423, , 
66.51, 0.078198, , 
66.54, 0.078017, , 
66.57, 0.077823, , 
66.60, 0.077522, , 
66.63, 0.077300, , 
66.66, 0.077126, , 
66.69, 0.076904, , 
66.72, 0.076704, , 
66.75, 0.076532, , 
66.78, 0.076390, , 
66.81, 0.076231, , 
66.84, 0.076076, , 
66.87, 0.076028, , 
66.90, 0.076006, , 
66.93, 0.075942, , 
66.96, 0.075758, , 
66.99, 0.075603, , 
67.02, 0.075568, , 
67.05, 0.075562, , 
67.08, 0.075502, , 
67.11, 0.075460, , 
67.14, 0.075502, , 
67.17, 0.075638, , 
67.19, 0.075739, 21, 0.587
67.20, 0.075793, , 
67.23, 0.075863, , 
67.26, 0.075958, , 
67.29, 0.076038, , 
67.32, 0.076076, , 
67.35, 0.076212, , 
67.38, 0.076368, , 
67.41, 0.076475, , 
67.44, 0.076653, , 
67.47, 0.076834, , 
67.50, 0.077081, , 
67.53, 0.077322, , 
67.56, 0.077478, , 
67.59, 0.077735, , 
67.62, 0.078001, , 
67.65, 0.078195, , 
67.68, 0.078366, , 
67.71, 0.078531, , 
67.74, 0.078769, , 
67.77, 0.078949, , 
67.80, 0.079130, , 
67.83, 0.079302, , 
67.86, 0.079492, , 
67.89, 0.079666, , 
67.92, 0.079869, , 
67.95, 0.080003, , 
67.98, 0.080095, , 
68.01, 0.080285, , 
68.04, 0.080364, , 
68.07, 0.080469, , 
68.10, 0.080507, , 
68.13, 0.080510, , 
68.16, 0.080545, , 
68.19, 0.080577, , 
68.23, 0.080577, , 
68.25, 0.080545, , 
68.28, 0.080532, , 
68.31, 0.080551, , 
68.34, 0.080510, , 
68.37, 0.080478, , 
68.40, 0.080494, , 
68.43, 0.080453, , 
68.46, 0.080294, , 
68.49, 0.080085, , 
68.52, 0.080072, , 
68.55, 0.080015, , 
68.58, 0.079882, , 
68.61, 0.079714, , 
68.64, 0.079546, , 
68.67, 0.079422, , 
68.70, 0.079267, , 
68.73, 0.079108, , 
68.76, 0.078946, , 
68.79, 0.078813, , 
68.82, 0.078702, , 
68.85, 0.078477, , 
68.88, 0.078344, , 
68.91, 0.078144, , 
68.94, 0.077950, , 
68.97, 0.077754, , 
69.00, 0.077566, , 
69.03, 0.077408, , 
69.06, 0.077275, , 
69.09, 0.077132, , 
69.12, 0.077046, , 
69.15, 0.076967, , 
69.18, 0.076856, , 
69.21, 0.076688, , 
69.24, 0.076548, , 
69.27, 0.076548, , 
69.30, 0.076526, , 
69.33, 0.076475, , 
69.37, 0.076466, , 
69.39, 0.076498, , 
69.42, 0.076463, , 
69.45, 0.076434, , 
69.48, 0.076450, , 
69.51, 0.076479, , 
69.54, 0.076479, , 
69.57, 0.076428, , 
69.60, 0.076444, , 
69.63, 0.076494, , 
69.66, 0.076482, , 
69.69, 0.076551, , 
69.72, 0.076735, , 
69.75, 0.076834, , 
69.78, 0.076869, , 
69.81, 0.076853, , 
69.84, 0.076891, , 
69.87, 0.077030, , 
69.90, 0.077119, , 
69.93, 0.077281, , 
69.96, 0.077338, , 
69.99, 0.077402, , 
70.02, 0.077389, , 
70.05, 0.077386, , 
70.08, 0.077554, , 
70.11, 0.077731, , 
70.14, 0.077801, , 
70.17, 0.077871, , 
70.20, 0.077919, , 
70.23, 0.077985, , 
70.26, 0.077950, , 
70.29, 0.077957, , 
70.32, 0.077950, , 
70.35, 0.077982, , 
70.38, 0.077944, , 
70.39, 0.077938, 22, 0.585
70.41, 0.077874, , 
70.44, 0.077747, , 
70.47, 0.077595, , 
70.50, 0.077544, , 
70.53, 0.077471, , 
70.56, 0.077411, , 
70.59, 0.077313, , 
70.62, 0.077103, , 
70.65, 0.076996, , 
70.68, 0.076894, , 
70.71, 0.076720, , 
70.74, 0.076561, , 
70.77, 0.076383, , 
70.80, 0.076253, , 
70.83, 0.076111, , 
70.86, 0.075942, , 
70.89, 0.075809, , 
70.92, 0.075609, , 
70.95, 0.075368, , 
70.98, 0.075143, , 
71.01, 0.075080, , 
71.04, 0.074981, , 
71.07, 0.074794, , 
71.10, 0.074709, , 
71.13, 0.074601, , 
71.16, 0.074569, , 
71.19, 0.074528, , 
71.22, 0.074376, , 
71.25, 0.074261, , 
71.28, 0.074185, , 
71.31, 0.074112, , 
71.34, 0.074039, , 
71.37, 0.074011, , 
71.40, 0.074039, , 
71.43, 0.074027, , 
71.46, 0.074011, , 
71.49, 0.074004, , 
71.52, 0.073957, , 
71.55, 0.073916, , 
71.58, 0.073897, , 
71.61, 0.073935, , 
71.64, 0.073931, , 
71.67, 0.073938, , 
71.70, 0.073931, , 
71.73, 0.073992, , 
71.76, 0.074001, , 
71.79, 0.073976, , 
71.82, 0.073985, , 
71.85, 0.074020, , 
71.88, 0.073989, , 
71.91, 0.073935, , 
71.94, 0.073941, , 
71.97, 0.073954, , 
72.00, 0.073947, , 
72.03, 0.073982, , 
72.06, 0.073992, , 
72.09, 0.074046, , 
72.12, 0.073979, , 
72.15, 0.073811, , 
72.18, 0.073725, , 
72.21, 0.073681, , 
72.24, 0.073554, , 
72.27, 0.073500, , 
72.30, 0.073513, , 
72.33, 0.073481, , 
72.36, 0.073341, , 
72.39, 0.073192, , 
72.42, 0.073107, , 
72.45, 0.073069, , 
72.48, 0.072913, , 
72.51, 0.072751, , 
72.54, 0.072625, , 
72.57, 0.072485, , 
72.60, 0.072314, , 
72.63, 0.072139, , 
72.66, 0.072012, , 
72.69, 0.071876, , 
72.72, 0.071721, , 
72.75, 0.071606, , 
72.78, 0.071537, , 
72.81, 0.071445, , 
72.84, 0.071264, , 
72.87, 0.071131, , 
72.90, 0.071035, , 
72.93, 0.070832, , 
72.96, 0.070699, , 
72.99, 0.070617, , 
73.02, 0.070474, , 
73.05, 0.070322, , 
73.08, 0.070157, , 
73.11, 0.070059, , 
73.14, 0.070052, , 
73.17, 0.070014, , 
73.20, 0.069865, , 
73.23, 0.069732, , 
73.26, 0.069684, , 
73.29, 0.069618, , 
73.33, 0.069545, , 
73.35, 0.069500, , 
73.38, 0.069307, , 
73.41, 0.069212, , 
73.44, 0.069107, , 
73.47, 0.069091, , 
73.50, 0.069091, , 
73.53, 0.069044, , 
73.56, 0.068898, , 
73.59, 0.068771, 23, 0.585
73.59, 0.068755, , 
73.62, 0.068710, , 
73.65, 0.068660, , 
73.68, 0.068609, , 
73.71, 0.068517, , 
73.74, 0.068387, , 
73.77, 0.068212, , 
73.80, 0.068111, , 
73.83, 0.068092, , 
73.86, 0.068070, , 
73.89, 0.067908, , 
73.92, 0.067743, , 
73.95, 0.067676, , 
73.98, 0.067654, , 
74.01, 0.067584, , 
74.04, 0.067483, , 
74.07, 0.067353, , 
74.10, 0.067251, , 
74.13, 0.067169, , 
74.16, 0.067096, , 
74.19, 0.066941, , 
74.22, 0.066785, , 
74.25, 0.066658, , 
74.28, 0.066573, , 
74.31, 0.066503, , 
74.34, 0.066354, , 
74.37, 0.066201, , 
74.40, 0.066103, , 
74.43, 0.066011, , 
74.46, 0.065887, , 
74.49, 0.065678, , 
74.52, 0.065580, , 
74.55, 0.065431, , 
74.58, 0.065272, , 
74.61, 0.065155, , 
74.64, 0.065082, , 
74.67, 0.065002, , 
74.70, 0.064812, , 
74.73, 0.064692, , 
74.76, 0.064654, , 
74.79, 0.064555, , 
74.82, 0.064406, , 
74.85, 0.064213, , 
74.88, 0.064184, , 
74.91, 0.064124, , 
74.94, 0.063940, , 
74.97, 0.063791, , 
75.00, 0.063696, , 
75.03, 0.063654, , 
75.06, 0.063537, , 
75.09, 0.063363, , 
75.12, 0.063255, , 
75.15, 0.063198, , 
75.18, 0.063137, , 
75.21, 0.063083, , 
75.24, 0.062928, , 
75.27, 0.062811, , 
75.31, 0.062709, , 
75.33, 0.062643, , 
75.36, 0.062557, , 
75.39, 0.062401, , 
75.42, 0.062284, , 
75.45, 0.062170, , 
75.48, 0.062110, , 
75.51, 0.061983, , 
75.54, 0.061859, , 
75.57, 0.061704, , 
75.60, 0.061551, , 
75.63, 0.061383, , 
75.66, 0.061250, , 
75.69, 0.061168, , 
75.72, 0.061060, , 
75.75, 0.060904, , 
75.78, 0.060743, , 
75.81, 0.060603, , 
75.85, 0.060425, , 
75.87, 0.060251, , 
75.90, 0.060105, , 
75.93, 0.059984, , 
75.96, 0.059820, , 
75.99, 0.059705, , 
76.02, 0.059594, , 
76.05, 0.059490, , 
76.09, 0.059369, , 
76.11, 0.059204, , 
76.14, 0.059061, , 
76.17, 0.058935, , 
76.20, 0.058782, , 
76.23, 0.058652, , 
76.26, 0.058446, , 
76.29, 0.058348, , 
76.32, 0.058259, , 
76.35, 0.058161, , 
76.38, 0.058034, , 
76.41, 0.057894, , 
76.44, 0.057723, , 
76.47, 0.057536, , 
76.50, 0.057399, , 
76.53, 0.057263, , 
76.56, 0.057184, , 
76.59, 0.057073, , 
76.62, 0.056933, , 
76.65, 0.056835, , 
76.68, 0.056692, , 
76.71, 0.056549, , 
76.74, 0.056353, , 
76.77, 0.056251, , 
76.79, 0.056188, 24, 0.586
76.80, 0.056150, , 
76.83, 0.056032, , 
76.86, 0.055937, , 
76.89, 0.055807, , 
76.93, 0.055731, , 
76.95, 0.055648, , 
76.98, 0.055575, , 
77.01, 0.055439, , 
77.04, 0.055274, , 
77.07, 0.055176, , 
77.10, 0.055100, , 
77.13, 0.055030, , 
77.16, 0.054894, , 
77.19, 0.054738, , 
77.22, 0.054652, , 
77.25, 0.054579, , 
77.28, 0.054402, , 
77.31, 0.054278, , 
77.34, 0.054212, , 
77.37, 0.054129, , 
77.40, 0.053964, , 
77.43, 0.053806, , 
77.46, 0.053758, , 
77.49, 0.053701, , 
77.52, 0.053514, , 
77.55, 0.053355, , 
77.58, 0.053273, , 
77.61, 0.053257, , 
77.64, 0.053165, , 
77.67, 0.053060, , 
77.70, 0.052981, , 
77.73, 0.052867, , 
77.76, 0.052733, , 
77.79, 0.052657, , 
77.82, 0.052515, , 
77.85, 0.052416, , 
77.88, 0.052283, , 
77.91, 0.052210, , 
77.94, 0.052207, , 
77.97, 0.052185, , 
78.00, 0.052143, , 
78.03, 0.052128, , 
78.06, 0.052004, , 
78.09, 0.051861, , 
78.12, 0.051737, , 
78.15, 0.051645, , 
78.18, 0.051547, , 
78.21, 0.051395, , 
78.24, 0.051233, , 
78.27, 0.051182, , 
78.31, 0.051081, , 
78.33, 0.050963, , 
78.36, 0.050795, , 
78.39, 0.050688, , 
78.42, 0.050488, , 
78.45, 0.050247, , 
78.48, 0.050053, , 
78.52, 0.049882, , 
78.54, 0.049771, , 
78.57, 0.049565, , 
78.60, 0.049400, , 
78.63, 0.049292, , 
78.66, 0.049127, , 
78.69, 0.048946, , 
78.72, 0.048743, , 
78.75, 0.048540, , 
78.78, 0.048388, , 
78.81, 0.048255, , 
78.84, 0.048023, , 
78.87, 0.047887, , 
78.90, 0.047776, , 
78.93, 0.047538, , 
78.96, 0.047392, , 
78.99, 0.047297, , 
79.02, 0.047208, , 
79.05, 0.047103, , 
79.08, 0.046935, , 
79.11, 0.046846, , 
79.14, 0.046742, , 
79.17, 0.046621, , 
79.20, 0.046466, , 
79.23, 0.046342, , 
79.26, 0.046123, , 
79.29, 0.045914, , 
79.32, 0.045758, , 
79.35, 0.045631, , 
79.38, 0.045343, , 
79.41, 0.045149, , 
79.44, 0.044949, , 
79.47, 0.044769, , 
79.50, 0.044543, , 
79.53, 0.044306, , 
79.56, 0.043988, , 
79.59, 0.043703, , 
79.62, 0.043430, , 
79.65, 0.043113, , 
79.68, 0.042897, , 
79.71, 0.042710, , 
79.74, 0.042472, , 
79.77, 0.042196, , 
79.80, 0.042104, , 
79.83, 0.041962, , 
79.86, 0.041708, , 
79.89, 0.041457, , 
79.92, 0.041299, , 
79.95, 0.041165, , 
79.98, 0.040940, , 
80.00, 0.040899, 25, 0.588
80.01, 0.040839, , 
80.04, 0.040671, , 
80.07, 0.040518, , 
80.10, 0.040350, , 
80.13, 0.040147, , 
80.16, 0.040109, , 
80.19, 0.039979, , 
80.22, 0.039748, , 
80.25, 0.039633, , 
80.28, 0.039548, , 
80.31, 0.039386, , 
80.34, 0.039265, , 
80.37, 0.039047, , 
80.41, 0.038901, , 
80.44, 0.038764, , 
80.46, 0.038577, , 
80.49, 0.038514, , 
80.52, 0.038438, , 
80.55, 0.038276, , 
80.58, 0.038158, , 
80.61, 0.038073, , 
80.64, 0.038003, , 
80.68, 0.037825, , 
80.70, 0.037683, , 
80.73, 0.037540, , 
80.76, 0.037492, , 
80.79, 0.037448, , 
80.82, 0.037318, , 
80.85, 0.037210, , 
80.88, 0.037074, , 
80.91, 0.036985, , 
80.94, 0.036975, , 
80.97, 0.036928, , 
81.00, 0.036845, , 
81.03, 0.036658, , 
81.06, 0.036515, , 
81.09, 0.036426, , 
81.13, 0.036344, , 
81.15, 0.036236, , 
81.18, 0.036008, , 
81.21, 0.035881, , 
81.24, 0.035779, , 
81.27, 0.035602, , 
81.30, 0.035494, , 
81.33, 0.035446, , 
81.36, 0.035313, , 
81.39, 0.035136, , 
81.42, 0.034926, , 
81.45, 0.034806, , 
81.48, 0.034752, , 
81.51, 0.034549, , 
81.54, 0.034387, , 
81.57, 0.034387, , 
81.60, 0.034276, , 
81.63, 0.034168, , 
81.66, 0.034000, , 
81.70, 0.033902, , 
81.72, 0.033816, , 
81.75, 0.033772, , 
81.78, 0.033762, , 
81.81, 0.033727, , 
81.84, 0.033550, , 
81.87, 0.033407, , 
81.90, 0.033312, , 
81.93, 0.033328, , 
81.96, 0.033213, , 
81.99, 0.033137, , 
82.02, 0.033017, , 
82.05, 0.032909, , 
82.08, 0.032823, , 
82.11, 0.032728, , 
82.14, 0.032668, , 
82.17, 0.032557, , 
82.20, 0.032443, , 
82.23, 0.032312, , 
82.26, 0.032287, , 
82.29, 0.032290, , 
82.32, 0.032233, , 
82.35, 0.032135, , 
82.38, 0.032024, , 
82.41, 0.031951, , 
82.44, 0.031884, , 
82.47, 0.031859, , 
82.50, 0.031843, , 
82.53, 0.031856, , 
82.56, 0.031805, , 
82.59, 0.031811, , 
82.62, 0.031849, , 
82.65, 0.031862, , 
82.68, 0.031821, , 
82.71, 0.031767, , 
82.74, 0.031653, , 
82.77, 0.031589, , 
82.80, 0.031447, , 
82.83, 0.031402, , 
82.86, 0.031415, , 
82.89, 0.031389, , 
82.92, 0.031408, , 
82.95, 0.031428, , 
82.98, 0.031313, , 
83.01, 0.031186, , 
83.04, 0.031022, , 
83.07, 0.030952, , 
83.10, 0.030939, , 
83.13, 0.030923, , 
83.16, 0.030898, , 
83.18, 0.030885, 26, 0.582
83.19, 0.030882, , 
83.22, 0.030914, , 
83.25, 0.030977, , 
83.28, 0.030977, , 
83.31, 0.030952, , 
83.34, 0.030888, , 
83.37, 0.030701, , 
83.40, 0.030593, , 
83.43, 0.030533, , 
83.46, 0.030463, , 
83.49, 0.030428, , 
83.52, 0.030400, , 
83.55, 0.030374, , 
83.58, 0.030362, , 
83.61, 0.030340, , 
83.64, 0.030314, , 
83.67, 0.030371, , 
83.70, 0.030416, , 
83.73, 0.030390, , 
83.76, 0.030336, , 
83.79, 0.030406, , 
83.82, 0.030428, , 
83.85, 0.030374, , 
83.88, 0.030260, , 
83.91, 0.030168, , 
83.94, 0.030070, , 
83.97, 0.029968, , 
84.00, 0.029924, , 
84.03, 0.029905, , 
84.06, 0.029930, , 
84.09, 0.029927, , 
84.12, 0.029813, , 
84.15, 0.029699, , 
84.18, 0.029651, , 
84.21, 0.029489, , 
84.24, 0.029407, , 
84.27, 0.029442, , 
84.30, 0.029413, , 
84.33, 0.029404, , 
84.36, 0.029385, , 
84.39, 0.029404, , 
84.42, 0.029356, , 
84.45, 0.029337, , 
84.48, 0.029350, , 
84.51, 0.029423, , 
84.54, 0.029385, , 
84.57, 0.029321, , 
84.60, 0.029347, , 
84.63, 0.029283, , 
84.66, 0.029115, , 
84.69, 0.028998, , 
84.73, 0.028925, , 
84.75, 0.028938, , 
84.78, 0.028912, , 
84.81, 0.028849, , 
84.84, 0.028865, , 
84.87, 0.028906, , 
84.90, 0.028899, , 
84.94, 0.028855, , 
84.96, 0.028861, , 
84.99, 0.028763, , 
85.02, 0.028617, , 
85.05, 0.028465, , 
85.08, 0.028424, , 
85.11, 0.028395, , 
85.14, 0.028357, , 
85.17, 0.028354, , 
85.20, 0.028379, , 
85.23, 0.028370, , 
85.26, 0.028310, , 
85.29, 0.028363, , 
85.32, 0.028411, , 
85.35, 0.028402, , 
85.38, 0.028344, , 
85.41, 0.028357, , 
85.44, 0.028405, , 
85.47, 0.028373, , 
85.50, 0.028354, , 
85.53, 0.028354, , 
85.56, 0.028379, , 
85.60, 0.028367, , 
85.62, 0.028382, , 
85.65, 0.028329, , 
85.68, 0.028218, , 
85.71, 0.028129, , 
85.74, 0.028005, , 
85.77, 0.027954, , 
85.80, 0.027961, , 
85.83, 0.027923, , 
85.86, 0.027859, , 
85.89, 0.027875, , 
85.92, 0.027919, , 
85.95, 0.027916, , 
85.98, 0.027913, , 
86.02, 0.027897, , 
86.04, 0.027875, , 
86.07, 0.027872, , 
86.10, 0.027872, , 
86.13, 0.027862, , 
86.16, 0.027919, , 
86.19, 0.027888, , 
86.22, 0.027865, , 
86.25, 0.027850, , 
86.28, 0.027904, , 
86.31, 0.027884, , 
86.34, 0.027894, , 
86.37, 0.027948, , 
86.38, 0.027926, 27, 0.585
86.40, 0.027929, , 
86.43, 0.027894, , 
86.46, 0.027935, , 
86.49, 0.027980, , 
86.52, 0.027986, , 
86.55, 0.027923, , 
86.58, 0.027891, , 
86.61, 0.027897, , 
86.64, 0.027748, , 
86.67, 0.027583, , 
86.70, 0.027450, , 
86.73, 0.027475, , 
86.76, 0.027466, , 
86.79, 0.027406, , 
86.82, 0.027412, , 
86.85, 0.027440, , 
86.88, 0.027447, , 
86.91, 0.027393, , 
86.94, 0.027364, , 
86.97, 0.027355, , 
87.00, 0.027367, , 
87.03, 0.027361, , 
87.06, 0.027386, , 
87.09, 0.027440, , 
87.12, 0.027478, , 
87.15, 0.027390, , 
87.18, 0.027380, , 
87.21, 0.027396, , 
87.24, 0.027396, , 
87.27, 0.027374, , 
87.30, 0.027364, , 
87.33, 0.027380, , 
87.36, 0.027358, , 
87.39, 0.027336, , 
87.42, 0.027317, , 
87.45, 0.027291, , 
87.48, 0.027333, , 
87.51, 0.027352, , 
87.54, 0.027355, , 
87.57, 0.027374, , 
87.60, 0.027364, , 
87.63, 0.027339, , 
87.66, 0.027358, , 
87.69, 0.027374, , 
87.72, 0.027320, , 
87.75, 0.027269, , 
87.78, 0.027326, , 
87.81, 0.027352, , 
87.84, 0.027314, , 
87.87, 0.027275, , 
87.90, 0.027326, , 
87.93, 0.027244, , 
87.96, 0.027098, , 
88.00, 0.026968, , 
88.02, 0.026927, , 
88.05, 0.026923, , 
88.08, 0.026898, , 
88.11, 0.026831, , 
88.14, 0.026828, , 
88.17, 0.026844, , 
88.21, 0.026768, , 
88.23, 0.026762, , 
88.26, 0.026790, , 
88.29, 0.026828, , 
88.32, 0.026784, , 
88.35, 0.026777, , 
88.38, 0.026844, , 
88.41, 0.026816, , 
88.44, 0.026816, , 
88.47, 0.026828, , 
88.50, 0.026819, , 
88.53, 0.026844, , 
88.56, 0.026762, , 
88.59, 0.026676, , 
88.62, 0.026606, , 
88.65, 0.026460, , 
88.68, 0.026368, , 
88.71, 0.026365, , 
88.74, 0.026362, , 
88.77, 0.026302, , 
88.80, 0.026283, , 
88.83, 0.026314, , 
88.86, 0.026337, , 
88.89, 0.026340, , 
88.92, 0.026340, , 
88.95, 0.026318, , 
88.98, 0.026340, , 
89.01, 0.026321, , 
89.04, 0.026292, , 
89.07, 0.026308, , 
89.10, 0.026330, , 
89.13, 0.026343, , 
89.16, 0.026318, , 
89.19, 0.026356, , 
89.22, 0.026387, , 
89.25, 0.026330, , 
89.28, 0.026321, , 
89.31, 0.026368, , 
89.34, 0.026416, , 
89.37, 0.026330, , 
89.41, 0.026324, , 
89.43, 0.026327, , 
89.46, 0.026314, , 
89.49, 0.026314, , 
89.52, 0.026299, , 
89.55, 0.026378, , 
89.58, 0.026359, , 
89.61, 0.026340, , 
89.64, 0.026330, , 
89.67, 0.026387, , 
89.70, 0.026384, , 
89.73, 0.026359, , 
89.76, 0.026349, , 
89.79, 0.026406, , 
89.82, 0.026419, , 
89.85, 0.026368, , 
89.88, 0.026403, , 
89.91, 0.026406, , 
89.94, 0.026381, , 
89.97, 0.026381, , 
90.00, 0.026381, , 
90.03, 0.026413, , 
90.06, 0.026349, , 
90.09, 0.026371, , 
90.13, 0.026390, , 
90.15, 0.026438, , 
90.18, 0.026387, , 
90.21, 0.026346, , 
90.24, 0.026375, , 
90.27, 0.026397, , 
90.30, 0.026390, , 
90.33, 0.026352, , 
90.36, 0.026375, , 
90.39, 0.026384, , 
90.42, 0.026346, , 
90.45, 0.026295, , 
90.48, 0.026346, , 
90.52, 0.026365, , 
90.54, 0.026337, , 
90.57, 0.026311, , 
90.60, 0.026349, , 
90.63, 0.026429, , 
90.66, 0.026403, , 
90.69, 0.026384, , 
90.72, 0.026419, , 
90.75, 0.026425, , 
90.78, 0.026394, , 
90.81, 0.026378, , 
90.84, 0.026378, , 
90.87, 0.026371, , 
90.90, 0.026362, , 
90.93, 0.026381, , 
90.96, 0.026390, , 
90.99, 0.026308, , 
91.02, 0.026333, , 
91.05, 0.026356, , 
91.08, 0.026390, , 
91.11, 0.026406, , 
91.14, 0.026346, , 
91.17, 0.026333, , 
91.20, 0.026321, , 
91.23, 0.026333, , 
91.26, 0.026302, , 
91.29, 0.026321, , 
91.32, 0.026333, , 
91.35, 0.026387, , 
91.38, 0.026359, , 
91.41, 0.026343, , 
91.45, 0.026365, , 
91.47, 0.026340, , 
91.50, 0.026346, , 
91.53, 0.026394, , 
91.56, 0.026416, , 
91.59, 0.026400, , 
91.62, 0.026349, , 
91.65, 0.026356, , 
91.68, 0.026381, , 
91.71, 0.026337, , 
91.74, 0.026330, , 
91.77, 0.026365, , 
91.80, 0.026394, , 
91.83, 0.026368, , 
91.86, 0.026356, , 
91.89, 0.026368, , 
91.92, 0.026362, , 
91.95, 0.026346, , 
91.98, 0.026346, , 
92.01, 0.026346, , 
92.04, 0.026346, , 
92.07, 0.026295, , 
92.10, 0.026356, , 
92.13, 0.026413, , 
92.16, 0.026400, , 
92.19, 0.026365, , 
92.22, 0.026356, , 
92.25, 0.026352, , 
92.28, 0.026381, , 
92.31, 0.026356, , 
92.34, 0.026343, , 
92.37, 0.026381, , 
92.40, 0.026384, , 
92.43, 0.026327, , 
92.46, 0.026273, , 
92.49, 0.026318, , 
92.52, 0.026340, , 
92.55, 0.026356, , 
92.58, 0.026311, , 
92.61, 0.026330, , 
92.64, 0.026362, , 
92.67, 0.026343, , 
92.70, 0.026337, , 
92.73, 0.026362, , 
92.76, 0.026371, , 
92.79, 0.026318, , 
92.82, 0.026327, , 
92.85, 0.026343, , 
92.88, 0.026340, , 
92.91, 0.026299, , 
92.94, 0.026333, , 
92.97, 0.026330, , 
93.00, 0.026308, , 
93.03, 0.026330, , 
93.06, 0.026362, , 
93.09, 0.026362, , 
93.12, 0.026343, , 
93.15, 0.026349, , 
93.18, 0.026416, , 
93.21, 0.026400, , 
93.24, 0.026362, , 
93.27, 0.026343, , 
93.30, 0.026368, , 
93.33, 0.026346, , 
93.36, 0.026333, , 
93.39, 0.026406, , 
93.42, 0.026435, , 
93.45, 0.026413, , 
93.48, 0.026378, , 
93.51, 0.026384, , 
93.55, 0.026394, , 
93.57, 0.026400, , 
93.61, 0.026346, , 
93.63, 0.026340, , 
93.66, 0.026410, , 
93.69, 0.026394, , 
93.72, 0.026349, , 
93.75, 0.026387, , 
93.78, 0.026410, , 
93.82, 0.026387, , 
93.84, 0.026337, , 
93.87, 0.026333, , 
93.90, 0.026438, , 
93.93, 0.026416, , 
93.96, 0.026375, , 
93.99, 0.026403, , 
94.02, 0.026403, , 
94.05, 0.026349, , 
94.08, 0.026397, , 
94.11, 0.026371, , 
94.14, 0.026400, , 
94.17, 0.026387, , 
94.20, 0.026390, , 
94.23, 0.026397, , 
94.26, 0.026371, , 
94.29, 0.026394, , 
94.32, 0.026352, , 
94.35, 0.026390, , 
94.38, 0.026457, , 
94.41, 0.026448, , 
94.44, 0.026384, , 
94.47, 0.026413, , 
94.50, 0.026451, , 
94.53, 0.026416, , 
94.56, 0.026384, , 
94.59, 0.026413, , 
94.62, 0.026400, , 
94.65, 0.026406, , 
94.68, 0.026397, , 
94.71, 0.026413, , 
94.74, 0.026422, , 
94.77, 0.026381, , 
94.80, 0.026371, , 
94.83, 0.026394, , 
94.86, 0.026346, , 
94.89, 0.026327, , 
94.92, 0.026340, , 
94.95, 0.026410, , 
94.98, 0.026394, , 
95.01, 0.026346, , 
95.04, 0.026365, , 
95.07, 0.026375, , 
95.10, 0.026356, , 
95.13, 0.026349, , 
95.16, 0.026378, , 
95.19, 0.026387, , 
95.22, 0.026346, , 
95.25, 0.026343, , 
95.28, 0.026349, , 
95.31, 0.026381, , 
95.34, 0.026403, , 
95.37, 0.026381, , 
95.40, 0.026384, , 
95.43, 0.026394, , 
95.46, 0.026356, , 
95.49, 0.026352, , 
95.52, 0.026349, , 
95.55, 0.026359, , 
95.58, 0.026333, , 
95.61, 0.026343, , 
95.64, 0.026362, , 
95.67, 0.026387, , 
95.70, 0.026349, , 
95.73, 0.026308, , 
95.76, 0.026324, , 
95.79, 0.026321, , 
95.82, 0.026289, , 
95.85, 0.026286, , 
95.88, 0.026352, , 
95.91, 0.026365, , 
95.94, 0.026321, , 
95.97, 0.026292, , 
96.00, 0.026318, , 
