Gradient Profiler Text Data File: 2025_1_28_C1_WH.csv
Date: 2025-01-28
Time: 17:17:45

User: Jared
Experiment name: 
UV Unit: EM-1
Rotor Manufacturer: Beckman
Rotor Model: SW28.1
Speed: 28 rpm
Gradient: sucrose 10.0% to 50.0% w/v
Time: 4
w2t:  x 10^0
Sample Volume: 18 ml
Number of Tubes: 6
Volume per mm: 0.183 ml/mm

Absorbance Units Full Scale (AUFS): 2.00
Event Mark-triggered gradient; (with distance; auto start and stop)
Delay: No Delay
UV Wavelength: 254 nm
Samples / sec: 10 Hz
EM1 Speed: 0.30 mm/sec
Distance: 3.20 mm
Number: 30
Dead Volume: 0.000000 ml; Distance due to Dead Volume: 0.00 mm
Total Distance: 96.00 mm

Data Columns:
Distance(mm), Absorbance, Fraction Number, Fraction Volume(ml)
0.00, 0.071981, 0, 0.000
0.03, 0.072044, , 
0.06, 0.072101, , 
0.09, 0.072025, , 
0.12, 0.072050, , 
0.15, 0.072050, , 
0.18, 0.072044, , 
0.21, 0.071971, , 
0.25, 0.072025, , 
0.27, 0.072108, , 
0.30, 0.071984, , 
0.33, 0.071870, , 
0.36, 0.072012, , 
0.39, 0.072079, , 
0.42, 0.072009, , 
0.45, 0.071857, , 
0.48, 0.071844, , 
0.51, 0.071946, , 
0.54, 0.072057, , 
0.57, 0.072342, , 
0.60, 0.072831, , 
0.63, 0.073211, , 
0.66, 0.073376, , 
0.69, 0.073570, , 
0.72, 0.073789, , 
0.75, 0.074265, , 
0.78, 0.074763, , 
0.82, 0.076802, , 
0.84, 0.082569, , 
0.87, 0.097147, , 
0.90, 0.134684, , 
0.93, 0.190100, , 
0.96, 0.264726, , 
0.99, 0.367754, , 
1.02, 0.447652, , 
1.05, 0.547251, , 
1.08, 0.666801, , 
1.11, 0.770729, , 
1.14, 0.875099, , 
1.17, 0.997650, , 
1.20, 1.103059, , 
1.23, 1.208545, , 
1.26, 1.331908, , 
1.29, 1.437737, , 
1.32, 1.525624, , 
1.35, 1.646827, , 
1.38, 1.745884, , 
1.41, 1.834609, , 
1.44, 1.915925, , 
1.47, 1.962895, , 
1.50, 1.995997, , 
1.53, 2.011749, , 
1.56, 2.020763, , 
1.59, 2.025705, , 
1.62, 2.028319, , 
1.65, 2.030026, , 
1.68, 2.030942, , 
1.71, 2.031532, , 
1.74, 2.031735, , 
1.77, 2.031995, , 
1.80, 2.032382, , 
1.83, 2.032493, , 
1.86, 2.032557, , 
1.89, 2.032646, , 
1.92, 2.032880, , 
1.95, 2.032966, , 
1.98, 2.032922, , 
2.01, 2.033033, , 
2.04, 2.033159, , 
2.07, 2.033185, , 
2.10, 2.033223, , 
2.13, 2.033359, , 
2.16, 2.033413, , 
2.19, 2.033388, , 
2.22, 2.033340, , 
2.25, 2.033448, , 
2.28, 2.033581, , 
2.31, 2.033537, , 
2.34, 2.033540, , 
2.37, 2.033588, , 
2.40, 2.033508, , 
2.43, 2.033020, , 
2.46, 2.032278, , 
2.49, 2.031278, , 
2.52, 2.029905, , 
2.55, 2.027967, , 
2.58, 2.025629, , 
2.61, 2.023009, , 
2.64, 2.019466, , 
2.67, 2.015752, , 
2.70, 2.010972, , 
2.73, 2.006350, , 
2.76, 2.001072, , 
2.79, 1.994164, , 
2.82, 1.988730, , 
2.85, 1.981654, , 
2.88, 1.972731, , 
2.91, 1.964268, , 
2.94, 1.953721, , 
2.97, 1.944399, , 
3.00, 1.934744, , 
3.03, 1.924457, , 
3.06, 1.914025, , 
3.09, 1.901492, , 
3.12, 1.890251, , 
3.15, 1.878490, , 
3.18, 1.866401, 1, 0.582
3.18, 1.864343, , 
3.21, 1.851950, , 
3.24, 1.839227, , 
3.27, 1.823910, , 
3.30, 1.812862, , 
3.33, 1.797228, , 
3.36, 1.783335, , 
3.39, 1.769270, , 
3.42, 1.755085, , 
3.45, 1.738350, , 
3.48, 1.723709, , 
3.51, 1.708804, , 
3.54, 1.691475, , 
3.57, 1.676520, , 
3.60, 1.661399, , 
3.63, 1.646120, , 
3.66, 1.630799, , 
3.69, 1.612980, , 
3.72, 1.597389, , 
3.75, 1.581758, , 
3.78, 1.563491, , 
3.81, 1.547806, , 
3.84, 1.532000, , 
3.87, 1.515868, , 
3.90, 1.500002, , 
3.93, 1.484063, , 
3.96, 1.465202, , 
3.99, 1.449000, , 
4.02, 1.430210, , 
4.05, 1.414166, , 
4.08, 1.398052, , 
4.12, 1.379198, , 
4.14, 1.365819, , 
4.17, 1.347276, , 
4.20, 1.331451, , 
4.23, 1.315712, , 
4.26, 1.297699, , 
4.29, 1.282477, , 
4.32, 1.267296, , 
4.35, 1.252178, , 
4.38, 1.237480, , 
4.41, 1.220449, , 
4.44, 1.205925, , 
4.47, 1.189161, , 
4.50, 1.174999, , 
4.53, 1.161058, , 
4.56, 1.147235, , 
4.59, 1.131353, , 
4.62, 1.120207, , 
4.65, 1.104712, , 
4.68, 1.091444, , 
4.71, 1.078258, , 
4.74, 1.063058, , 
4.77, 1.050126, , 
4.80, 1.037185, , 
4.83, 1.024411, , 
4.86, 1.011844, , 
4.89, 0.997240, , 
4.92, 0.984775, , 
4.95, 0.970495, , 
4.98, 0.958435, , 
5.01, 0.946413, , 
5.04, 0.934490, , 
5.07, 0.922690, , 
5.10, 0.909134, , 
5.13, 0.897585, , 
5.16, 0.886004, , 
5.19, 0.872802, , 
5.22, 0.861811, , 
5.25, 0.850913, , 
5.28, 0.839947, , 
5.31, 0.829312, , 
5.34, 0.818791, , 
5.37, 0.806547, , 
5.40, 0.796181, , 
5.43, 0.784366, , 
5.46, 0.774453, , 
5.49, 0.764569, , 
5.52, 0.754733, , 
5.55, 0.745087, , 
5.58, 0.734141, , 
5.61, 0.724806, , 
5.64, 0.715566, , 
5.67, 0.704798, , 
5.70, 0.695811, , 
5.73, 0.686851, , 
5.76, 0.677814, , 
5.79, 0.668913, , 
5.82, 0.658941, , 
5.85, 0.650259, , 
5.88, 0.641575, , 
5.91, 0.631688, , 
5.94, 0.623456, , 
5.97, 0.615190, , 
6.00, 0.605468, , 
6.03, 0.597355, , 
6.06, 0.590735, , 
6.09, 0.581403, , 
6.12, 0.573435, , 
6.15, 0.565718, , 
6.18, 0.558241, , 
6.21, 0.549541, , 
6.24, 0.542195, , 
6.27, 0.533970, , 
6.30, 0.527201, , 
6.33, 0.520416, , 
6.36, 0.513663, , 
6.39, 0.507132, 2, 0.588
6.40, 0.506041, , 
6.42, 0.500696, , 
6.45, 0.493258, , 
6.48, 0.487041, , 
6.51, 0.480066, , 
6.54, 0.474150, , 
6.57, 0.468187, , 
6.60, 0.462373, , 
6.63, 0.456673, , 
6.66, 0.450072, , 
6.69, 0.444321, , 
6.72, 0.438561, , 
6.75, 0.431998, , 
6.78, 0.426375, , 
6.81, 0.420722, , 
6.84, 0.414207, , 
6.87, 0.408872, , 
6.90, 0.404412, , 
6.93, 0.398119, , 
6.96, 0.392758, , 
6.99, 0.386665, , 
7.02, 0.381552, , 
7.05, 0.376347, , 
7.08, 0.370346, , 
7.11, 0.366292, , 
7.14, 0.360630, , 
7.17, 0.355790, , 
7.20, 0.351108, , 
7.23, 0.345887, , 
7.26, 0.341468, , 
7.29, 0.337009, , 
7.32, 0.332717, , 
7.35, 0.327927, , 
7.38, 0.323791, , 
7.41, 0.319687, , 
7.44, 0.315725, , 
7.47, 0.311966, , 
7.50, 0.307522, , 
7.53, 0.303170, , 
7.56, 0.300119, , 
7.59, 0.296541, , 
7.62, 0.292281, , 
7.65, 0.288576, , 
7.68, 0.285046, , 
7.71, 0.281037, , 
7.74, 0.277500, , 
7.78, 0.273364, , 
7.80, 0.270382, , 
7.83, 0.266998, , 
7.86, 0.262985, , 
7.89, 0.259563, , 
7.92, 0.255829, , 
7.95, 0.252581, , 
7.98, 0.249263, , 
8.01, 0.245904, , 
8.04, 0.242231, , 
8.07, 0.239662, , 
8.10, 0.235960, , 
8.13, 0.232963, , 
8.16, 0.230108, , 
8.19, 0.226666, , 
8.22, 0.223726, , 
8.25, 0.220935, , 
8.28, 0.217848, , 
8.31, 0.215200, , 
8.34, 0.212504, , 
8.37, 0.209773, , 
8.40, 0.207289, , 
8.43, 0.204666, , 
8.46, 0.201602, , 
8.49, 0.199210, , 
8.52, 0.196872, , 
8.55, 0.194100, , 
8.58, 0.191693, , 
8.61, 0.188962, , 
8.64, 0.187125, , 
8.67, 0.184975, , 
8.70, 0.182361, , 
8.73, 0.180134, , 
8.76, 0.178038, , 
8.79, 0.175567, , 
8.82, 0.173467, , 
8.85, 0.171326, , 
8.88, 0.169327, , 
8.91, 0.167399, , 
8.94, 0.164991, , 
8.97, 0.162984, , 
9.00, 0.161131, , 
9.03, 0.158965, , 
9.06, 0.156916, , 
9.09, 0.154898, , 
9.12, 0.153547, , 
9.15, 0.151945, , 
9.18, 0.149956, , 
9.21, 0.148294, , 
9.24, 0.146562, , 
9.27, 0.145037, , 
9.30, 0.143416, , 
9.33, 0.141877, , 
9.36, 0.140456, , 
9.39, 0.138836, , 
9.42, 0.137453, , 
9.45, 0.135911, , 
9.49, 0.134826, , 
9.51, 0.133821, , 
9.54, 0.132301, , 
9.57, 0.131017, , 
9.59, 0.130481, 3, 0.585
9.60, 0.129729, , 
9.63, 0.128593, , 
9.66, 0.127337, , 
9.69, 0.126110, , 
9.72, 0.125101, , 
9.75, 0.123705, , 
9.78, 0.122554, , 
9.81, 0.121333, , 
9.84, 0.120216, , 
9.87, 0.119284, , 
9.90, 0.118002, , 
9.93, 0.116959, , 
9.96, 0.115909, , 
9.99, 0.114945, , 
10.02, 0.113968, , 
10.05, 0.113003, , 
10.08, 0.112353, , 
10.11, 0.111249, , 
10.14, 0.110295, , 
10.17, 0.109451, , 
10.20, 0.108632, , 
10.23, 0.107862, , 
10.26, 0.107002, , 
10.29, 0.106200, , 
10.32, 0.105651, , 
10.35, 0.105080, , 
10.38, 0.104265, , 
10.41, 0.103713, , 
10.44, 0.103063, , 
10.47, 0.102463, , 
10.50, 0.101911, , 
10.53, 0.101302, , 
10.56, 0.100842, , 
10.59, 0.100141, , 
10.62, 0.099513, , 
10.65, 0.099050, , 
10.68, 0.098682, , 
10.71, 0.097965, , 
10.74, 0.097432, , 
10.77, 0.097080, , 
10.80, 0.096706, , 
10.83, 0.096110, , 
10.86, 0.095631, , 
10.89, 0.095174, , 
10.92, 0.094793, , 
10.95, 0.094254, , 
10.98, 0.093731, , 
11.01, 0.093347, , 
11.04, 0.092915, , 
11.07, 0.092383, , 
11.10, 0.091999, , 
11.13, 0.091732, , 
11.16, 0.091406, , 
11.19, 0.090971, , 
11.22, 0.090587, , 
11.25, 0.090343, , 
11.28, 0.090054, , 
11.31, 0.089588, , 
11.34, 0.089261, , 
11.37, 0.089055, , 
11.40, 0.088741, , 
11.43, 0.088345, , 
11.46, 0.088075, , 
11.49, 0.087891, , 
11.52, 0.087542, , 
11.55, 0.087168, , 
11.58, 0.086870, , 
11.61, 0.086648, , 
11.64, 0.086324, , 
11.67, 0.085931, , 
11.70, 0.085658, , 
11.73, 0.085427, , 
11.76, 0.085132, , 
11.79, 0.084703, , 
11.82, 0.084440, , 
11.85, 0.084253, , 
11.88, 0.083948, , 
11.91, 0.083666, , 
11.94, 0.083403, , 
11.97, 0.083105, , 
12.00, 0.082848, , 
12.03, 0.082470, , 
12.06, 0.082305, , 
12.09, 0.082153, , 
12.12, 0.081849, , 
12.15, 0.081535, , 
12.19, 0.081360, , 
12.21, 0.081208, , 
12.24, 0.080910, , 
12.27, 0.080621, , 
12.30, 0.080399, , 
12.33, 0.080275, , 
12.36, 0.079933, , 
12.39, 0.079638, , 
12.42, 0.079501, , 
12.45, 0.079336, , 
12.48, 0.079016, , 
12.51, 0.078813, , 
12.54, 0.078648, , 
12.57, 0.078420, , 
12.60, 0.077976, , 
12.63, 0.077671, , 
12.66, 0.077494, , 
12.69, 0.077205, , 
12.72, 0.076815, , 
12.75, 0.076580, , 
12.78, 0.076348, 4, 0.585
12.79, 0.076320, , 
12.81, 0.076063, , 
12.84, 0.075682, , 
12.87, 0.075457, , 
12.90, 0.075299, , 
12.93, 0.074946, , 
12.96, 0.074594, , 
12.99, 0.074274, , 
13.02, 0.074093, , 
13.05, 0.073928, , 
13.08, 0.073554, , 
13.11, 0.073246, , 
13.14, 0.073081, , 
13.17, 0.072694, , 
13.20, 0.072368, , 
13.23, 0.072168, , 
13.26, 0.071993, , 
13.29, 0.071606, , 
13.32, 0.071213, , 
13.35, 0.070975, , 
13.38, 0.070591, , 
13.41, 0.070233, , 
13.44, 0.069751, , 
13.47, 0.069484, , 
13.50, 0.069275, , 
13.53, 0.068834, , 
13.56, 0.068396, , 
13.59, 0.068063, , 
13.62, 0.067575, , 
13.65, 0.067251, , 
13.68, 0.066842, , 
13.71, 0.066535, , 
13.74, 0.066278, , 
13.77, 0.065783, , 
13.80, 0.065259, , 
13.83, 0.064860, , 
13.87, 0.064485, , 
13.89, 0.064168, , 
13.92, 0.063772, , 
13.95, 0.063477, , 
13.98, 0.063109, , 
14.01, 0.062614, , 
14.04, 0.062252, , 
14.07, 0.061919, , 
14.10, 0.061640, , 
14.13, 0.061222, , 
14.16, 0.060819, , 
14.19, 0.060568, , 
14.22, 0.060283, , 
14.25, 0.059858, , 
14.28, 0.059423, , 
14.31, 0.059125, , 
14.34, 0.058846, , 
14.37, 0.058494, , 
14.40, 0.058246, , 
14.43, 0.058100, , 
14.46, 0.057780, , 
14.49, 0.057412, , 
14.52, 0.057114, , 
14.55, 0.056974, , 
14.58, 0.056774, , 
14.61, 0.056470, , 
14.64, 0.056197, , 
14.67, 0.055985, , 
14.70, 0.055747, , 
14.73, 0.055458, , 
14.76, 0.055239, , 
14.79, 0.055014, , 
14.82, 0.054760, , 
14.85, 0.054475, , 
14.88, 0.054338, , 
14.91, 0.054307, , 
14.94, 0.054059, , 
14.97, 0.053821, , 
15.00, 0.053704, , 
15.03, 0.053622, , 
15.06, 0.053311, , 
15.09, 0.053073, , 
15.12, 0.052902, , 
15.15, 0.052863, , 
15.18, 0.052638, , 
15.22, 0.052540, , 
15.24, 0.052508, , 
15.27, 0.052435, , 
15.30, 0.052220, , 
15.33, 0.052023, , 
15.36, 0.051928, , 
15.39, 0.051899, , 
15.42, 0.051744, , 
15.45, 0.051401, , 
15.48, 0.051306, , 
15.51, 0.051262, , 
15.54, 0.051014, , 
15.57, 0.050859, , 
15.60, 0.050875, , 
15.63, 0.050745, , 
15.66, 0.050583, , 
15.69, 0.050564, , 
15.72, 0.050586, , 
15.75, 0.050615, , 
15.78, 0.050367, , 
15.81, 0.050224, , 
15.84, 0.050193, , 
15.87, 0.050145, , 
15.90, 0.050066, , 
15.93, 0.049993, , 
15.96, 0.050059, , 
15.99, 0.050098, 5, 0.587
15.99, 0.050098, , 
16.02, 0.050072, , 
16.05, 0.050136, , 
16.08, 0.050228, , 
16.11, 0.050161, , 
16.14, 0.049844, , 
16.17, 0.049714, , 
16.20, 0.049672, , 
16.23, 0.049707, , 
16.26, 0.049609, , 
16.29, 0.049542, , 
16.32, 0.049647, , 
16.35, 0.049619, , 
16.38, 0.049568, , 
16.41, 0.049552, , 
16.44, 0.049593, , 
16.47, 0.049619, , 
16.50, 0.049555, , 
16.53, 0.049549, , 
16.56, 0.049644, , 
16.59, 0.049660, , 
16.62, 0.049533, , 
16.65, 0.049565, , 
16.68, 0.049631, , 
16.71, 0.049568, , 
16.75, 0.049536, , 
16.77, 0.049574, , 
16.80, 0.049711, , 
16.83, 0.049853, , 
16.86, 0.049967, , 
16.89, 0.050079, , 
16.92, 0.050129, , 
16.95, 0.050085, , 
16.98, 0.050094, , 
17.01, 0.050151, , 
17.04, 0.050405, , 
17.07, 0.050475, , 
17.10, 0.050465, , 
17.13, 0.050564, , 
17.16, 0.050751, , 
17.19, 0.050767, , 
17.22, 0.050957, , 
17.25, 0.051128, , 
17.28, 0.051300, , 
17.31, 0.051411, , 
17.34, 0.051490, , 
17.37, 0.051731, , 
17.40, 0.051953, , 
17.43, 0.052083, , 
17.46, 0.052308, , 
17.49, 0.052651, , 
17.52, 0.052962, , 
17.55, 0.053222, , 
17.58, 0.053533, , 
17.61, 0.054047, , 
17.64, 0.054614, , 
17.67, 0.054928, , 
17.70, 0.055214, , 
17.73, 0.055728, , 
17.76, 0.056353, , 
17.79, 0.056755, , 
17.82, 0.057494, , 
17.85, 0.058199, , 
17.88, 0.058881, , 
17.91, 0.059642, , 
17.94, 0.060397, , 
17.98, 0.061336, , 
18.00, 0.062087, , 
18.03, 0.062903, , 
18.06, 0.063981, , 
18.09, 0.064898, , 
18.12, 0.065846, , 
18.15, 0.066626, , 
18.18, 0.067324, , 
18.21, 0.068438, , 
18.24, 0.069437, , 
18.27, 0.070490, , 
18.30, 0.071346, , 
18.33, 0.072368, , 
18.36, 0.073544, , 
18.40, 0.074471, , 
18.42, 0.075321, , 
18.45, 0.076545, , 
18.48, 0.077446, , 
18.51, 0.078451, , 
18.54, 0.079311, , 
18.57, 0.080361, , 
18.60, 0.081211, , 
18.63, 0.082001, , 
18.66, 0.082930, , 
18.69, 0.083891, , 
18.72, 0.084954, , 
18.75, 0.085709, , 
18.78, 0.086505, , 
18.81, 0.087330, , 
18.84, 0.087980, , 
18.87, 0.088652, , 
18.90, 0.089287, , 
18.93, 0.090004, , 
18.96, 0.090613, , 
18.99, 0.091054, , 
19.02, 0.091374, , 
19.05, 0.091834, , 
19.08, 0.092164, , 
19.11, 0.092449, , 
19.14, 0.092700, , 
19.17, 0.092852, , 
19.18, 0.092868, 6, 0.584
19.20, 0.092915, , 
19.23, 0.092992, , 
19.26, 0.093077, , 
19.29, 0.093157, , 
19.32, 0.093093, , 
19.35, 0.092881, , 
19.38, 0.092868, , 
19.41, 0.092747, , 
19.44, 0.092544, , 
19.47, 0.092297, , 
19.50, 0.092027, , 
19.53, 0.091764, , 
19.56, 0.091377, , 
19.59, 0.091088, , 
19.62, 0.090851, , 
19.65, 0.090368, , 
19.68, 0.089924, , 
19.71, 0.089525, , 
19.74, 0.089163, , 
19.77, 0.088716, , 
19.80, 0.088186, , 
19.83, 0.087764, , 
19.86, 0.087314, , 
19.89, 0.086968, , 
19.92, 0.086454, , 
19.95, 0.085836, , 
19.98, 0.085465, , 
20.01, 0.084995, , 
20.04, 0.084523, , 
20.07, 0.084094, , 
20.10, 0.083539, , 
20.13, 0.082984, , 
20.16, 0.082331, , 
20.19, 0.081753, , 
20.22, 0.081363, , 
20.25, 0.080948, , 
20.28, 0.080431, , 
20.31, 0.079984, , 
20.34, 0.079606, , 
20.37, 0.079121, , 
20.40, 0.078528, , 
20.44, 0.078052, , 
20.46, 0.077712, , 
20.49, 0.077272, , 
20.52, 0.076751, , 
20.55, 0.076237, , 
20.58, 0.075961, , 
20.61, 0.075473, , 
20.64, 0.074861, , 
20.67, 0.074480, , 
20.70, 0.074119, , 
20.73, 0.073630, , 
20.76, 0.073075, , 
20.79, 0.072612, , 
20.82, 0.072257, , 
20.85, 0.071664, , 
20.89, 0.071140, , 
20.91, 0.070766, , 
20.94, 0.070468, , 
20.97, 0.069871, , 
21.00, 0.069377, , 
21.03, 0.068990, , 
21.06, 0.068625, , 
21.09, 0.068273, , 
21.12, 0.067572, , 
21.15, 0.067169, , 
21.18, 0.066994, , 
21.21, 0.066503, , 
21.24, 0.066163, , 
21.27, 0.065792, , 
21.30, 0.065443, , 
21.33, 0.065037, , 
21.36, 0.064533, , 
21.39, 0.064286, , 
21.42, 0.064057, , 
21.45, 0.063673, , 
21.48, 0.063315, , 
21.51, 0.063096, , 
21.54, 0.062817, , 
21.57, 0.062535, , 
21.60, 0.062129, , 
21.63, 0.061850, , 
21.66, 0.061672, , 
21.69, 0.061352, , 
21.72, 0.061019, , 
21.75, 0.060796, , 
21.78, 0.060724, , 
21.81, 0.060422, , 
21.84, 0.060115, , 
21.87, 0.060048, , 
21.90, 0.059794, , 
21.93, 0.059550, , 
21.96, 0.059341, , 
21.99, 0.059268, , 
22.02, 0.059112, , 
22.05, 0.058874, , 
22.08, 0.058801, , 
22.11, 0.058751, , 
22.14, 0.058617, , 
22.17, 0.058443, , 
22.20, 0.058360, , 
22.23, 0.058379, , 
22.26, 0.058326, , 
22.29, 0.058360, , 
22.32, 0.058487, , 
22.35, 0.058684, , 
22.38, 0.058798, 7, 0.586
22.39, 0.058827, , 
22.41, 0.059001, , 
22.44, 0.059302, , 
22.47, 0.059588, , 
22.50, 0.060019, , 
22.53, 0.060416, , 
22.56, 0.060882, , 
22.59, 0.061666, , 
22.62, 0.062395, , 
22.65, 0.063045, , 
22.68, 0.063940, , 
22.71, 0.065323, , 
22.74, 0.066677, , 
22.77, 0.068323, , 
22.80, 0.069792, , 
22.83, 0.071838, , 
22.86, 0.074014, , 
22.89, 0.076314, , 
22.92, 0.079438, , 
22.95, 0.082226, , 
22.98, 0.085715, , 
23.01, 0.089848, , 
23.04, 0.093819, , 
23.07, 0.098263, , 
23.10, 0.102999, , 
23.13, 0.107567, , 
23.16, 0.114431, , 
23.19, 0.120527, , 
23.22, 0.126998, , 
23.25, 0.134991, , 
23.28, 0.141773, , 
23.31, 0.150220, , 
23.34, 0.159739, , 
23.37, 0.166850, , 
23.40, 0.175665, , 
23.43, 0.186481, , 
23.46, 0.195210, , 
23.49, 0.207533, , 
23.52, 0.217820, , 
23.55, 0.228379, , 
23.58, 0.239024, , 
23.61, 0.248746, , 
23.64, 0.260501, , 
23.67, 0.273326, , 
23.70, 0.284132, , 
23.73, 0.294882, , 
23.76, 0.307491, , 
23.79, 0.317235, , 
23.82, 0.328476, , 
23.85, 0.338655, , 
23.88, 0.350454, , 
23.91, 0.360316, , 
23.94, 0.369784, , 
23.97, 0.380378, , 
24.00, 0.389184, , 
24.03, 0.398950, , 
24.06, 0.405570, , 
24.09, 0.413160, , 
24.12, 0.421192, , 
24.15, 0.428408, , 
24.18, 0.434666, , 
24.21, 0.441571, , 
24.24, 0.447072, , 
24.27, 0.451703, , 
24.30, 0.456629, , 
24.33, 0.460701, , 
24.36, 0.465123, , 
24.39, 0.468485, , 
24.42, 0.471150, , 
24.45, 0.473966, , 
24.48, 0.476539, , 
24.51, 0.478306, , 
24.54, 0.479714, , 
24.58, 0.480535, , 
24.60, 0.481132, , 
24.63, 0.481525, , 
24.66, 0.481449, , 
24.69, 0.481027, , 
24.72, 0.480580, , 
24.75, 0.479692, , 
24.78, 0.478607, , 
24.81, 0.477186, , 
24.84, 0.475299, , 
24.87, 0.473595, , 
24.90, 0.471191, , 
24.93, 0.468685, , 
24.96, 0.466211, , 
24.99, 0.463604, , 
25.02, 0.460698, , 
25.05, 0.457951, , 
25.08, 0.454028, , 
25.11, 0.450754, , 
25.14, 0.446577, , 
25.17, 0.442834, , 
25.20, 0.439433, , 
25.23, 0.435300, , 
25.26, 0.431237, , 
25.29, 0.426552, , 
25.32, 0.422543, , 
25.35, 0.418746, , 
25.38, 0.414058, , 
25.41, 0.409725, , 
25.44, 0.404568, , 
25.47, 0.400051, , 
25.50, 0.394700, , 
25.53, 0.390579, , 
25.56, 0.385631, , 
25.58, 0.381780, 8, 0.586
25.60, 0.380217, , 
25.62, 0.376293, , 
25.65, 0.370932, , 
25.68, 0.366764, , 
25.71, 0.361740, , 
25.74, 0.356307, , 
25.77, 0.351844, , 
25.80, 0.347311, , 
25.83, 0.343305, , 
25.86, 0.338287, , 
25.89, 0.333786, , 
25.92, 0.328781, , 
25.95, 0.324422, , 
25.98, 0.319341, , 
26.01, 0.315525, , 
26.04, 0.311240, , 
26.08, 0.306469, , 
26.10, 0.303043, , 
26.13, 0.298593, , 
26.16, 0.295009, , 
26.19, 0.290816, , 
26.22, 0.286968, , 
26.25, 0.282753, , 
26.28, 0.279308, , 
26.31, 0.275149, , 
26.34, 0.272587, , 
26.37, 0.268904, , 
26.40, 0.265056, , 
26.43, 0.261685, , 
26.46, 0.257923, , 
26.49, 0.254960, , 
26.52, 0.252178, , 
26.55, 0.248718, , 
26.58, 0.245676, , 
26.61, 0.242345, , 
26.64, 0.239491, , 
26.67, 0.236661, , 
26.70, 0.233531, , 
26.73, 0.230609, , 
26.76, 0.227938, , 
26.79, 0.225176, , 
26.82, 0.222403, , 
26.85, 0.219634, , 
26.88, 0.216979, , 
26.91, 0.213998, , 
26.94, 0.211578, , 
26.97, 0.209589, , 
27.00, 0.206867, , 
27.03, 0.204168, , 
27.06, 0.201358, , 
27.09, 0.199086, , 
27.12, 0.196831, , 
27.15, 0.194265, , 
27.18, 0.191851, , 
27.21, 0.190015, , 
27.24, 0.187407, , 
27.27, 0.185228, , 
27.30, 0.183274, , 
27.33, 0.180629, , 
27.36, 0.178485, , 
27.39, 0.176401, , 
27.42, 0.174266, , 
27.45, 0.171982, , 
27.48, 0.170209, , 
27.51, 0.167726, , 
27.54, 0.165807, , 
27.57, 0.164008, , 
27.60, 0.162118, , 
27.63, 0.160376, , 
27.66, 0.158400, , 
27.69, 0.156405, , 
27.72, 0.154654, , 
27.75, 0.152833, , 
27.78, 0.150762, , 
27.81, 0.149278, , 
27.84, 0.147438, , 
27.87, 0.145639, , 
27.90, 0.143933, , 
27.93, 0.142071, , 
27.96, 0.140659, , 
27.99, 0.138550, , 
28.02, 0.137015, , 
28.05, 0.135778, , 
28.08, 0.133970, , 
28.11, 0.132517, , 
28.14, 0.130700, , 
28.17, 0.129380, , 
28.20, 0.127902, , 
28.23, 0.126199, , 
28.26, 0.125149, , 
28.29, 0.123385, , 
28.32, 0.121977, , 
28.35, 0.120534, , 
28.38, 0.119052, , 
28.41, 0.117730, , 
28.44, 0.116369, , 
28.47, 0.115252, , 
28.50, 0.114050, , 
28.53, 0.112667, , 
28.56, 0.111449, , 
28.59, 0.110288, , 
28.62, 0.109302, , 
28.65, 0.108004, , 
28.68, 0.106777, , 
28.71, 0.105429, , 
28.74, 0.104455, , 
28.77, 0.103580, , 
28.78, 0.103193, 9, 0.585
28.80, 0.102406, , 
28.83, 0.101312, , 
28.86, 0.100249, , 
28.89, 0.099332, , 
28.92, 0.098425, , 
28.95, 0.097175, , 
28.98, 0.096338, , 
29.01, 0.095463, , 
29.04, 0.094448, , 
29.07, 0.093670, , 
29.10, 0.092770, , 
29.13, 0.091828, , 
29.16, 0.090711, , 
29.19, 0.089877, , 
29.22, 0.089160, , 
29.25, 0.088437, , 
29.28, 0.087479, , 
29.31, 0.086781, , 
29.34, 0.086159, , 
29.37, 0.085347, , 
29.40, 0.084653, , 
29.43, 0.083818, , 
29.46, 0.083260, , 
29.49, 0.082638, , 
29.52, 0.081864, , 
29.55, 0.081214, , 
29.58, 0.080462, , 
29.61, 0.079876, , 
29.64, 0.079095, , 
29.67, 0.078480, , 
29.71, 0.078017, , 
29.73, 0.077335, , 
29.76, 0.076739, , 
29.79, 0.076076, , 
29.82, 0.075609, , 
29.85, 0.074981, , 
29.88, 0.074334, , 
29.91, 0.073630, , 
29.94, 0.073199, , 
29.97, 0.072720, , 
30.00, 0.072190, , 
30.03, 0.071635, , 
30.06, 0.071032, , 
30.09, 0.070439, , 
30.12, 0.069890, , 
30.15, 0.069383, , 
30.18, 0.069063, , 
30.21, 0.068606, , 
30.24, 0.068038, , 
30.27, 0.067673, , 
30.30, 0.067191, , 
30.33, 0.066718, , 
30.36, 0.066293, , 
30.39, 0.066049, , 
30.42, 0.065742, , 
30.45, 0.065310, , 
30.49, 0.064917, , 
30.51, 0.064520, , 
30.54, 0.064054, , 
30.57, 0.063648, , 
30.60, 0.063283, , 
30.63, 0.062998, , 
30.66, 0.062620, , 
30.69, 0.062195, , 
30.72, 0.061894, , 
30.75, 0.061653, , 
30.78, 0.061282, , 
30.81, 0.060907, , 
30.84, 0.060698, , 
30.87, 0.060495, , 
30.90, 0.060054, , 
30.93, 0.059785, , 
30.96, 0.059547, , 
30.99, 0.059382, , 
31.02, 0.059027, , 
31.05, 0.058820, , 
31.08, 0.058744, , 
31.11, 0.058586, , 
31.14, 0.058395, , 
31.17, 0.058091, , 
31.20, 0.057878, , 
31.23, 0.057758, , 
31.26, 0.057631, , 
31.29, 0.057387, , 
31.32, 0.057155, , 
31.35, 0.057108, , 
31.38, 0.057066, , 
31.41, 0.056825, , 
31.44, 0.056819, , 
31.47, 0.056762, , 
31.50, 0.056584, , 
31.53, 0.056397, , 
31.56, 0.056273, , 
31.59, 0.056299, , 
31.62, 0.056238, , 
31.65, 0.056121, , 
31.68, 0.056153, , 
31.71, 0.056242, , 
31.74, 0.056073, , 
31.77, 0.055994, , 
31.80, 0.056134, , 
31.84, 0.056169, , 
31.86, 0.056124, , 
31.89, 0.056204, , 
31.92, 0.056349, , 
31.95, 0.056619, , 
31.98, 0.056473, 10, 0.586
31.99, 0.056473, , 
32.02, 0.056673, , 
32.04, 0.056863, , 
32.07, 0.057123, , 
32.10, 0.057184, , 
32.13, 0.057180, , 
32.16, 0.057361, , 
32.19, 0.057625, , 
32.22, 0.057726, , 
32.25, 0.057847, , 
32.28, 0.058075, , 
32.31, 0.058338, , 
32.34, 0.058541, , 
32.37, 0.058747, , 
32.40, 0.059004, , 
32.43, 0.059334, , 
32.46, 0.059474, , 
32.49, 0.059756, , 
32.52, 0.059969, , 
32.55, 0.060270, , 
32.58, 0.060371, , 
32.61, 0.060524, , 
32.64, 0.060825, , 
32.67, 0.061066, , 
32.70, 0.061275, , 
32.73, 0.061656, , 
32.76, 0.061913, , 
32.79, 0.062198, , 
32.82, 0.062452, , 
32.85, 0.062731, , 
32.88, 0.063087, , 
32.91, 0.063477, , 
32.94, 0.063746, , 
32.97, 0.064022, , 
33.00, 0.064517, , 
33.03, 0.064844, , 
33.06, 0.065075, , 
33.09, 0.065491, , 
33.12, 0.065868, , 
33.15, 0.066141, , 
33.18, 0.066382, , 
33.21, 0.066757, , 
33.24, 0.067105, , 
33.27, 0.067255, , 
33.30, 0.067464, , 
33.33, 0.067845, , 
33.36, 0.068171, , 
33.39, 0.068400, , 
33.42, 0.068606, , 
33.45, 0.068932, , 
33.48, 0.069145, , 
33.51, 0.069300, , 
33.54, 0.069396, , 
33.57, 0.069627, , 
33.60, 0.069783, , 
33.63, 0.069846, , 
33.66, 0.069989, , 
33.69, 0.070189, , 
33.72, 0.070401, , 
33.75, 0.070411, , 
33.78, 0.070379, , 
33.81, 0.070449, , 
33.84, 0.070541, , 
33.87, 0.070528, , 
33.90, 0.070449, , 
33.93, 0.070537, , 
33.96, 0.070537, , 
33.99, 0.070423, , 
34.02, 0.070293, , 
34.05, 0.070223, , 
34.08, 0.070242, , 
34.11, 0.069989, , 
34.14, 0.069716, , 
34.17, 0.069640, , 
34.20, 0.069446, , 
34.23, 0.069135, , 
34.26, 0.068885, , 
34.29, 0.068752, , 
34.32, 0.068460, , 
34.35, 0.068057, , 
34.38, 0.067711, , 
34.41, 0.067337, , 
34.44, 0.067020, , 
34.47, 0.066661, , 
34.50, 0.066331, , 
34.53, 0.066065, , 
34.56, 0.065542, , 
34.59, 0.065044, , 
34.62, 0.064733, , 
34.65, 0.064235, , 
34.68, 0.063765, , 
34.71, 0.063302, , 
34.74, 0.062861, , 
34.77, 0.062516, , 
34.80, 0.062014, , 
34.83, 0.061440, , 
34.86, 0.061022, , 
34.89, 0.060793, , 
34.92, 0.060273, , 
34.95, 0.059769, , 
34.98, 0.059344, , 
35.01, 0.058938, , 
35.04, 0.058386, , 
35.07, 0.057891, , 
35.10, 0.057450, , 
35.13, 0.056962, , 
35.16, 0.056476, , 
35.19, 0.056092, 11, 0.587
35.19, 0.056023, , 
35.22, 0.055582, , 
35.25, 0.055372, , 
35.28, 0.054932, , 
35.31, 0.054532, , 
35.34, 0.054164, , 
35.37, 0.053882, , 
35.40, 0.053558, , 
35.43, 0.053133, , 
35.46, 0.052905, , 
35.49, 0.052619, , 
35.52, 0.052226, , 
35.55, 0.051845, , 
35.58, 0.051601, , 
35.62, 0.051281, , 
35.64, 0.051052, , 
35.67, 0.050760, , 
35.70, 0.050573, , 
35.73, 0.050399, , 
35.76, 0.050072, , 
35.79, 0.049837, , 
35.82, 0.049641, , 
35.85, 0.049454, , 
35.88, 0.049155, , 
35.91, 0.048937, , 
35.94, 0.048692, , 
35.97, 0.048464, , 
36.00, 0.048245, , 
36.03, 0.048010, , 
36.06, 0.047833, , 
36.09, 0.047614, , 
36.12, 0.047214, , 
36.15, 0.047024, , 
36.18, 0.046960, , 
36.21, 0.046716, , 
36.24, 0.046491, , 
36.27, 0.046380, , 
36.30, 0.046282, , 
36.33, 0.045933, , 
36.36, 0.045670, , 
36.39, 0.045609, , 
36.42, 0.045479, , 
36.45, 0.045222, , 
36.48, 0.045083, , 
36.51, 0.044975, , 
36.54, 0.044880, , 
36.57, 0.044623, , 
36.60, 0.044515, , 
36.63, 0.044477, , 
36.66, 0.044274, , 
36.69, 0.044144, , 
36.72, 0.044020, , 
36.75, 0.043953, , 
36.78, 0.043785, , 
36.81, 0.043582, , 
36.84, 0.043436, , 
36.87, 0.043395, , 
36.90, 0.043364, , 
36.93, 0.043249, , 
36.96, 0.043015, , 
36.99, 0.042967, , 
37.02, 0.042885, , 
37.05, 0.042672, , 
37.08, 0.042586, , 
37.11, 0.042561, , 
37.14, 0.042548, , 
37.17, 0.042418, , 
37.20, 0.042402, , 
37.23, 0.042364, , 
37.26, 0.042168, , 
37.29, 0.041936, , 
37.32, 0.041870, , 
37.35, 0.041974, , 
37.38, 0.041987, , 
37.41, 0.041958, , 
37.44, 0.041958, , 
37.47, 0.042050, , 
37.50, 0.041904, , 
37.53, 0.041835, , 
37.56, 0.041968, , 
37.59, 0.042095, , 
37.62, 0.042012, , 
37.65, 0.041920, , 
37.68, 0.042009, , 
37.71, 0.042076, , 
37.74, 0.041993, , 
37.77, 0.041977, , 
37.80, 0.042111, , 
37.84, 0.042136, , 
37.86, 0.042225, , 
37.89, 0.042257, , 
37.92, 0.042402, , 
37.95, 0.042437, , 
37.98, 0.042352, , 
38.01, 0.042456, , 
38.04, 0.042634, , 
38.07, 0.042755, , 
38.10, 0.042859, , 
38.13, 0.042954, , 
38.16, 0.043069, , 
38.19, 0.043237, , 
38.22, 0.043332, , 
38.25, 0.043456, , 
38.28, 0.043668, , 
38.31, 0.043849, , 
38.34, 0.044014, , 
38.37, 0.044223, , 
38.39, 0.044369, 12, 0.585
38.40, 0.044480, , 
38.44, 0.044651, , 
38.46, 0.044848, , 
38.49, 0.045048, , 
38.52, 0.045327, , 
38.55, 0.045511, , 
38.58, 0.045704, , 
38.61, 0.045974, , 
38.64, 0.046313, , 
38.67, 0.046456, , 
38.70, 0.046558, , 
38.73, 0.046792, , 
38.76, 0.047125, , 
38.79, 0.047522, , 
38.82, 0.047642, , 
38.85, 0.047950, , 
38.88, 0.048318, , 
38.91, 0.048594, , 
38.94, 0.048870, , 
38.97, 0.049235, , 
39.00, 0.049469, , 
39.03, 0.049799, , 
39.06, 0.050123, , 
39.09, 0.050412, , 
39.12, 0.050884, , 
39.15, 0.051239, , 
39.18, 0.051645, , 
39.21, 0.052077, , 
39.24, 0.052591, , 
39.27, 0.052905, , 
39.30, 0.053393, , 
39.33, 0.053974, , 
39.36, 0.054275, , 
39.39, 0.054703, , 
39.42, 0.055204, , 
39.45, 0.055715, , 
39.48, 0.056105, , 
39.51, 0.056530, , 
39.54, 0.056917, , 
39.57, 0.057507, , 
39.60, 0.057954, , 
39.63, 0.058313, , 
39.66, 0.058728, , 
39.69, 0.059065, , 
39.72, 0.059445, , 
39.76, 0.059728, , 
39.78, 0.060076, , 
39.81, 0.060651, , 
39.84, 0.061006, , 
39.87, 0.061409, , 
39.90, 0.061891, , 
39.93, 0.062338, , 
39.96, 0.062633, , 
39.99, 0.062877, , 
40.02, 0.063334, , 
40.05, 0.063670, , 
40.08, 0.063911, , 
40.11, 0.064067, , 
40.14, 0.064349, , 
40.17, 0.064673, , 
40.20, 0.064787, , 
40.23, 0.064949, , 
40.26, 0.065177, , 
40.29, 0.065456, , 
40.32, 0.065491, , 
40.35, 0.065466, , 
40.38, 0.065554, , 
40.41, 0.065526, , 
40.44, 0.065450, , 
40.47, 0.065424, , 
40.50, 0.065554, , 
40.53, 0.065418, , 
40.56, 0.065256, , 
40.59, 0.065066, , 
40.62, 0.065034, , 
40.65, 0.064936, , 
40.68, 0.064711, , 
40.71, 0.064352, , 
40.74, 0.064181, , 
40.77, 0.063911, , 
40.80, 0.063559, , 
40.83, 0.063236, , 
40.86, 0.062944, , 
40.89, 0.062563, , 
40.92, 0.062202, , 
40.95, 0.061970, , 
40.98, 0.061739, , 
41.01, 0.061199, , 
41.04, 0.060736, , 
41.07, 0.060232, , 
41.10, 0.059889, , 
41.13, 0.059388, , 
41.16, 0.058846, , 
41.19, 0.058513, , 
41.22, 0.058297, , 
41.25, 0.057897, , 
41.28, 0.057498, , 
41.31, 0.057082, , 
41.34, 0.056787, , 
41.37, 0.056280, , 
41.40, 0.055718, , 
41.43, 0.055319, , 
41.46, 0.054982, , 
41.49, 0.054405, , 
41.52, 0.053955, , 
41.55, 0.053615, , 
41.58, 0.053330, 13, 0.585
41.59, 0.053276, , 
41.61, 0.052936, , 
41.64, 0.052540, , 
41.67, 0.052213, , 
41.70, 0.051899, , 
41.73, 0.051544, , 
41.76, 0.051103, , 
41.79, 0.050811, , 
41.82, 0.050497, , 
41.86, 0.050132, , 
41.88, 0.049837, , 
41.91, 0.049622, , 
41.94, 0.049431, , 
41.97, 0.048997, , 
42.00, 0.048772, , 
42.03, 0.048610, , 
42.06, 0.048486, , 
42.09, 0.048280, , 
42.12, 0.048014, , 
42.15, 0.047884, , 
42.18, 0.047601, , 
42.21, 0.047341, , 
42.24, 0.047208, , 
42.27, 0.047049, , 
42.31, 0.046732, , 
42.34, 0.046421, , 
42.36, 0.046345, , 
42.39, 0.046234, , 
42.42, 0.045996, , 
42.45, 0.045749, , 
42.48, 0.045650, , 
42.51, 0.045552, , 
42.54, 0.045333, , 
42.57, 0.045118, , 
42.60, 0.044965, , 
42.63, 0.044988, , 
42.66, 0.044772, , 
42.69, 0.044613, , 
42.72, 0.044563, , 
42.75, 0.044445, , 
42.78, 0.044268, , 
42.81, 0.044112, , 
42.84, 0.044134, , 
42.87, 0.044115, , 
42.90, 0.043931, , 
42.93, 0.043757, , 
42.96, 0.043754, , 
42.99, 0.043706, , 
43.02, 0.043586, , 
43.05, 0.043500, , 
43.08, 0.043582, , 
43.11, 0.043421, , 
43.14, 0.043186, , 
43.17, 0.043084, , 
43.20, 0.043100, , 
43.23, 0.043072, , 
43.26, 0.042986, , 
43.29, 0.042923, , 
43.32, 0.043084, , 
43.35, 0.043126, , 
43.38, 0.043005, , 
43.41, 0.042986, , 
43.44, 0.043126, , 
43.47, 0.043214, , 
43.50, 0.043021, , 
43.53, 0.043040, , 
43.56, 0.043119, , 
43.59, 0.043049, , 
43.62, 0.043011, , 
43.65, 0.043107, , 
43.68, 0.043272, , 
43.71, 0.043392, , 
43.74, 0.043449, , 
43.77, 0.043497, , 
43.80, 0.043589, , 
43.83, 0.043601, , 
43.86, 0.043636, , 
43.90, 0.043928, , 
43.92, 0.044007, , 
43.95, 0.044077, , 
43.98, 0.044242, , 
44.01, 0.044398, , 
44.04, 0.044629, , 
44.07, 0.044721, , 
44.10, 0.044915, , 
44.13, 0.045200, , 
44.16, 0.045352, , 
44.19, 0.045555, , 
44.22, 0.045755, , 
44.25, 0.046114, , 
44.28, 0.046367, , 
44.31, 0.046501, , 
44.34, 0.046767, , 
44.37, 0.047141, , 
44.40, 0.047506, , 
44.43, 0.047731, , 
44.46, 0.048045, , 
44.49, 0.048423, , 
44.52, 0.048867, , 
44.55, 0.049152, , 
44.58, 0.049466, , 
44.61, 0.049955, , 
44.64, 0.050294, , 
44.67, 0.050630, , 
44.70, 0.051293, , 
44.73, 0.051921, , 
44.76, 0.052549, , 
44.79, 0.052752, 14, 0.586
44.79, 0.052835, , 
44.82, 0.053279, , 
44.85, 0.054132, , 
44.88, 0.054630, , 
44.91, 0.055185, , 
44.94, 0.055629, , 
44.97, 0.056391, , 
45.00, 0.056911, , 
45.04, 0.057507, , 
45.06, 0.058107, , 
45.09, 0.058687, , 
45.12, 0.059211, , 
45.15, 0.059785, , 
45.18, 0.060413, , 
45.21, 0.061177, , 
45.24, 0.061615, , 
45.27, 0.062087, , 
45.30, 0.062804, , 
45.33, 0.063524, , 
45.36, 0.064095, , 
45.39, 0.064552, , 
45.42, 0.065148, , 
45.45, 0.065659, , 
45.48, 0.065945, , 
45.51, 0.066398, , 
45.54, 0.066842, , 
45.57, 0.067058, , 
45.60, 0.067432, , 
45.63, 0.067772, , 
45.67, 0.068171, , 
45.69, 0.068349, , 
45.72, 0.068355, , 
45.75, 0.068685, , 
45.78, 0.068853, , 
45.81, 0.068977, , 
45.84, 0.068894, , 
45.87, 0.068920, , 
45.90, 0.069009, , 
45.93, 0.068945, , 
45.96, 0.068695, , 
45.99, 0.068599, , 
46.02, 0.068615, , 
46.05, 0.068431, , 
46.08, 0.068032, , 
46.11, 0.067825, , 
46.14, 0.067546, , 
46.17, 0.067270, , 
46.20, 0.066858, , 
46.23, 0.066496, , 
46.26, 0.066259, , 
46.29, 0.065792, , 
46.32, 0.065351, , 
46.35, 0.065117, , 
46.38, 0.064815, , 
46.41, 0.064248, , 
46.44, 0.063775, , 
46.47, 0.063416, , 
46.50, 0.062931, , 
46.53, 0.062532, , 
46.56, 0.062053, , 
46.59, 0.061612, , 
46.62, 0.061152, , 
46.65, 0.060628, , 
46.68, 0.060172, , 
46.71, 0.059724, , 
46.74, 0.059337, , 
46.77, 0.058766, , 
46.80, 0.058329, , 
46.83, 0.057843, , 
46.86, 0.057418, , 
46.89, 0.056993, , 
46.92, 0.056346, , 
46.95, 0.056077, , 
46.98, 0.055725, , 
47.01, 0.055176, , 
47.04, 0.054792, , 
47.07, 0.054494, , 
47.10, 0.054281, , 
47.13, 0.053837, , 
47.17, 0.053327, , 
47.19, 0.052927, , 
47.22, 0.052549, , 
47.25, 0.052153, , 
47.28, 0.051956, , 
47.31, 0.051576, , 
47.34, 0.051205, , 
47.37, 0.050767, , 
47.40, 0.050500, , 
47.43, 0.050272, , 
47.46, 0.050037, , 
47.49, 0.049622, , 
47.52, 0.049387, , 
47.55, 0.049238, , 
47.58, 0.049025, , 
47.61, 0.048727, , 
47.64, 0.048426, , 
47.67, 0.048267, , 
47.70, 0.048029, , 
47.73, 0.047798, , 
47.76, 0.047719, , 
47.79, 0.047576, , 
47.82, 0.047303, , 
47.86, 0.047157, , 
47.88, 0.046995, , 
47.91, 0.046910, , 
47.94, 0.046846, , 
47.97, 0.046570, , 
47.98, 0.046554, 15, 0.584
48.00, 0.046593, , 
48.03, 0.046681, , 
48.06, 0.046624, , 
48.09, 0.046608, , 
48.12, 0.046646, , 
48.15, 0.046694, , 
48.18, 0.046583, , 
48.21, 0.046516, , 
48.24, 0.046599, , 
48.28, 0.046681, , 
48.30, 0.046631, , 
48.33, 0.046504, , 
48.36, 0.046621, , 
48.39, 0.046770, , 
48.42, 0.046869, , 
48.45, 0.046935, , 
48.48, 0.047024, , 
48.51, 0.047211, , 
48.54, 0.047300, , 
48.57, 0.047528, , 
48.60, 0.047795, , 
48.63, 0.048014, , 
48.66, 0.048213, , 
48.69, 0.048470, , 
48.72, 0.048807, , 
48.75, 0.048918, , 
48.78, 0.049089, , 
48.81, 0.049444, , 
48.84, 0.049933, , 
48.87, 0.050202, , 
48.90, 0.050478, , 
48.93, 0.050824, , 
48.96, 0.051243, , 
48.99, 0.051566, , 
49.02, 0.051994, , 
49.05, 0.052588, , 
49.08, 0.053177, , 
49.11, 0.053438, , 
49.14, 0.053929, , 
49.17, 0.054570, , 
49.20, 0.055214, , 
49.23, 0.055753, , 
49.26, 0.056156, , 
49.30, 0.056793, , 
49.32, 0.057333, , 
49.35, 0.057872, , 
49.38, 0.058427, , 
49.41, 0.058941, , 
49.44, 0.059667, , 
49.47, 0.060153, , 
49.50, 0.060628, , 
49.53, 0.061234, , 
49.56, 0.061837, , 
49.59, 0.062240, , 
49.62, 0.062681, , 
49.65, 0.063334, , 
49.68, 0.063794, , 
49.71, 0.064156, , 
49.74, 0.064565, , 
49.77, 0.065148, , 
49.80, 0.065589, , 
49.83, 0.065865, , 
49.86, 0.066214, , 
49.89, 0.066592, , 
49.92, 0.066757, , 
49.95, 0.066934, , 
49.98, 0.067144, , 
50.01, 0.067461, , 
50.04, 0.067524, , 
50.07, 0.067518, , 
50.10, 0.067591, , 
50.13, 0.067673, , 
50.16, 0.067638, , 
50.19, 0.067569, , 
50.22, 0.067543, , 
50.25, 0.067448, , 
50.28, 0.067204, , 
50.31, 0.067071, , 
50.34, 0.066931, , 
50.37, 0.066712, , 
50.40, 0.066477, , 
50.43, 0.066160, , 
50.46, 0.065957, , 
50.49, 0.065776, , 
50.52, 0.065336, , 
50.55, 0.065110, , 
50.58, 0.064799, , 
50.61, 0.064523, , 
50.64, 0.064111, , 
50.67, 0.063731, , 
50.70, 0.063426, , 
50.73, 0.063049, , 
50.76, 0.062484, , 
50.79, 0.062087, , 
50.82, 0.061548, , 
50.85, 0.061110, , 
50.88, 0.060717, , 
50.91, 0.060105, , 
50.94, 0.059981, , 
50.97, 0.059677, , 
51.00, 0.059239, , 
51.03, 0.058877, , 
51.06, 0.058430, , 
51.09, 0.058018, , 
51.12, 0.057472, , 
51.15, 0.057028, , 
51.18, 0.056832, , 
51.19, 0.056759, 16, 0.587
51.21, 0.056245, , 
51.24, 0.055867, , 
51.27, 0.055601, , 
51.30, 0.055296, , 
51.33, 0.054913, , 
51.36, 0.054633, , 
51.39, 0.054297, , 
51.42, 0.053970, , 
51.45, 0.053615, , 
51.48, 0.053273, , 
51.52, 0.053085, , 
51.54, 0.052914, , 
51.57, 0.052572, , 
51.60, 0.052299, , 
51.63, 0.052112, , 
51.66, 0.051940, , 
51.69, 0.051652, , 
51.73, 0.051442, , 
51.75, 0.051369, , 
51.78, 0.051205, , 
51.81, 0.051030, , 
51.84, 0.050799, , 
51.87, 0.050805, , 
51.90, 0.050789, , 
51.93, 0.050665, , 
51.96, 0.050662, , 
51.99, 0.050773, , 
52.02, 0.050773, , 
52.05, 0.050678, , 
52.08, 0.050665, , 
52.11, 0.050897, , 
52.14, 0.051011, , 
52.17, 0.051081, , 
52.20, 0.051119, , 
52.23, 0.051281, , 
52.26, 0.051408, , 
52.29, 0.051449, , 
52.32, 0.051544, , 
52.35, 0.051867, , 
52.38, 0.051991, , 
52.41, 0.052121, , 
52.44, 0.052359, , 
52.47, 0.052629, , 
52.50, 0.052810, , 
52.53, 0.053006, , 
52.57, 0.053336, , 
52.59, 0.053555, , 
52.62, 0.053894, , 
52.65, 0.054167, , 
52.68, 0.054538, , 
52.71, 0.055071, , 
52.74, 0.055407, , 
52.77, 0.055572, , 
52.80, 0.055953, , 
52.83, 0.056378, , 
52.86, 0.056736, , 
52.89, 0.057187, , 
52.92, 0.057574, , 
52.95, 0.058205, , 
52.98, 0.058503, , 
53.01, 0.058808, , 
53.04, 0.059309, , 
53.07, 0.059445, , 
53.10, 0.059912, , 
53.13, 0.060314, , 
53.16, 0.060625, , 
53.19, 0.061041, , 
53.22, 0.061231, , 
53.25, 0.061637, , 
53.28, 0.061932, , 
53.31, 0.062284, , 
53.34, 0.062497, , 
53.37, 0.062677, , 
53.40, 0.063064, , 
53.43, 0.063331, , 
53.46, 0.063331, , 
53.49, 0.063550, , 
53.52, 0.063743, , 
53.55, 0.063902, , 
53.58, 0.063873, , 
53.61, 0.063956, , 
53.64, 0.064225, , 
53.67, 0.064365, , 
53.70, 0.064362, , 
53.73, 0.064330, , 
53.76, 0.064374, , 
53.79, 0.064260, , 
53.82, 0.064108, , 
53.85, 0.063937, , 
53.89, 0.063895, , 
53.91, 0.063762, , 
53.94, 0.063426, , 
53.97, 0.063470, , 
54.00, 0.063378, , 
54.03, 0.063109, , 
54.06, 0.062827, , 
54.09, 0.062725, , 
54.12, 0.062547, , 
54.15, 0.062379, , 
54.18, 0.062103, , 
54.21, 0.061767, , 
54.24, 0.061577, , 
54.27, 0.061225, , 
54.30, 0.060911, , 
54.33, 0.060720, , 
54.36, 0.060346, , 
54.38, 0.060159, 17, 0.585
54.39, 0.060061, , 
54.42, 0.059785, , 
54.45, 0.059480, , 
54.48, 0.059255, , 
54.51, 0.058998, , 
54.54, 0.058519, , 
54.57, 0.058205, , 
54.60, 0.057926, , 
54.63, 0.057517, , 
54.66, 0.057098, , 
54.69, 0.056901, , 
54.72, 0.056787, , 
54.75, 0.056448, , 
54.78, 0.056054, , 
54.81, 0.055861, , 
54.84, 0.055528, , 
54.87, 0.055198, , 
54.90, 0.054985, , 
54.93, 0.054944, , 
54.97, 0.054814, , 
54.99, 0.054551, , 
55.02, 0.054262, , 
55.05, 0.054135, , 
55.08, 0.053970, , 
55.11, 0.053793, , 
55.14, 0.053634, , 
55.17, 0.053675, , 
55.20, 0.053653, , 
55.23, 0.053561, , 
55.26, 0.053603, , 
55.29, 0.053653, , 
55.32, 0.053669, , 
55.35, 0.053552, , 
55.38, 0.053555, , 
55.41, 0.053653, , 
55.44, 0.053745, , 
55.47, 0.053729, , 
55.50, 0.053948, , 
55.53, 0.054145, , 
55.56, 0.054224, , 
55.59, 0.054345, , 
55.62, 0.054684, , 
55.65, 0.054925, , 
55.68, 0.055065, , 
55.71, 0.055261, , 
55.74, 0.055506, , 
55.77, 0.055855, , 
55.80, 0.056054, , 
55.83, 0.056245, , 
55.86, 0.056549, , 
55.89, 0.056873, , 
55.92, 0.057050, , 
55.95, 0.057403, , 
55.99, 0.057783, , 
56.01, 0.058018, , 
56.04, 0.058230, , 
56.07, 0.058513, , 
56.10, 0.058747, , 
56.13, 0.059223, , 
56.16, 0.059360, , 
56.19, 0.059499, , 
56.22, 0.059905, , 
56.25, 0.060153, , 
56.28, 0.060359, , 
56.31, 0.060524, , 
56.34, 0.060831, , 
56.37, 0.061044, , 
56.40, 0.061107, , 
56.43, 0.061393, , 
56.46, 0.061545, , 
56.49, 0.061523, , 
56.52, 0.061529, , 
56.55, 0.061666, , 
56.58, 0.061935, , 
56.61, 0.062005, , 
56.64, 0.061992, , 
56.67, 0.061989, , 
56.70, 0.062091, , 
56.73, 0.061913, , 
56.76, 0.061713, , 
56.79, 0.061618, , 
56.82, 0.061653, , 
56.85, 0.061685, , 
56.88, 0.061482, , 
56.91, 0.061307, , 
56.94, 0.061250, , 
56.97, 0.061110, , 
57.00, 0.060854, , 
57.03, 0.060749, , 
57.06, 0.060695, , 
57.09, 0.060476, , 
57.12, 0.060226, , 
57.15, 0.060035, , 
57.18, 0.059892, , 
57.21, 0.059696, , 
57.24, 0.059331, , 
57.27, 0.059122, , 
57.30, 0.059115, , 
57.34, 0.059036, , 
57.36, 0.058770, , 
57.39, 0.058510, , 
57.42, 0.058332, , 
57.45, 0.058065, , 
57.48, 0.057802, , 
57.51, 0.057707, , 
57.54, 0.057612, , 
57.57, 0.057345, , 
57.58, 0.057257, 18, 0.586
57.60, 0.057149, , 
57.63, 0.056987, , 
57.66, 0.056908, , 
57.69, 0.056587, , 
57.72, 0.056445, , 
57.75, 0.056362, , 
57.78, 0.056242, , 
57.81, 0.056092, , 
57.84, 0.055788, , 
57.87, 0.055721, , 
57.90, 0.055725, , 
57.93, 0.055633, , 
57.96, 0.055572, , 
57.99, 0.055601, , 
58.02, 0.055614, , 
58.05, 0.055572, , 
58.08, 0.055541, , 
58.11, 0.055503, , 
58.14, 0.055569, , 
58.17, 0.055528, , 
58.20, 0.055636, , 
58.23, 0.055886, , 
58.26, 0.056010, , 
58.29, 0.055975, , 
58.32, 0.056096, , 
58.35, 0.056308, , 
58.38, 0.056384, , 
58.41, 0.056426, , 
58.44, 0.056590, , 
58.47, 0.056828, , 
58.50, 0.056955, , 
58.53, 0.056981, , 
58.56, 0.057136, , 
58.59, 0.057314, , 
58.62, 0.057485, , 
58.65, 0.057510, , 
58.68, 0.057701, , 
58.71, 0.058031, , 
58.74, 0.058183, , 
58.77, 0.058253, , 
58.80, 0.058335, , 
58.83, 0.058630, , 
58.86, 0.058811, , 
58.89, 0.058858, , 
58.92, 0.059042, , 
58.95, 0.059242, , 
58.98, 0.059452, , 
59.01, 0.059521, , 
59.04, 0.059775, , 
59.07, 0.060029, , 
59.10, 0.059988, , 
59.13, 0.059988, , 
59.16, 0.059959, , 
59.19, 0.060080, , 
59.22, 0.060061, , 
59.25, 0.060013, , 
59.28, 0.060000, , 
59.31, 0.060080, , 
59.34, 0.060064, , 
59.37, 0.059981, , 
59.40, 0.059962, , 
59.43, 0.059918, , 
59.46, 0.059740, , 
59.50, 0.059629, , 
59.52, 0.059547, , 
59.55, 0.059372, , 
59.58, 0.059160, , 
59.61, 0.058969, , 
59.64, 0.058852, , 
59.67, 0.058700, , 
59.70, 0.058475, , 
59.73, 0.058307, , 
59.76, 0.058287, , 
59.79, 0.058224, , 
59.83, 0.057992, , 
59.85, 0.057831, , 
59.88, 0.057799, , 
59.91, 0.057647, , 
59.94, 0.057447, , 
59.97, 0.057383, , 
60.00, 0.057317, , 
60.03, 0.057174, , 
60.06, 0.057050, , 
60.09, 0.056844, , 
60.12, 0.056781, , 
60.15, 0.056746, , 
60.18, 0.056641, , 
60.21, 0.056575, , 
60.24, 0.056578, , 
60.27, 0.056543, , 
60.30, 0.056311, , 
60.33, 0.056159, , 
60.36, 0.056219, , 
60.40, 0.056280, , 
60.42, 0.056311, , 
60.45, 0.056362, , 
60.48, 0.056565, , 
60.51, 0.056549, , 
60.54, 0.056578, , 
60.57, 0.056717, , 
60.60, 0.056930, , 
60.63, 0.057050, , 
60.66, 0.057044, , 
60.69, 0.057158, , 
60.72, 0.057364, , 
60.75, 0.057428, , 
60.78, 0.057444, 19, 0.585
60.79, 0.057444, , 
60.81, 0.057504, , 
60.84, 0.057675, , 
60.87, 0.057640, , 
60.90, 0.057520, , 
60.93, 0.057602, , 
60.96, 0.057723, , 
60.99, 0.057644, , 
61.02, 0.057599, , 
61.05, 0.057761, , 
61.08, 0.057989, , 
61.11, 0.058059, , 
61.14, 0.058046, , 
61.17, 0.058072, , 
61.20, 0.058157, , 
61.23, 0.058138, , 
61.26, 0.058069, , 
61.29, 0.058123, , 
61.32, 0.058230, , 
61.35, 0.058186, , 
61.38, 0.058100, , 
61.41, 0.058084, , 
61.44, 0.058126, , 
61.47, 0.058110, , 
61.50, 0.058199, , 
61.53, 0.058230, , 
61.56, 0.058205, , 
61.59, 0.058199, , 
61.62, 0.058123, , 
61.65, 0.058129, , 
61.68, 0.058072, , 
61.71, 0.057796, , 
61.75, 0.057691, , 
61.77, 0.057713, , 
61.80, 0.057726, , 
61.83, 0.057574, , 
61.86, 0.057383, , 
61.89, 0.057364, , 
61.92, 0.057231, , 
61.95, 0.056990, , 
61.98, 0.056787, , 
62.01, 0.056721, , 
62.04, 0.056695, , 
62.07, 0.056568, , 
62.10, 0.056346, , 
62.13, 0.056267, , 
62.16, 0.056121, , 
62.19, 0.055915, , 
62.22, 0.055763, , 
62.25, 0.055715, , 
62.28, 0.055591, , 
62.31, 0.055455, , 
62.34, 0.055208, , 
62.37, 0.055217, , 
62.40, 0.055208, , 
62.43, 0.055147, , 
62.46, 0.055103, , 
62.49, 0.055119, , 
62.52, 0.055160, , 
62.55, 0.055077, , 
62.58, 0.055100, , 
62.61, 0.055119, , 
62.64, 0.055185, , 
62.67, 0.055173, , 
62.70, 0.055223, , 
62.73, 0.055366, , 
62.76, 0.055531, , 
62.79, 0.055544, , 
62.82, 0.055655, , 
62.85, 0.055886, , 
62.88, 0.056013, , 
62.91, 0.056054, , 
62.94, 0.056140, , 
62.97, 0.056321, , 
63.00, 0.056543, , 
63.03, 0.056578, , 
63.06, 0.056663, , 
63.09, 0.056866, , 
63.12, 0.057006, , 
63.15, 0.057006, , 
63.18, 0.056990, , 
63.21, 0.057133, , 
63.24, 0.057177, , 
63.27, 0.057111, , 
63.30, 0.057088, , 
63.33, 0.057161, , 
63.36, 0.057158, , 
63.39, 0.057057, , 
63.42, 0.057047, , 
63.45, 0.057117, , 
63.48, 0.057069, , 
63.51, 0.056809, , 
63.54, 0.056784, , 
63.57, 0.056771, , 
63.60, 0.056676, , 
63.63, 0.056578, , 
63.66, 0.056578, , 
63.69, 0.056486, , 
63.72, 0.056391, , 
63.75, 0.056181, , 
63.78, 0.056131, , 
63.81, 0.056175, , 
63.84, 0.056029, , 
63.88, 0.055896, , 
63.90, 0.055791, , 
63.93, 0.055766, , 
63.96, 0.055690, , 
63.99, 0.055582, 20, 0.587
63.99, 0.055566, , 
64.02, 0.055490, , 
64.05, 0.055458, , 
64.08, 0.055391, , 
64.11, 0.055271, , 
64.14, 0.055268, , 
64.17, 0.055188, , 
64.20, 0.054992, , 
64.23, 0.054852, , 
64.26, 0.054754, , 
64.29, 0.054767, , 
64.32, 0.054678, , 
64.35, 0.054529, , 
64.38, 0.054557, , 
64.41, 0.054564, , 
64.44, 0.054361, , 
64.47, 0.054154, , 
64.50, 0.054110, , 
64.53, 0.054177, , 
64.56, 0.054126, , 
64.59, 0.054021, , 
64.62, 0.054097, , 
64.65, 0.054243, , 
64.68, 0.054278, , 
64.71, 0.054364, , 
64.74, 0.054513, , 
64.77, 0.054548, , 
64.80, 0.054516, , 
64.83, 0.054513, , 
64.86, 0.054583, , 
64.89, 0.054627, , 
64.92, 0.054560, , 
64.95, 0.054529, , 
64.98, 0.054624, , 
65.01, 0.054741, , 
65.04, 0.054741, , 
65.07, 0.054932, , 
65.10, 0.055065, , 
65.14, 0.055077, , 
65.16, 0.055058, , 
65.19, 0.055020, , 
65.22, 0.055027, , 
65.25, 0.055125, , 
65.28, 0.055036, , 
65.31, 0.055014, , 
65.34, 0.055106, , 
65.37, 0.055090, , 
65.40, 0.054821, , 
65.43, 0.054694, , 
65.46, 0.054684, , 
65.49, 0.054640, , 
65.52, 0.054500, , 
65.55, 0.054367, , 
65.58, 0.054243, , 
65.61, 0.054186, , 
65.64, 0.054021, , 
65.67, 0.054031, , 
65.70, 0.054116, , 
65.73, 0.053983, , 
65.76, 0.053818, , 
65.79, 0.053714, , 
65.82, 0.053704, , 
65.85, 0.053644, , 
65.88, 0.053463, , 
65.91, 0.053419, , 
65.94, 0.053346, , 
65.98, 0.053206, , 
66.00, 0.053117, , 
66.03, 0.053098, , 
66.06, 0.053184, , 
66.09, 0.053111, , 
66.12, 0.052949, , 
66.15, 0.052844, , 
66.18, 0.052835, , 
66.21, 0.052794, , 
66.24, 0.052641, , 
66.27, 0.052584, , 
66.30, 0.052683, , 
66.33, 0.052651, , 
66.36, 0.052486, , 
66.39, 0.052400, , 
66.42, 0.052264, , 
66.45, 0.052115, , 
66.48, 0.052064, , 
66.51, 0.052064, , 
66.54, 0.052137, , 
66.57, 0.052112, , 
66.60, 0.052058, , 
66.63, 0.052093, , 
66.66, 0.052156, , 
66.69, 0.052150, , 
66.72, 0.052086, , 
66.75, 0.052166, , 
66.78, 0.052162, , 
66.81, 0.052026, , 
66.84, 0.051845, , 
66.87, 0.051807, , 
66.90, 0.051706, , 
66.93, 0.051617, , 
66.96, 0.051572, , 
66.99, 0.051582, , 
67.02, 0.051519, , 
67.05, 0.051331, , 
67.08, 0.051173, , 
67.11, 0.051179, , 
67.14, 0.051109, , 
67.17, 0.050973, , 
67.18, 0.050900, 21, 0.585
67.20, 0.050865, , 
67.23, 0.050814, , 
67.26, 0.050770, , 
67.29, 0.050694, , 
67.32, 0.050627, , 
67.35, 0.050630, , 
67.38, 0.050523, , 
67.41, 0.050370, , 
67.44, 0.050218, , 
67.47, 0.050256, , 
67.50, 0.050107, , 
67.53, 0.050082, , 
67.56, 0.050088, , 
67.59, 0.050101, , 
67.62, 0.050037, , 
67.65, 0.049739, , 
67.68, 0.049720, , 
67.72, 0.049723, , 
67.74, 0.049669, , 
67.77, 0.049536, , 
67.80, 0.049450, , 
67.83, 0.049393, , 
67.86, 0.049279, , 
67.89, 0.049121, , 
67.92, 0.049013, , 
67.95, 0.048984, , 
67.98, 0.048822, , 
68.01, 0.048667, , 
68.04, 0.048578, , 
68.07, 0.048619, , 
68.10, 0.048642, , 
68.13, 0.048515, , 
68.16, 0.048375, , 
68.19, 0.048309, , 
68.22, 0.048236, , 
68.25, 0.048093, , 
68.28, 0.048001, , 
68.31, 0.047972, , 
68.34, 0.047839, , 
68.37, 0.047715, , 
68.40, 0.047633, , 
68.43, 0.047633, , 
68.46, 0.047465, , 
68.49, 0.047259, , 
68.52, 0.047157, , 
68.55, 0.047208, , 
68.58, 0.047154, , 
68.61, 0.047075, , 
68.64, 0.047033, , 
68.67, 0.046973, , 
68.70, 0.046757, , 
68.73, 0.046548, , 
68.76, 0.046561, , 
68.79, 0.046605, , 
68.82, 0.046466, , 
68.85, 0.046259, , 
68.88, 0.046234, , 
68.91, 0.046218, , 
68.94, 0.046117, , 
68.97, 0.046031, , 
69.00, 0.046015, , 
69.03, 0.045911, , 
69.06, 0.045730, , 
69.09, 0.045641, , 
69.12, 0.045619, , 
69.15, 0.045590, , 
69.18, 0.045425, , 
69.21, 0.045330, , 
69.24, 0.045289, , 
69.27, 0.045168, , 
69.30, 0.045095, , 
69.33, 0.045067, , 
69.36, 0.045114, , 
69.39, 0.045089, , 
69.42, 0.045000, , 
69.45, 0.044997, , 
69.48, 0.045054, , 
69.51, 0.044949, , 
69.54, 0.044778, , 
69.57, 0.044632, , 
69.60, 0.044613, , 
69.63, 0.044601, , 
69.66, 0.044426, , 
69.69, 0.044204, , 
69.72, 0.044160, , 
69.76, 0.044036, , 
69.78, 0.043852, , 
69.81, 0.043763, , 
69.84, 0.043643, , 
69.87, 0.043465, , 
69.90, 0.043199, , 
69.93, 0.043224, , 
69.96, 0.043176, , 
69.99, 0.043081, , 
70.02, 0.042919, , 
70.05, 0.042783, , 
70.08, 0.042767, , 
70.11, 0.042701, , 
70.14, 0.042507, , 
70.17, 0.042536, , 
70.20, 0.042564, , 
70.23, 0.042421, , 
70.26, 0.042228, , 
70.29, 0.042092, , 
70.32, 0.042111, , 
70.35, 0.041965, , 
70.38, 0.041879, 22, 0.585
70.38, 0.041866, , 
70.41, 0.041930, , 
70.44, 0.041892, , 
70.47, 0.041714, , 
70.50, 0.041578, , 
70.53, 0.041670, , 
70.56, 0.041632, , 
70.59, 0.041505, , 
70.62, 0.041324, , 
70.65, 0.041321, , 
70.68, 0.041276, , 
70.71, 0.041083, , 
70.74, 0.041004, , 
70.77, 0.041077, , 
70.80, 0.040931, , 
70.83, 0.040712, , 
70.86, 0.040569, , 
70.89, 0.040604, , 
70.92, 0.040585, , 
70.95, 0.040429, , 
70.98, 0.040369, , 
71.01, 0.040582, , 
71.04, 0.040607, , 
71.07, 0.040493, , 
71.10, 0.040150, , 
71.13, 0.040096, , 
71.16, 0.040046, , 
71.19, 0.039916, , 
71.22, 0.039919, , 
71.25, 0.040004, , 
71.28, 0.040001, , 
71.31, 0.039960, , 
71.34, 0.039998, , 
71.37, 0.040100, , 
71.40, 0.040014, , 
71.43, 0.039890, , 
71.46, 0.039763, , 
71.49, 0.039713, , 
71.52, 0.039573, , 
71.55, 0.039399, , 
71.58, 0.039411, , 
71.61, 0.039433, , 
71.64, 0.039250, , 
71.67, 0.039075, , 
71.70, 0.039075, , 
71.73, 0.039043, , 
71.76, 0.038901, , 
71.79, 0.038653, , 
71.82, 0.038596, , 
71.85, 0.038536, , 
71.88, 0.038425, , 
71.91, 0.038320, , 
71.94, 0.038393, , 
71.97, 0.038393, , 
72.00, 0.038355, , 
72.03, 0.038342, , 
72.06, 0.038460, , 
72.09, 0.038514, , 
72.12, 0.038393, , 
72.15, 0.038352, , 
72.18, 0.038374, , 
72.21, 0.038431, , 
72.24, 0.038355, , 
72.27, 0.038352, , 
72.31, 0.038349, , 
72.33, 0.038460, , 
72.36, 0.038396, , 
72.39, 0.038314, , 
72.42, 0.038403, , 
72.45, 0.038396, , 
72.48, 0.038165, , 
72.51, 0.038054, , 
72.54, 0.038000, , 
72.57, 0.037990, , 
72.60, 0.037762, , 
72.63, 0.037683, , 
72.66, 0.037610, , 
72.69, 0.037587, , 
72.72, 0.037410, , 
72.75, 0.037327, , 
72.78, 0.037324, , 
72.81, 0.037175, , 
72.84, 0.036963, , 
72.87, 0.036874, , 
72.90, 0.036775, , 
72.93, 0.036601, , 
72.96, 0.036382, , 
72.99, 0.036258, , 
73.02, 0.036135, , 
73.05, 0.035989, , 
73.08, 0.035786, , 
73.11, 0.035830, , 
73.14, 0.035897, , 
73.17, 0.035875, , 
73.20, 0.035814, , 
73.23, 0.035779, , 
73.26, 0.035678, , 
73.29, 0.035513, , 
73.32, 0.035383, , 
73.35, 0.035396, , 
73.38, 0.035266, , 
73.41, 0.035294, , 
73.44, 0.035310, , 
73.47, 0.035440, , 
73.50, 0.035475, , 
73.53, 0.035392, , 
73.56, 0.035319, , 
73.59, 0.035288, 23, 0.588
73.59, 0.035281, , 
73.62, 0.035297, , 
73.65, 0.035126, , 
73.68, 0.034990, , 
73.71, 0.034917, , 
73.74, 0.034948, , 
73.77, 0.034910, , 
73.80, 0.034774, , 
73.83, 0.034853, , 
73.86, 0.034758, , 
73.89, 0.034565, , 
73.92, 0.034438, , 
73.95, 0.034457, , 
73.98, 0.034482, , 
74.01, 0.034355, , 
74.04, 0.034266, , 
74.07, 0.034352, , 
74.10, 0.034282, , 
74.13, 0.034146, , 
74.16, 0.034187, , 
74.19, 0.034159, , 
74.23, 0.034009, , 
74.25, 0.033848, , 
74.28, 0.033841, , 
74.31, 0.033952, , 
74.34, 0.033870, , 
74.37, 0.033749, , 
74.40, 0.033645, , 
74.43, 0.033648, , 
74.46, 0.033502, , 
74.49, 0.033343, , 
74.52, 0.033350, , 
74.55, 0.033429, , 
74.58, 0.033448, , 
74.61, 0.033280, , 
74.64, 0.033109, , 
74.67, 0.033045, , 
74.70, 0.032979, , 
74.73, 0.032864, , 
74.76, 0.032880, , 
74.79, 0.032915, , 
74.82, 0.032833, , 
74.85, 0.032782, , 
74.88, 0.032934, , 
74.91, 0.032928, , 
74.94, 0.032785, , 
74.97, 0.032595, , 
75.00, 0.032471, , 
75.03, 0.032557, , 
75.06, 0.032487, , 
75.09, 0.032290, , 
75.12, 0.032319, , 
75.15, 0.032382, , 
75.18, 0.032306, , 
75.21, 0.032268, , 
75.24, 0.032319, , 
75.27, 0.032224, , 
75.30, 0.032240, , 
75.33, 0.032319, , 
75.36, 0.032414, , 
75.39, 0.032414, , 
75.42, 0.032312, , 
75.45, 0.032160, , 
75.48, 0.032103, , 
75.51, 0.031938, , 
75.54, 0.031767, , 
75.57, 0.031843, , 
75.60, 0.031929, , 
75.63, 0.031878, , 
75.66, 0.031665, , 
75.69, 0.031558, , 
75.72, 0.031516, , 
75.75, 0.031367, , 
75.78, 0.031256, , 
75.81, 0.031218, , 
75.85, 0.031136, , 
75.87, 0.031009, , 
75.90, 0.030857, , 
75.93, 0.030784, , 
75.96, 0.030857, , 
75.99, 0.030809, , 
76.02, 0.030701, , 
76.05, 0.030720, , 
76.08, 0.030749, , 
76.11, 0.030711, , 
76.14, 0.030619, , 
76.17, 0.030558, , 
76.20, 0.030511, , 
76.23, 0.030343, , 
76.26, 0.030225, , 
76.29, 0.030365, , 
76.32, 0.030321, , 
76.35, 0.030206, , 
76.38, 0.030013, , 
76.41, 0.029883, , 
76.44, 0.029915, , 
76.48, 0.029816, , 
76.50, 0.029689, , 
76.53, 0.029702, , 
76.56, 0.029629, , 
76.59, 0.029461, , 
76.62, 0.029328, , 
76.65, 0.029385, , 
76.68, 0.029359, , 
76.71, 0.029264, , 
76.74, 0.029191, , 
76.77, 0.029223, , 
76.78, 0.029242, 24, 0.585
76.80, 0.029264, , 
76.83, 0.029115, , 
76.86, 0.028979, , 
76.89, 0.028944, , 
76.92, 0.028928, , 
76.95, 0.028747, , 
76.98, 0.028646, , 
77.01, 0.028741, , 
77.04, 0.028839, , 
77.07, 0.028766, , 
77.10, 0.028716, , 
77.13, 0.028709, , 
77.16, 0.028639, , 
77.19, 0.028411, , 
77.22, 0.028233, , 
77.25, 0.028287, , 
77.28, 0.028265, , 
77.31, 0.028164, , 
77.34, 0.028268, , 
77.37, 0.028306, , 
77.40, 0.028354, , 
77.43, 0.028237, , 
77.46, 0.028224, , 
77.49, 0.028170, , 
77.52, 0.028049, , 
77.55, 0.027850, , 
77.58, 0.027821, , 
77.61, 0.027865, , 
77.64, 0.027824, , 
77.67, 0.027773, , 
77.70, 0.027739, , 
77.73, 0.027742, , 
77.76, 0.027640, , 
77.79, 0.027561, , 
77.82, 0.027434, , 
77.85, 0.027463, , 
77.88, 0.027355, , 
77.91, 0.027253, , 
77.94, 0.027342, , 
77.97, 0.027409, , 
78.00, 0.027326, , 
78.04, 0.027218, , 
78.06, 0.027285, , 
78.09, 0.027298, , 
78.12, 0.027218, , 
78.15, 0.027066, , 
78.18, 0.027044, , 
78.21, 0.027019, , 
78.24, 0.026866, , 
78.27, 0.026838, , 
78.30, 0.026879, , 
78.33, 0.026822, , 
78.36, 0.026708, , 
78.39, 0.026660, , 
78.42, 0.026701, , 
78.45, 0.026587, , 
78.48, 0.026413, , 
78.51, 0.026289, , 
78.54, 0.026337, , 
78.57, 0.026346, , 
78.60, 0.026286, , 
78.63, 0.026295, , 
78.67, 0.026343, , 
78.69, 0.026156, , 
78.72, 0.025943, , 
78.76, 0.025854, , 
78.78, 0.025956, , 
78.81, 0.025931, , 
78.84, 0.025769, , 
78.87, 0.025772, , 
78.90, 0.025893, , 
78.93, 0.025902, , 
78.96, 0.025845, , 
78.99, 0.025769, , 
79.02, 0.025724, , 
79.05, 0.025582, , 
79.08, 0.025448, , 
79.11, 0.025420, , 
79.14, 0.025410, , 
79.17, 0.025280, , 
79.20, 0.025233, , 
79.23, 0.025385, , 
79.26, 0.025398, , 
79.29, 0.025347, , 
79.32, 0.025303, , 
79.35, 0.025464, , 
79.39, 0.025486, , 
79.41, 0.025366, , 
79.44, 0.025198, , 
79.47, 0.025138, , 
79.50, 0.025150, , 
79.53, 0.025052, , 
79.56, 0.024941, , 
79.59, 0.024890, , 
79.62, 0.024938, , 
79.65, 0.024925, , 
79.68, 0.024779, , 
79.71, 0.024747, , 
79.74, 0.024681, , 
79.77, 0.024582, , 
79.81, 0.024484, , 
79.83, 0.024573, , 
79.86, 0.024582, , 
79.89, 0.024506, , 
79.92, 0.024535, , 
79.95, 0.024592, , 
79.97, 0.024674, 25, 0.584
79.98, 0.024640, , 
80.01, 0.024573, , 
80.04, 0.024541, , 
80.07, 0.024614, , 
80.10, 0.024598, , 
80.13, 0.024354, , 
80.16, 0.024316, , 
80.19, 0.024326, , 
80.23, 0.024221, , 
80.25, 0.024040, , 
80.28, 0.023945, , 
80.31, 0.023878, , 
80.34, 0.023732, , 
80.37, 0.023507, , 
80.40, 0.023485, , 
80.43, 0.023628, , 
80.46, 0.023637, , 
80.49, 0.023523, , 
80.52, 0.023447, , 
80.55, 0.023406, , 
80.58, 0.023295, , 
80.61, 0.023101, , 
80.64, 0.023136, , 
80.67, 0.023168, , 
80.70, 0.023038, , 
80.73, 0.023047, , 
80.76, 0.023069, , 
80.79, 0.023114, , 
80.82, 0.022930, , 
80.85, 0.022971, , 
80.88, 0.023035, , 
80.91, 0.023031, , 
80.94, 0.022977, , 
80.97, 0.022977, , 
81.00, 0.023003, , 
81.03, 0.022898, , 
81.06, 0.022755, , 
81.09, 0.022584, , 
81.12, 0.022651, , 
81.15, 0.022584, , 
81.18, 0.022486, , 
81.21, 0.022394, , 
81.24, 0.022460, , 
81.27, 0.022518, , 
81.30, 0.022359, , 
81.33, 0.022242, , 
81.36, 0.022185, , 
81.40, 0.022077, , 
81.42, 0.021940, , 
81.45, 0.021867, , 
81.48, 0.021940, , 
81.51, 0.021947, , 
81.54, 0.021893, , 
81.57, 0.021915, , 
81.60, 0.021934, , 
81.63, 0.021864, , 
81.66, 0.021598, , 
81.69, 0.021490, , 
81.72, 0.021588, , 
81.75, 0.021464, , 
81.78, 0.021379, , 
81.81, 0.021385, , 
81.84, 0.021439, , 
81.87, 0.021350, , 
81.90, 0.021268, , 
81.93, 0.021271, , 
81.96, 0.021433, , 
81.99, 0.021474, , 
82.02, 0.021277, , 
82.05, 0.020986, , 
82.08, 0.020944, , 
82.11, 0.020878, , 
82.14, 0.020875, , 
82.17, 0.020849, , 
82.20, 0.020843, , 
82.23, 0.020821, , 
82.26, 0.020754, , 
82.29, 0.020656, , 
82.32, 0.020583, , 
82.35, 0.020437, , 
82.38, 0.020326, , 
82.41, 0.020323, , 
82.44, 0.020364, , 
82.47, 0.020304, , 
82.50, 0.020250, , 
82.53, 0.020278, , 
82.56, 0.020364, , 
82.59, 0.020218, , 
82.62, 0.020256, , 
82.65, 0.020269, , 
82.68, 0.020345, , 
82.71, 0.020342, , 
82.74, 0.020250, , 
82.77, 0.020392, , 
82.80, 0.020424, , 
82.83, 0.020113, , 
82.86, 0.020075, , 
82.89, 0.019993, , 
82.92, 0.019917, , 
82.95, 0.019802, , 
82.98, 0.019720, , 
83.01, 0.019748, , 
83.04, 0.019793, , 
83.07, 0.019761, , 
83.10, 0.019767, , 
83.13, 0.019831, , 
83.16, 0.019939, , 
83.18, 0.019891, 26, 0.587
83.19, 0.019850, , 
83.22, 0.019748, , 
83.25, 0.019869, , 
83.28, 0.019980, , 
83.31, 0.019853, , 
83.34, 0.019799, , 
83.37, 0.019932, , 
83.40, 0.019777, , 
83.44, 0.019767, , 
83.46, 0.019888, , 
83.49, 0.019948, , 
83.52, 0.019882, , 
83.55, 0.019828, , 
83.58, 0.019809, , 
83.61, 0.019875, , 
83.64, 0.019885, , 
83.67, 0.019793, , 
83.70, 0.019885, , 
83.73, 0.019980, , 
83.76, 0.019907, , 
83.79, 0.019758, , 
83.82, 0.019790, , 
83.85, 0.019840, , 
83.88, 0.019831, , 
83.91, 0.019752, , 
83.94, 0.019739, , 
83.97, 0.019888, , 
84.00, 0.019856, , 
84.03, 0.019834, , 
84.06, 0.019806, , 
84.09, 0.019828, , 
84.12, 0.019840, , 
84.15, 0.019774, , 
84.18, 0.019796, , 
84.21, 0.019898, , 
84.24, 0.019859, , 
84.27, 0.019796, , 
84.30, 0.019840, , 
84.33, 0.019964, , 
84.36, 0.019951, , 
84.39, 0.019790, , 
84.42, 0.019809, , 
84.45, 0.019891, , 
84.48, 0.019818, , 
84.51, 0.019679, , 
84.54, 0.019679, , 
84.57, 0.019837, , 
84.60, 0.019863, , 
84.63, 0.019780, , 
84.66, 0.019783, , 
84.69, 0.019806, , 
84.72, 0.019707, , 
84.75, 0.019733, , 
84.78, 0.019812, , 
84.81, 0.019863, , 
84.84, 0.019780, , 
84.87, 0.019821, , 
84.90, 0.019882, , 
84.93, 0.019961, , 
84.96, 0.019923, , 
84.99, 0.019688, , 
85.02, 0.019831, , 
85.05, 0.019961, , 
85.08, 0.019913, , 
85.11, 0.019736, , 
85.14, 0.019783, , 
85.17, 0.019714, , 
85.20, 0.019466, , 
85.23, 0.019206, , 
85.26, 0.019203, , 
85.29, 0.019292, , 
85.32, 0.019193, , 
85.35, 0.019101, , 
85.38, 0.019219, , 
85.41, 0.019231, , 
85.44, 0.019158, , 
85.47, 0.019178, , 
85.50, 0.019266, , 
85.53, 0.019266, , 
85.56, 0.019139, , 
85.59, 0.019193, , 
85.62, 0.019257, , 
85.65, 0.019241, , 
85.68, 0.019149, , 
85.71, 0.019120, , 
85.74, 0.019206, , 
85.77, 0.019250, , 
85.80, 0.019136, , 
85.83, 0.019219, , 
85.86, 0.019298, , 
85.89, 0.019247, , 
85.92, 0.019209, , 
85.95, 0.019263, , 
85.98, 0.019317, , 
86.01, 0.019263, , 
86.04, 0.019174, , 
86.07, 0.019139, , 
86.10, 0.019241, , 
86.13, 0.019231, , 
86.16, 0.019136, , 
86.19, 0.019152, , 
86.22, 0.019333, , 
86.25, 0.019393, , 
86.28, 0.019289, , 
86.31, 0.019190, , 
86.34, 0.019070, , 
86.37, 0.019000, , 
86.38, 0.018924, 27, 0.586
86.40, 0.018857, , 
86.43, 0.018651, , 
86.46, 0.018746, , 
86.49, 0.018803, , 
86.52, 0.018654, , 
86.55, 0.018733, , 
86.58, 0.018806, , 
86.61, 0.018829, , 
86.64, 0.018952, , 
86.67, 0.019190, , 
86.70, 0.019282, , 
86.73, 0.019279, , 
86.76, 0.019127, , 
86.79, 0.019133, , 
86.82, 0.019330, , 
86.85, 0.019308, , 
86.88, 0.019244, , 
86.91, 0.019292, , 
86.94, 0.019270, , 
86.98, 0.019216, , 
87.00, 0.019209, , 
87.03, 0.019190, , 
87.06, 0.019222, , 
87.09, 0.019260, , 
87.12, 0.019108, , 
87.15, 0.019047, , 
87.18, 0.018990, , 
87.21, 0.018797, , 
87.24, 0.018730, , 
87.27, 0.018768, , 
87.30, 0.018863, , 
87.33, 0.018746, , 
87.36, 0.018708, , 
87.39, 0.018708, , 
87.42, 0.018740, , 
87.45, 0.018727, , 
87.48, 0.018578, , 
87.51, 0.018632, , 
87.54, 0.018733, , 
87.57, 0.018683, , 
87.60, 0.018546, , 
87.63, 0.018524, , 
87.66, 0.018638, , 
87.69, 0.018388, , 
87.72, 0.018239, , 
87.75, 0.018283, , 
87.78, 0.018258, , 
87.81, 0.018207, , 
87.84, 0.018156, , 
87.87, 0.018251, , 
87.90, 0.018270, , 
87.93, 0.018166, , 
87.96, 0.018166, , 
87.99, 0.018254, , 
88.02, 0.018280, , 
88.05, 0.018178, , 
88.08, 0.018172, , 
88.11, 0.018201, , 
88.14, 0.018162, , 
88.17, 0.018169, , 
88.20, 0.018178, , 
88.23, 0.018235, , 
88.26, 0.018229, , 
88.29, 0.018099, , 
88.32, 0.018121, , 
88.35, 0.018235, , 
88.38, 0.018302, , 
88.41, 0.018210, , 
88.44, 0.018071, , 
88.47, 0.018201, , 
88.50, 0.018191, , 
88.53, 0.018093, , 
88.56, 0.018099, , 
88.59, 0.018169, , 
88.62, 0.018188, , 
88.65, 0.018128, , 
88.68, 0.018216, , 
88.72, 0.018226, , 
88.74, 0.018197, , 
88.77, 0.018118, , 
88.80, 0.018147, , 
88.83, 0.018229, , 
88.86, 0.018213, , 
88.89, 0.018150, , 
88.92, 0.018299, , 
88.95, 0.018499, , 
88.98, 0.018518, , 
89.01, 0.018540, , 
89.04, 0.018676, , 
89.07, 0.018759, , 
89.10, 0.018689, , 
89.13, 0.018670, , 
89.16, 0.018762, , 
89.19, 0.018898, , 
89.22, 0.019022, , 
89.25, 0.019035, , 
89.28, 0.019301, , 
89.31, 0.019396, , 
89.34, 0.019292, , 
89.37, 0.019187, , 
89.40, 0.019209, , 
89.43, 0.019270, , 
89.46, 0.019257, , 
89.49, 0.019225, , 
89.52, 0.019301, , 
89.55, 0.019327, , 
89.58, 0.019216, , 
89.61, 0.019028, , 
89.64, 0.018994, , 
89.67, 0.018905, , 
89.70, 0.018768, , 
89.73, 0.018711, , 
89.76, 0.018733, , 
89.79, 0.018819, , 
89.82, 0.018772, , 
89.85, 0.018787, , 
89.88, 0.018854, , 
89.92, 0.018825, , 
89.94, 0.018775, , 
89.97, 0.018692, , 
90.00, 0.018800, , 
90.03, 0.018695, , 
90.06, 0.018515, , 
90.09, 0.018562, , 
90.12, 0.018562, , 
90.15, 0.018413, , 
90.18, 0.018305, , 
90.21, 0.018299, , 
90.24, 0.018321, , 
90.27, 0.018289, , 
90.30, 0.018258, , 
90.33, 0.018229, , 
90.36, 0.018324, , 
90.39, 0.018321, , 
90.42, 0.018213, , 
90.45, 0.018270, , 
90.48, 0.018359, , 
90.51, 0.018277, , 
90.54, 0.018232, , 
90.57, 0.018267, , 
90.60, 0.018261, , 
90.63, 0.018366, , 
90.66, 0.018239, , 
90.69, 0.018153, , 
90.72, 0.018226, , 
90.75, 0.018261, , 
90.78, 0.018201, , 
90.81, 0.018264, , 
90.84, 0.018334, , 
90.87, 0.018235, , 
90.90, 0.018118, , 
90.93, 0.018201, , 
90.96, 0.018296, , 
90.99, 0.018293, , 
91.02, 0.018147, , 
91.05, 0.018191, , 
91.08, 0.018258, , 
91.11, 0.018159, , 
91.14, 0.018077, , 
91.17, 0.018188, , 
91.20, 0.018239, , 
91.23, 0.018197, , 
91.26, 0.018134, , 
91.29, 0.018248, , 
91.32, 0.018331, , 
91.35, 0.018191, , 
91.38, 0.018090, , 
91.41, 0.018235, , 
91.44, 0.018245, , 
91.47, 0.018109, , 
91.50, 0.018061, , 
91.53, 0.018226, , 
91.56, 0.018334, , 
91.59, 0.018267, , 
91.62, 0.018153, , 
91.65, 0.018293, , 
91.68, 0.018261, , 
91.71, 0.018223, , 
91.74, 0.018131, , 
91.77, 0.018194, , 
91.80, 0.018245, , 
91.83, 0.018115, , 
91.86, 0.018162, , 
91.89, 0.018315, , 
91.92, 0.018315, , 
91.95, 0.018213, , 
91.98, 0.018210, , 
92.01, 0.018235, , 
92.04, 0.018254, , 
92.07, 0.018178, , 
92.10, 0.018159, , 
92.13, 0.018251, , 
92.16, 0.018267, , 
92.19, 0.018042, , 
92.22, 0.018207, , 
92.25, 0.018318, , 
92.29, 0.018251, , 
92.31, 0.018261, , 
92.34, 0.018242, , 
92.37, 0.018286, , 
92.40, 0.018251, , 
92.43, 0.018147, , 
92.46, 0.018166, , 
92.49, 0.018280, , 
92.52, 0.018169, , 
92.55, 0.018086, , 
92.58, 0.018182, , 
92.61, 0.018258, , 
92.64, 0.018239, , 
92.67, 0.018210, , 
92.70, 0.018293, , 
92.73, 0.018334, , 
92.76, 0.018235, , 
92.79, 0.018150, , 
92.82, 0.018169, , 
92.85, 0.018242, , 
92.88, 0.018286, , 
92.91, 0.018147, , 
92.94, 0.018274, , 
92.97, 0.018324, , 
93.00, 0.018264, , 
93.03, 0.018074, , 
93.06, 0.018118, , 
93.09, 0.018366, , 
93.12, 0.018299, , 
93.15, 0.018143, , 
93.18, 0.018318, , 
93.21, 0.018264, , 
93.24, 0.018226, , 
93.27, 0.018226, , 
93.30, 0.018277, , 
93.33, 0.018350, , 
93.36, 0.018264, , 
93.39, 0.018134, , 
93.42, 0.018254, , 
93.45, 0.018267, , 
93.48, 0.018201, , 
93.51, 0.018204, , 
93.54, 0.018248, , 
93.57, 0.018229, , 
93.60, 0.018115, , 
93.63, 0.018280, , 
93.66, 0.018353, , 
93.69, 0.018197, , 
93.72, 0.018124, , 
93.75, 0.018039, , 
93.78, 0.018048, , 
93.81, 0.018239, , 
93.84, 0.018156, , 
93.87, 0.018090, , 
93.90, 0.018270, , 
93.93, 0.018213, , 
93.96, 0.018162, , 
93.99, 0.018143, , 
94.02, 0.018245, , 
94.05, 0.018280, , 
94.08, 0.018220, , 
94.11, 0.018213, , 
94.14, 0.018188, , 
94.17, 0.018178, , 
94.20, 0.018124, , 
94.23, 0.018162, , 
94.26, 0.018362, , 
94.29, 0.018305, , 
94.32, 0.018150, , 
94.35, 0.018086, , 
94.38, 0.018153, , 
94.41, 0.018175, , 
94.44, 0.018115, , 
94.47, 0.018048, , 
94.50, 0.018001, , 
94.53, 0.018001, , 
94.56, 0.018051, , 
94.59, 0.018194, , 
94.62, 0.018248, , 
94.65, 0.018210, , 
94.68, 0.018226, , 
94.71, 0.018254, , 
94.74, 0.018337, , 
94.77, 0.018308, , 
94.80, 0.018128, , 
94.83, 0.018213, , 
94.86, 0.018156, , 
94.89, 0.018051, , 
94.92, 0.018083, , 
94.95, 0.018172, , 
94.98, 0.018150, , 
95.01, 0.018071, , 
95.04, 0.018036, , 
95.07, 0.018112, , 
95.10, 0.018201, , 
95.13, 0.018153, , 
95.16, 0.018131, , 
95.19, 0.018318, , 
95.22, 0.018226, , 
95.25, 0.018150, , 
95.28, 0.018175, , 
95.31, 0.018248, , 
95.34, 0.018229, , 
95.38, 0.018150, , 
95.40, 0.018143, , 
95.43, 0.018254, , 
95.46, 0.018346, , 
95.49, 0.018153, , 
95.52, 0.018071, , 
95.55, 0.018226, , 
95.58, 0.018112, , 
95.61, 0.018077, , 
95.64, 0.018102, , 
95.67, 0.018147, , 
95.70, 0.018188, , 
95.73, 0.018039, , 
95.76, 0.018099, , 
95.79, 0.018245, , 
95.82, 0.018261, , 
95.85, 0.018226, , 
95.88, 0.018299, , 
95.92, 0.018353, , 
95.94, 0.018239, , 
95.97, 0.018121, , 
96.00, 0.018242, , 
