Gradient Profiler Text Data File: 2025_1_28_C3_SH.csv
Date: 2025-01-28
Time: 17:53:28

User: Jared
Experiment name: 
UV Unit: EM-1
Rotor Manufacturer: Beckman
Rotor Model: SW28.1
Speed: 28 rpm
Gradient: sucrose 10.0% to 50.0% w/v
Time: 4
w2t:  x 10^0
Sample Volume: 18 ml
Number of Tubes: 6
Volume per mm: 0.183 ml/mm

Absorbance Units Full Scale (AUFS): 2.00
Event Mark-triggered gradient; (with distance; auto start and stop)
Delay: No Delay
UV Wavelength: 254 nm
Samples / sec: 10 Hz
EM1 Speed: 0.30 mm/sec
Distance: 3.20 mm
Number: 30
Dead Volume: 0.000000 ml; Distance due to Dead Volume: 0.00 mm
Total Distance: 96.00 mm

Data Columns:
Distance(mm), Absorbance, Fraction Number, Fraction Volume(ml)
0.00, 0.072491, 0, 0.000
0.03, 0.072463, , 
0.06, 0.072482, , 
0.09, 0.072488, , 
0.12, 0.072418, , 
0.15, 0.072355, , 
0.18, 0.072418, , 
0.21, 0.072463, , 
0.24, 0.072425, , 
0.27, 0.072358, , 
0.30, 0.072485, , 
0.33, 0.072361, , 
0.36, 0.072276, , 
0.39, 0.072365, , 
0.42, 0.072463, , 
0.45, 0.072349, , 
0.48, 0.072200, , 
0.51, 0.072114, , 
0.54, 0.072082, , 
0.57, 0.071978, , 
0.60, 0.071952, , 
0.63, 0.071936, , 
0.66, 0.071962, , 
0.69, 0.071901, , 
0.72, 0.071822, , 
0.75, 0.071917, , 
0.78, 0.072063, , 
0.81, 0.073313, , 
0.84, 0.079466, , 
0.87, 0.098022, , 
0.90, 0.137002, , 
0.93, 0.198179, , 
0.96, 0.291479, , 
0.99, 0.383404, , 
1.02, 0.498273, , 
1.05, 0.599581, , 
1.08, 0.702222, , 
1.11, 0.804828, , 
1.14, 0.907056, , 
1.17, 1.025461, , 
1.20, 1.126519, , 
1.23, 1.244442, , 
1.26, 1.345573, , 
1.29, 1.429829, , 
1.32, 1.547996, , 
1.35, 1.647522, , 
1.38, 1.755393, , 
1.41, 1.831653, , 
1.44, 1.886740, , 
1.47, 1.926186, , 
1.50, 1.944133, , 
1.53, 1.952107, , 
1.56, 1.957211, , 
1.59, 1.959000, , 
1.62, 1.960059, , 
1.65, 1.961556, , 
1.68, 1.963815, , 
1.71, 1.966682, , 
1.74, 1.970457, , 
1.77, 1.973930, , 
1.80, 1.977584, , 
1.83, 1.981197, , 
1.87, 1.985108, , 
1.89, 1.988178, , 
1.92, 1.991157, , 
1.95, 1.994348, , 
1.98, 1.996463, , 
2.01, 1.999010, , 
2.04, 2.001136, , 
2.07, 2.003083, , 
2.10, 2.005091, , 
2.13, 2.006645, , 
2.16, 2.008437, , 
2.19, 2.009532, , 
2.22, 2.010639, , 
2.25, 2.011803, , 
2.28, 2.012694, , 
2.31, 2.013551, , 
2.34, 2.013944, , 
2.37, 2.014271, , 
2.40, 2.014489, , 
2.43, 2.014464, , 
2.46, 2.014166, , 
2.49, 2.013769, , 
2.52, 2.013370, , 
2.55, 2.012685, , 
2.58, 2.011460, , 
2.61, 2.010185, , 
2.64, 2.008815, , 
2.67, 2.006997, , 
2.70, 2.005367, , 
2.73, 2.002921, , 
2.76, 2.000641, , 
2.79, 1.998163, , 
2.82, 1.995166, , 
2.85, 1.991642, , 
2.88, 1.988327, , 
2.91, 1.984007, , 
2.94, 1.979925, , 
2.97, 1.975674, , 
3.00, 1.971281, , 
3.03, 1.966536, , 
3.06, 1.960506, , 
3.09, 1.955158, , 
3.12, 1.949611, , 
3.15, 1.942680, , 
3.18, 1.936390, 1, 0.582
3.19, 1.935315, , 
3.21, 1.929849, , 
3.24, 1.923027, , 
3.27, 1.915788, , 
3.30, 1.907059, , 
3.33, 1.899377, , 
3.36, 1.891447, , 
3.39, 1.881538, , 
3.42, 1.874169, , 
3.45, 1.863797, , 
3.48, 1.854640, , 
3.51, 1.845010, , 
3.54, 1.833353, , 
3.57, 1.823073, , 
3.60, 1.810858, , 
3.63, 1.801757, , 
3.66, 1.790563, , 
3.69, 1.777254, , 
3.72, 1.765461, , 
3.75, 1.753414, , 
3.78, 1.739048, , 
3.81, 1.726513, , 
3.84, 1.713872, , 
3.87, 1.698673, , 
3.90, 1.685395, , 
3.93, 1.672111, , 
3.96, 1.658490, , 
3.99, 1.644721, , 
4.02, 1.628500, , 
4.05, 1.614521, , 
4.08, 1.597913, , 
4.11, 1.583458, , 
4.14, 1.571348, , 
4.17, 1.554432, , 
4.20, 1.539797, , 
4.23, 1.525088, , 
4.26, 1.507954, , 
4.29, 1.493264, , 
4.32, 1.478505, , 
4.35, 1.461183, , 
4.38, 1.446424, , 
4.41, 1.431884, , 
4.44, 1.414778, , 
4.48, 1.400155, , 
4.50, 1.385783, , 
4.53, 1.371434, , 
4.56, 1.357023, , 
4.59, 1.340323, , 
4.62, 1.326173, , 
4.65, 1.309857, , 
4.68, 1.298140, , 
4.71, 1.284199, , 
4.74, 1.268333, , 
4.77, 1.254795, , 
4.80, 1.238878, , 
4.83, 1.225318, , 
4.86, 1.212079, , 
4.89, 1.198972, , 
4.92, 1.185907, , 
4.95, 1.172858, , 
4.98, 1.157877, , 
5.01, 1.145183, , 
5.04, 1.132546, , 
5.07, 1.117977, , 
5.10, 1.105775, , 
5.13, 1.093696, , 
5.16, 1.079394, , 
5.19, 1.067461, , 
5.22, 1.055763, , 
5.25, 1.044166, , 
5.28, 1.032528, , 
5.31, 1.019171, , 
5.34, 1.007911, , 
5.37, 0.994972, , 
5.40, 0.985682, , 
5.43, 0.974707, , 
5.46, 0.962222, , 
5.49, 0.951593, , 
5.52, 0.940901, , 
5.55, 0.928597, , 
5.58, 0.918199, , 
5.61, 0.906123, , 
5.64, 0.897588, , 
5.67, 0.887491, , 
5.70, 0.875984, , 
5.73, 0.866116, , 
5.76, 0.854554, , 
5.79, 0.844854, , 
5.82, 0.835389, , 
5.85, 0.825912, , 
5.88, 0.816402, , 
5.91, 0.805557, , 
5.94, 0.796492, , 
5.97, 0.787249, , 
6.00, 0.776677, , 
6.03, 0.767726, , 
6.06, 0.758996, , 
6.09, 0.748684, , 
6.12, 0.741278, , 
6.15, 0.731251, , 
6.18, 0.722811, , 
6.21, 0.714364, , 
6.24, 0.704528, , 
6.27, 0.696328, , 
6.31, 0.686892, , 
6.33, 0.680351, , 
6.36, 0.672241, , 
6.39, 0.662963, 2, 0.588
6.40, 0.661653, , 
6.42, 0.655233, , 
6.45, 0.646291, , 
6.48, 0.638859, , 
6.52, 0.631453, , 
6.54, 0.624072, , 
6.57, 0.616852, , 
6.60, 0.608368, , 
6.63, 0.601364, , 
6.66, 0.594376, , 
6.69, 0.586208, , 
6.72, 0.580458, , 
6.75, 0.572639, , 
6.78, 0.566054, , 
6.81, 0.559368, , 
6.84, 0.552700, , 
6.87, 0.546198, , 
6.90, 0.538693, , 
6.93, 0.532184, , 
6.96, 0.525748, , 
6.99, 0.518488, , 
7.02, 0.512299, , 
7.05, 0.505013, , 
7.08, 0.498847, , 
7.11, 0.493797, , 
7.14, 0.486832, , 
7.17, 0.480767, , 
7.20, 0.473846, , 
7.23, 0.468105, , 
7.26, 0.462309, , 
7.29, 0.456603, , 
7.32, 0.450205, , 
7.35, 0.444788, , 
7.38, 0.439265, , 
7.41, 0.433933, , 
7.44, 0.427824, , 
7.47, 0.422794, , 
7.50, 0.417747, , 
7.53, 0.411911, , 
7.56, 0.407026, , 
7.59, 0.402265, , 
7.62, 0.397389, , 
7.65, 0.392498, , 
7.68, 0.387829, , 
7.71, 0.382529, , 
7.74, 0.377828, , 
7.77, 0.373223, , 
7.80, 0.367986, , 
7.83, 0.363516, , 
7.86, 0.359038, , 
7.89, 0.353820, , 
7.92, 0.349627, , 
7.95, 0.345455, , 
7.98, 0.341281, , 
8.01, 0.337107, , 
8.04, 0.332362, , 
8.07, 0.328416, , 
8.10, 0.323750, , 
8.13, 0.319744, , 
8.16, 0.316508, , 
8.19, 0.312179, , 
8.22, 0.308442, , 
8.25, 0.304794, , 
8.28, 0.300760, , 
8.31, 0.297274, , 
8.34, 0.293670, , 
8.37, 0.289594, , 
8.40, 0.286454, , 
8.43, 0.283197, , 
8.46, 0.279964, , 
8.49, 0.276831, , 
8.52, 0.273319, , 
8.55, 0.270195, , 
8.58, 0.266550, , 
8.61, 0.263635, , 
8.64, 0.261288, , 
8.67, 0.257983, , 
8.70, 0.255093, , 
8.73, 0.252264, , 
8.76, 0.249048, , 
8.79, 0.246326, , 
8.82, 0.243551, , 
8.85, 0.240515, , 
8.88, 0.238054, , 
8.91, 0.235431, , 
8.94, 0.232769, , 
8.97, 0.230146, , 
9.00, 0.227447, , 
9.03, 0.224973, , 
9.06, 0.222029, , 
9.09, 0.220031, , 
9.12, 0.217281, , 
9.15, 0.214921, , 
9.18, 0.212177, , 
9.21, 0.210321, , 
9.24, 0.207816, , 
9.27, 0.205690, , 
9.31, 0.203118, , 
9.33, 0.201462, , 
9.36, 0.199207, , 
9.39, 0.197104, , 
9.42, 0.195096, , 
9.45, 0.192908, , 
9.48, 0.191144, , 
9.51, 0.188993, , 
9.54, 0.187607, , 
9.57, 0.186053, , 
9.59, 0.184962, 3, 0.585
9.60, 0.184143, , 
9.63, 0.182466, , 
9.66, 0.180464, , 
9.69, 0.179208, , 
9.72, 0.177777, , 
9.75, 0.175954, , 
9.78, 0.174285, , 
9.81, 0.172642, , 
9.84, 0.171167, , 
9.87, 0.169312, , 
9.90, 0.168078, , 
9.93, 0.166752, , 
9.96, 0.165179, , 
9.99, 0.163700, , 
10.02, 0.162035, , 
10.05, 0.160690, , 
10.08, 0.159336, , 
10.11, 0.157953, , 
10.14, 0.156728, , 
10.17, 0.155568, , 
10.20, 0.154086, , 
10.23, 0.152760, , 
10.26, 0.151450, , 
10.29, 0.150378, , 
10.32, 0.149487, , 
10.35, 0.148237, , 
10.38, 0.147127, , 
10.41, 0.146061, , 
10.44, 0.145059, , 
10.47, 0.144025, , 
10.50, 0.143004, , 
10.53, 0.142322, , 
10.56, 0.141262, , 
10.59, 0.140288, , 
10.62, 0.139451, , 
10.65, 0.138458, , 
10.68, 0.137637, , 
10.72, 0.136498, , 
10.74, 0.135781, , 
10.77, 0.134937, , 
10.80, 0.133935, , 
10.83, 0.133117, , 
10.86, 0.132393, , 
10.89, 0.131543, , 
10.92, 0.130738, , 
10.95, 0.129853, , 
10.98, 0.129202, , 
11.01, 0.128555, , 
11.04, 0.127708, , 
11.07, 0.126985, , 
11.10, 0.126268, , 
11.13, 0.125615, , 
11.16, 0.124908, , 
11.19, 0.124229, , 
11.22, 0.123617, , 
11.25, 0.122973, , 
11.28, 0.122348, , 
11.31, 0.121647, , 
11.34, 0.121079, , 
11.37, 0.120518, , 
11.40, 0.119909, , 
11.43, 0.119211, , 
11.46, 0.118573, , 
11.49, 0.118072, , 
11.52, 0.117365, , 
11.55, 0.116829, , 
11.58, 0.116426, , 
11.61, 0.115690, , 
11.64, 0.115049, , 
11.67, 0.114516, , 
11.70, 0.113999, , 
11.73, 0.113568, , 
11.76, 0.112883, , 
11.79, 0.112277, , 
11.82, 0.111722, , 
11.85, 0.111154, , 
11.88, 0.110558, , 
11.91, 0.110041, , 
11.94, 0.109552, , 
11.97, 0.108899, , 
12.00, 0.108375, , 
12.03, 0.107884, , 
12.06, 0.107288, , 
12.09, 0.106653, , 
12.12, 0.106073, , 
12.15, 0.105629, , 
12.18, 0.105270, , 
12.21, 0.104674, , 
12.24, 0.104109, , 
12.27, 0.103656, , 
12.30, 0.103281, , 
12.33, 0.102888, , 
12.36, 0.102311, , 
12.39, 0.101841, , 
12.42, 0.101603, , 
12.45, 0.101077, , 
12.48, 0.100531, , 
12.51, 0.100065, , 
12.54, 0.099618, , 
12.57, 0.099183, , 
12.60, 0.098660, , 
12.63, 0.098368, , 
12.66, 0.097883, , 
12.69, 0.097344, , 
12.72, 0.096922, , 
12.75, 0.096665, , 
12.78, 0.096370, 4, 0.585
12.79, 0.096319, , 
12.81, 0.095938, , 
12.84, 0.095472, , 
12.87, 0.095126, , 
12.90, 0.094625, , 
12.93, 0.094114, , 
12.96, 0.093661, , 
12.99, 0.093271, , 
13.02, 0.092871, , 
13.05, 0.092348, , 
13.08, 0.091739, , 
13.11, 0.091460, , 
13.14, 0.091088, , 
13.17, 0.090467, , 
13.20, 0.090054, , 
13.23, 0.089661, , 
13.26, 0.089103, , 
13.29, 0.088627, , 
13.32, 0.088335, , 
13.35, 0.088091, , 
13.38, 0.087669, , 
13.41, 0.087285, , 
13.44, 0.086933, , 
13.47, 0.086467, , 
13.50, 0.086032, , 
13.53, 0.085509, , 
13.56, 0.085033, , 
13.59, 0.084665, , 
13.62, 0.084180, , 
13.65, 0.083691, , 
13.68, 0.083339, , 
13.71, 0.082899, , 
13.74, 0.082464, , 
13.77, 0.081966, , 
13.80, 0.081750, , 
13.83, 0.081360, , 
13.86, 0.080960, , 
13.89, 0.080561, , 
13.92, 0.080171, , 
13.95, 0.079761, , 
13.98, 0.079175, , 
14.01, 0.078727, , 
14.04, 0.078366, , 
14.07, 0.077903, , 
14.10, 0.077354, , 
14.13, 0.076923, , 
14.16, 0.076520, , 
14.19, 0.076142, , 
14.22, 0.075711, , 
14.25, 0.075330, , 
14.28, 0.074997, , 
14.31, 0.074718, , 
14.34, 0.074414, , 
14.37, 0.074011, , 
14.40, 0.073744, , 
14.43, 0.073370, , 
14.46, 0.072970, , 
14.49, 0.072644, , 
14.52, 0.072368, , 
14.55, 0.072022, , 
14.59, 0.071686, , 
14.61, 0.071369, , 
14.64, 0.071146, , 
14.67, 0.070861, , 
14.70, 0.070474, , 
14.73, 0.070166, , 
14.76, 0.069970, , 
14.79, 0.069700, , 
14.82, 0.069316, , 
14.85, 0.069107, , 
14.88, 0.068917, , 
14.91, 0.068710, , 
14.94, 0.068387, , 
14.97, 0.068206, , 
15.00, 0.068028, , 
15.03, 0.067829, , 
15.06, 0.067670, , 
15.09, 0.067477, , 
15.12, 0.067359, , 
15.15, 0.067121, , 
15.18, 0.067013, , 
15.21, 0.066868, , 
15.24, 0.066826, , 
15.27, 0.066639, , 
15.30, 0.066417, , 
15.33, 0.066370, , 
15.36, 0.066284, , 
15.39, 0.066128, , 
15.42, 0.065983, , 
15.45, 0.065995, , 
15.48, 0.065903, , 
15.51, 0.065713, , 
15.54, 0.065573, , 
15.57, 0.065570, , 
15.60, 0.065519, , 
15.63, 0.065427, , 
15.66, 0.065231, , 
15.69, 0.065155, , 
15.72, 0.065193, , 
15.75, 0.065066, , 
15.78, 0.064958, , 
15.81, 0.065056, , 
15.84, 0.064955, , 
15.87, 0.064730, , 
15.90, 0.064688, , 
15.93, 0.064663, , 
15.96, 0.064520, , 
15.99, 0.064422, 5, 0.587
16.00, 0.064406, , 
16.02, 0.064479, , 
16.05, 0.064584, , 
16.08, 0.064549, , 
16.12, 0.064409, , 
16.14, 0.064276, , 
16.17, 0.064219, , 
16.20, 0.064121, , 
16.23, 0.063949, , 
16.26, 0.064070, , 
16.29, 0.064149, , 
16.32, 0.064038, , 
16.35, 0.063994, , 
16.38, 0.064045, , 
16.41, 0.064111, , 
16.44, 0.064057, , 
16.47, 0.063975, , 
16.50, 0.064045, , 
16.53, 0.064095, , 
16.56, 0.063965, , 
16.59, 0.063972, , 
16.62, 0.064171, , 
16.65, 0.064279, , 
16.68, 0.064371, , 
16.71, 0.064425, , 
16.74, 0.064520, , 
16.77, 0.064558, , 
16.80, 0.064495, , 
16.83, 0.064479, , 
16.86, 0.064533, , 
16.89, 0.064590, , 
16.92, 0.064606, , 
16.95, 0.064635, , 
16.98, 0.064806, , 
17.01, 0.064999, , 
17.04, 0.064939, , 
17.07, 0.065002, , 
17.10, 0.065224, , 
17.13, 0.065316, , 
17.16, 0.065358, , 
17.19, 0.065370, , 
17.22, 0.065558, , 
17.25, 0.065764, , 
17.28, 0.065891, , 
17.31, 0.066144, , 
17.34, 0.066417, , 
17.37, 0.066487, , 
17.40, 0.066715, , 
17.43, 0.066960, , 
17.46, 0.067283, , 
17.49, 0.067467, , 
17.52, 0.067730, , 
17.55, 0.068333, , 
17.58, 0.068853, , 
17.61, 0.069240, , 
17.64, 0.069561, , 
17.67, 0.069960, , 
17.70, 0.070595, , 
17.73, 0.071112, , 
17.76, 0.071632, , 
17.79, 0.072418, , 
17.82, 0.073123, , 
17.85, 0.073839, , 
17.88, 0.074461, , 
17.91, 0.075318, , 
17.94, 0.076352, , 
17.97, 0.077170, , 
18.00, 0.078188, , 
18.03, 0.079225, , 
18.06, 0.080488, , 
18.09, 0.081386, , 
18.12, 0.082486, , 
18.15, 0.083895, , 
18.18, 0.085078, , 
18.21, 0.086185, , 
18.24, 0.087663, , 
18.27, 0.089024, , 
18.30, 0.090311, , 
18.33, 0.091533, , 
18.36, 0.092992, , 
18.39, 0.094390, , 
18.42, 0.095719, , 
18.45, 0.097245, , 
18.49, 0.098615, , 
18.51, 0.100132, , 
18.54, 0.101537, , 
18.57, 0.102837, , 
18.60, 0.104426, , 
18.63, 0.105775, , 
18.66, 0.107085, , 
18.69, 0.108271, , 
18.72, 0.109457, , 
18.75, 0.110951, , 
18.78, 0.112090, , 
18.81, 0.113102, , 
18.84, 0.114247, , 
18.87, 0.115236, , 
18.90, 0.116109, , 
18.93, 0.116918, , 
18.96, 0.117888, , 
18.99, 0.118884, , 
19.02, 0.119550, , 
19.05, 0.120181, , 
19.08, 0.120955, , 
19.11, 0.121555, , 
19.14, 0.122066, , 
19.17, 0.122275, , 
19.18, 0.122373, 6, 0.584
19.20, 0.122554, , 
19.23, 0.122795, , 
19.26, 0.122912, , 
19.29, 0.122992, , 
19.32, 0.123043, , 
19.35, 0.122928, , 
19.38, 0.122751, , 
19.41, 0.122557, , 
19.45, 0.122345, , 
19.47, 0.122028, , 
19.50, 0.121571, , 
19.53, 0.121082, , 
19.56, 0.120578, , 
19.59, 0.119915, , 
19.62, 0.119347, , 
19.65, 0.118779, , 
19.68, 0.118170, , 
19.71, 0.117530, , 
19.74, 0.116581, , 
19.77, 0.115988, , 
19.80, 0.115401, , 
19.83, 0.114507, , 
19.86, 0.113723, , 
19.89, 0.112727, , 
19.92, 0.111934, , 
19.95, 0.111087, , 
19.98, 0.110107, , 
20.01, 0.109403, , 
20.04, 0.108801, , 
20.07, 0.107719, , 
20.10, 0.106828, , 
20.13, 0.105965, , 
20.16, 0.105162, , 
20.19, 0.104176, , 
20.23, 0.103164, , 
20.25, 0.102463, , 
20.28, 0.101546, , 
20.31, 0.100598, , 
20.34, 0.099757, , 
20.38, 0.098993, , 
20.40, 0.098276, , 
20.43, 0.097401, , 
20.46, 0.096509, , 
20.49, 0.095580, , 
20.52, 0.094806, , 
20.55, 0.093991, , 
20.58, 0.093201, , 
20.61, 0.092601, , 
20.64, 0.091745, , 
20.67, 0.090930, , 
20.70, 0.089994, , 
20.73, 0.089483, , 
20.76, 0.088811, , 
20.79, 0.087923, , 
20.82, 0.087276, , 
20.85, 0.086594, , 
20.88, 0.085944, , 
20.91, 0.085262, , 
20.94, 0.084561, , 
20.97, 0.083971, , 
21.00, 0.083232, , 
21.03, 0.082610, , 
21.06, 0.082058, , 
21.09, 0.081544, , 
21.12, 0.080821, , 
21.15, 0.080180, , 
21.18, 0.079511, , 
21.21, 0.079026, , 
21.24, 0.078597, , 
21.27, 0.077823, , 
21.30, 0.077319, , 
21.33, 0.076745, , 
21.36, 0.076250, , 
21.39, 0.075622, , 
21.42, 0.075140, , 
21.45, 0.074826, , 
21.48, 0.074220, , 
21.51, 0.073713, , 
21.54, 0.073326, , 
21.57, 0.072885, , 
21.60, 0.072425, , 
21.63, 0.071892, , 
21.66, 0.071587, , 
21.69, 0.071210, , 
21.72, 0.070674, , 
21.75, 0.070173, , 
21.78, 0.069913, , 
21.81, 0.069611, , 
21.84, 0.069164, , 
21.87, 0.068866, , 
21.90, 0.068653, , 
21.93, 0.068393, , 
21.96, 0.067981, , 
21.99, 0.067670, , 
22.02, 0.067505, , 
22.05, 0.067239, , 
22.08, 0.066934, , 
22.11, 0.066788, , 
22.14, 0.066734, , 
22.17, 0.066487, , 
22.20, 0.066240, , 
22.23, 0.066103, , 
22.26, 0.066078, , 
22.29, 0.066017, , 
22.32, 0.065945, , 
22.35, 0.066027, , 
22.38, 0.066163, 7, 0.586
22.39, 0.066189, , 
22.41, 0.066268, , 
22.44, 0.066303, , 
22.47, 0.066528, , 
22.50, 0.066744, , 
22.53, 0.066899, , 
22.56, 0.067236, , 
22.59, 0.067635, , 
22.62, 0.068174, , 
22.65, 0.068818, , 
22.68, 0.069332, , 
22.71, 0.070236, , 
22.74, 0.071086, , 
22.77, 0.071752, , 
22.80, 0.072989, , 
22.83, 0.074347, , 
22.86, 0.076057, , 
22.89, 0.077519, , 
22.92, 0.079267, , 
22.96, 0.081512, , 
22.98, 0.083232, , 
23.01, 0.085455, , 
23.04, 0.088246, , 
23.07, 0.090974, , 
23.10, 0.094444, , 
23.13, 0.097566, , 
23.16, 0.100579, , 
23.19, 0.104591, , 
23.22, 0.108629, , 
23.25, 0.113359, , 
23.28, 0.117691, , 
23.31, 0.122399, , 
23.34, 0.128010, , 
23.38, 0.133113, , 
23.40, 0.138407, , 
23.43, 0.143980, , 
23.46, 0.149693, , 
23.49, 0.156462, , 
23.52, 0.162520, , 
23.55, 0.169784, , 
23.58, 0.175027, , 
23.61, 0.181340, , 
23.64, 0.188892, , 
23.67, 0.195391, , 
23.70, 0.202985, , 
23.73, 0.209370, , 
23.76, 0.216018, , 
23.79, 0.222562, , 
23.82, 0.228934, , 
23.85, 0.236163, , 
23.88, 0.242364, , 
23.91, 0.248550, , 
23.94, 0.255464, , 
23.97, 0.261177, , 
24.00, 0.266795, , 
24.03, 0.272184, , 
24.06, 0.277218, , 
24.09, 0.282730, , 
24.12, 0.287491, , 
24.15, 0.292560, , 
24.19, 0.296630, , 
24.21, 0.299786, , 
24.24, 0.303957, , 
24.27, 0.307237, , 
24.30, 0.310431, , 
24.33, 0.312978, , 
24.36, 0.315382, , 
24.39, 0.317346, , 
24.42, 0.319011, , 
24.45, 0.320873, , 
24.48, 0.322094, , 
24.51, 0.323023, , 
24.54, 0.323724, , 
24.57, 0.324124, , 
24.60, 0.324318, , 
24.63, 0.324289, , 
24.66, 0.323855, , 
24.69, 0.323188, , 
24.72, 0.322405, , 
24.75, 0.321171, , 
24.78, 0.319899, , 
24.81, 0.318779, , 
24.84, 0.317190, , 
24.87, 0.315385, , 
24.90, 0.313127, , 
24.93, 0.311221, , 
24.96, 0.309083, , 
24.99, 0.306349, , 
25.02, 0.304315, , 
25.05, 0.301454, , 
25.08, 0.298853, , 
25.11, 0.296062, , 
25.14, 0.292646, , 
25.17, 0.289763, , 
25.20, 0.286410, , 
25.23, 0.283809, , 
25.26, 0.280646, , 
25.29, 0.277043, , 
25.32, 0.273878, , 
25.35, 0.270017, , 
25.38, 0.266779, , 
25.41, 0.263559, , 
25.44, 0.260194, , 
25.47, 0.256835, , 
25.50, 0.252997, , 
25.53, 0.249758, , 
25.56, 0.246459, , 
25.59, 0.243091, 8, 0.586
25.59, 0.242542, , 
25.62, 0.239808, , 
25.65, 0.236090, , 
25.68, 0.232868, , 
25.71, 0.229613, , 
25.74, 0.226023, , 
25.77, 0.222977, , 
25.80, 0.219222, , 
25.83, 0.216643, , 
25.86, 0.213788, , 
25.89, 0.210550, , 
25.92, 0.207663, , 
25.95, 0.204263, , 
25.98, 0.201500, , 
26.01, 0.198893, , 
26.04, 0.196159, , 
26.07, 0.193551, , 
26.10, 0.190697, , 
26.13, 0.188267, , 
26.16, 0.185818, , 
26.19, 0.182970, , 
26.22, 0.180670, , 
26.25, 0.178399, , 
26.28, 0.176084, , 
26.31, 0.173809, , 
26.34, 0.171564, , 
26.37, 0.169461, , 
26.40, 0.167056, , 
26.43, 0.164944, , 
26.46, 0.163323, , 
26.49, 0.161080, , 
26.52, 0.159123, , 
26.55, 0.156979, , 
26.58, 0.155209, , 
26.61, 0.153465, , 
26.64, 0.151447, , 
26.67, 0.150064, , 
26.70, 0.148494, , 
26.73, 0.146499, , 
26.76, 0.144770, , 
26.79, 0.142788, , 
26.82, 0.141262, , 
26.85, 0.139410, , 
26.88, 0.138068, , 
26.91, 0.136564, , 
26.94, 0.134826, , 
26.97, 0.133329, , 
27.00, 0.131753, , 
27.03, 0.130040, , 
27.06, 0.128631, , 
27.09, 0.127141, , 
27.12, 0.125748, , 
27.15, 0.124058, , 
27.18, 0.122814, , 
27.21, 0.121479, , 
27.24, 0.120093, , 
27.27, 0.118852, , 
27.30, 0.117542, , 
27.33, 0.116445, , 
27.36, 0.114815, , 
27.39, 0.113803, , 
27.42, 0.112470, , 
27.45, 0.111389, , 
27.48, 0.110152, , 
27.51, 0.108864, , 
27.54, 0.107839, , 
27.57, 0.106514, , 
27.60, 0.105537, , 
27.63, 0.104490, , 
27.66, 0.103370, , 
27.69, 0.102254, , 
27.72, 0.101048, , 
27.75, 0.100119, , 
27.78, 0.099148, , 
27.81, 0.098076, , 
27.84, 0.097090, , 
27.87, 0.096275, , 
27.90, 0.095196, , 
27.93, 0.094213, , 
27.96, 0.093150, , 
27.99, 0.092414, , 
28.02, 0.091615, , 
28.05, 0.090578, , 
28.08, 0.089880, , 
28.11, 0.089128, , 
28.14, 0.088269, , 
28.17, 0.087380, , 
28.20, 0.086489, , 
28.23, 0.085959, , 
28.26, 0.085201, , 
28.29, 0.084488, , 
28.32, 0.083717, , 
28.35, 0.083070, , 
28.38, 0.082302, , 
28.41, 0.081506, , 
28.44, 0.080853, , 
28.47, 0.080370, , 
28.50, 0.079663, , 
28.53, 0.078908, , 
28.56, 0.078407, , 
28.59, 0.077909, , 
28.62, 0.077287, , 
28.65, 0.076469, , 
28.68, 0.076000, , 
28.71, 0.075708, , 
28.74, 0.075070, , 
28.77, 0.074550, , 
28.79, 0.074347, 9, 0.585
28.80, 0.074096, , 
28.83, 0.073725, , 
28.86, 0.073297, , 
28.90, 0.072698, , 
28.92, 0.072374, , 
28.95, 0.071984, , 
28.98, 0.071372, , 
29.01, 0.070886, , 
29.04, 0.070487, , 
29.07, 0.070017, , 
29.10, 0.069459, , 
29.13, 0.068996, , 
29.16, 0.068749, , 
29.19, 0.068266, , 
29.22, 0.067733, , 
29.25, 0.067293, , 
29.28, 0.066852, , 
29.31, 0.066512, , 
29.34, 0.066027, , 
29.37, 0.065742, , 
29.40, 0.065497, , 
29.43, 0.065098, , 
29.46, 0.064555, , 
29.49, 0.064200, , 
29.52, 0.063880, , 
29.55, 0.063458, , 
29.58, 0.063134, , 
29.61, 0.062728, , 
29.64, 0.062389, , 
29.67, 0.061999, , 
29.70, 0.061545, , 
29.73, 0.061282, , 
29.76, 0.061031, , 
29.79, 0.060568, , 
29.82, 0.060134, , 
29.85, 0.059737, , 
29.89, 0.059455, , 
29.91, 0.059172, , 
29.94, 0.058709, , 
29.97, 0.058532, , 
30.00, 0.058230, , 
30.03, 0.057859, , 
30.06, 0.057523, , 
30.09, 0.057314, , 
30.12, 0.057063, , 
30.15, 0.056616, , 
30.18, 0.056318, , 
30.21, 0.056134, , 
30.24, 0.055842, , 
30.27, 0.055480, , 
30.30, 0.055233, , 
30.33, 0.055027, , 
30.36, 0.054843, , 
30.39, 0.054453, , 
30.42, 0.054231, , 
30.45, 0.054062, , 
30.48, 0.053777, , 
30.51, 0.053523, , 
30.54, 0.053323, , 
30.57, 0.053212, , 
30.60, 0.052946, , 
30.63, 0.052588, , 
30.66, 0.052492, , 
30.69, 0.052410, , 
30.72, 0.052099, , 
30.75, 0.051798, , 
30.78, 0.051661, , 
30.81, 0.051506, , 
30.84, 0.051246, , 
30.87, 0.050995, , 
30.90, 0.050913, , 
30.93, 0.050786, , 
30.96, 0.050580, , 
30.99, 0.050472, , 
31.02, 0.050209, , 
31.05, 0.050094, , 
31.08, 0.049948, , 
31.11, 0.049764, , 
31.14, 0.049730, , 
31.17, 0.049777, , 
31.20, 0.049679, , 
31.23, 0.049428, , 
31.26, 0.049390, , 
31.29, 0.049314, , 
31.32, 0.049143, , 
31.35, 0.049130, , 
31.38, 0.049181, , 
31.41, 0.049197, , 
31.44, 0.049067, , 
31.47, 0.049108, , 
31.50, 0.049190, , 
31.53, 0.049168, , 
31.56, 0.049098, , 
31.59, 0.049079, , 
31.62, 0.049155, , 
31.65, 0.049155, , 
31.68, 0.049203, , 
31.71, 0.049346, , 
31.74, 0.049473, , 
31.77, 0.049479, , 
31.80, 0.049584, , 
31.83, 0.049701, , 
31.86, 0.049967, , 
31.89, 0.050085, , 
31.92, 0.050205, , 
31.95, 0.050440, , 
31.98, 0.050786, 10, 0.585
31.99, 0.050821, , 
32.01, 0.050957, , 
32.04, 0.051100, , 
32.07, 0.051414, , 
32.10, 0.051728, , 
32.13, 0.051978, , 
32.16, 0.052188, , 
32.19, 0.052486, , 
32.22, 0.052940, , 
32.25, 0.053203, , 
32.28, 0.053504, , 
32.31, 0.053888, , 
32.34, 0.054272, , 
32.38, 0.054522, , 
32.40, 0.054884, , 
32.43, 0.055388, , 
32.46, 0.055893, , 
32.49, 0.056257, , 
32.53, 0.056686, , 
32.55, 0.057212, , 
32.58, 0.057647, , 
32.61, 0.058164, , 
32.64, 0.058592, , 
32.67, 0.059128, , 
32.70, 0.059483, , 
32.73, 0.059788, , 
32.76, 0.060311, , 
32.79, 0.060863, , 
32.82, 0.061263, , 
32.85, 0.061678, , 
32.88, 0.062141, , 
32.91, 0.062677, , 
32.94, 0.063080, , 
32.97, 0.063445, , 
33.00, 0.064000, , 
33.03, 0.064498, , 
33.06, 0.064844, , 
33.09, 0.065304, , 
33.12, 0.065789, , 
33.15, 0.066398, , 
33.18, 0.066741, , 
33.21, 0.067001, , 
33.24, 0.067597, , 
33.27, 0.068178, , 
33.30, 0.068571, , 
33.33, 0.068860, , 
33.36, 0.069281, , 
33.39, 0.069557, , 
33.42, 0.069729, , 
33.45, 0.069932, , 
33.48, 0.070230, , 
33.51, 0.070439, , 
33.54, 0.070588, , 
33.57, 0.070677, , 
33.60, 0.070823, , 
33.63, 0.070867, , 
33.66, 0.070832, , 
33.69, 0.070848, , 
33.72, 0.070858, , 
33.75, 0.070972, , 
33.78, 0.070867, , 
33.81, 0.070683, , 
33.84, 0.070655, , 
33.87, 0.070471, , 
33.90, 0.070179, , 
33.93, 0.070046, , 
33.96, 0.069779, , 
33.99, 0.069402, , 
34.03, 0.069072, , 
34.05, 0.068879, , 
34.08, 0.068479, , 
34.11, 0.068022, , 
34.14, 0.067511, , 
34.17, 0.067074, , 
34.20, 0.066753, , 
34.23, 0.066214, , 
34.26, 0.065808, , 
34.29, 0.065399, , 
34.32, 0.064955, , 
34.35, 0.064447, , 
34.38, 0.063984, , 
34.41, 0.063591, , 
34.44, 0.063191, , 
34.47, 0.062655, , 
34.50, 0.062100, , 
34.53, 0.061669, , 
34.56, 0.061304, , 
34.59, 0.060850, , 
34.62, 0.060327, , 
34.65, 0.059899, , 
34.68, 0.059499, , 
34.71, 0.058979, , 
34.74, 0.058421, , 
34.77, 0.058056, , 
34.80, 0.057720, , 
34.83, 0.057199, , 
34.86, 0.056705, , 
34.89, 0.056486, , 
34.92, 0.056172, , 
34.95, 0.055788, , 
34.98, 0.055382, , 
35.01, 0.055062, , 
35.04, 0.054792, , 
35.07, 0.054440, , 
35.10, 0.054173, , 
35.13, 0.053955, , 
35.16, 0.053666, , 
35.19, 0.053304, 11, 0.587
35.20, 0.053260, , 
35.22, 0.053073, , 
35.25, 0.052895, , 
35.28, 0.052670, , 
35.31, 0.052397, , 
35.34, 0.052159, , 
35.37, 0.051912, , 
35.40, 0.051496, , 
35.43, 0.051236, , 
35.46, 0.051062, , 
35.49, 0.050843, , 
35.52, 0.050554, , 
35.55, 0.050266, , 
35.58, 0.050094, , 
35.61, 0.049939, , 
35.64, 0.049679, , 
35.67, 0.049381, , 
35.70, 0.049235, , 
35.73, 0.048987, , 
35.76, 0.048762, , 
35.79, 0.048445, , 
35.82, 0.048299, , 
35.85, 0.048093, , 
35.88, 0.047757, , 
35.91, 0.047573, , 
35.94, 0.047392, , 
35.97, 0.047265, , 
36.00, 0.046960, , 
36.03, 0.046786, , 
36.06, 0.046767, , 
36.09, 0.046380, , 
36.12, 0.046164, , 
36.15, 0.045882, , 
36.18, 0.045765, , 
36.21, 0.045511, , 
36.24, 0.045229, , 
36.27, 0.045175, , 
36.30, 0.045095, , 
36.33, 0.044886, , 
36.36, 0.044578, , 
36.39, 0.044496, , 
36.42, 0.044360, , 
36.45, 0.044109, , 
36.48, 0.043842, , 
36.51, 0.043785, , 
36.54, 0.043766, , 
36.57, 0.043532, , 
36.60, 0.043351, , 
36.63, 0.043300, , 
36.66, 0.043195, , 
36.69, 0.043062, , 
36.72, 0.042910, , 
36.75, 0.042796, , 
36.78, 0.042799, , 
36.81, 0.042735, , 
36.84, 0.042539, , 
36.87, 0.042409, , 
36.90, 0.042383, , 
36.93, 0.042203, , 
36.96, 0.042085, , 
36.99, 0.042111, , 
37.02, 0.042098, , 
37.05, 0.041889, , 
37.08, 0.041714, , 
37.11, 0.041660, , 
37.14, 0.041625, , 
37.17, 0.041489, , 
37.20, 0.041457, , 
37.23, 0.041498, , 
37.26, 0.041508, , 
37.29, 0.041321, , 
37.32, 0.041178, , 
37.36, 0.041194, , 
37.38, 0.041092, , 
37.41, 0.040962, , 
37.44, 0.040981, , 
37.47, 0.041058, , 
37.50, 0.040943, , 
37.53, 0.040696, , 
37.56, 0.040496, , 
37.59, 0.040496, , 
37.62, 0.040452, , 
37.65, 0.040382, , 
37.68, 0.040439, , 
37.71, 0.040487, , 
37.74, 0.040455, , 
37.77, 0.040417, , 
37.80, 0.040480, , 
37.83, 0.040502, , 
37.86, 0.040464, , 
37.89, 0.040458, , 
37.92, 0.040632, , 
37.95, 0.040864, , 
37.98, 0.040921, , 
38.01, 0.040889, , 
38.04, 0.040943, , 
38.07, 0.040950, , 
38.10, 0.041092, , 
38.13, 0.040905, , 
38.16, 0.041096, , 
38.19, 0.041140, , 
38.22, 0.041194, , 
38.25, 0.041226, , 
38.28, 0.041353, , 
38.31, 0.041451, , 
38.34, 0.041460, , 
38.37, 0.041565, , 
38.39, 0.041736, 12, 0.585
38.40, 0.041892, , 
38.43, 0.042130, , 
38.46, 0.042260, , 
38.49, 0.042390, , 
38.52, 0.042609, , 
38.55, 0.042783, , 
38.58, 0.042856, , 
38.61, 0.043094, , 
38.64, 0.043370, , 
38.67, 0.043665, , 
38.70, 0.043931, , 
38.73, 0.044210, , 
38.76, 0.044601, , 
38.79, 0.045026, , 
38.82, 0.045308, , 
38.85, 0.045723, , 
38.88, 0.046066, , 
38.91, 0.046288, , 
38.94, 0.046564, , 
38.97, 0.047011, , 
39.00, 0.047579, , 
39.03, 0.048131, , 
39.06, 0.048508, , 
39.09, 0.049073, , 
39.12, 0.049837, , 
39.15, 0.050269, , 
39.18, 0.050910, , 
39.21, 0.051534, , 
39.24, 0.052229, , 
39.27, 0.052968, , 
39.30, 0.053517, , 
39.34, 0.054380, , 
39.36, 0.054970, , 
39.39, 0.055591, , 
39.42, 0.056391, , 
39.45, 0.057190, , 
39.48, 0.057970, , 
39.51, 0.058798, , 
39.54, 0.059559, , 
39.57, 0.060375, , 
39.60, 0.061263, , 
39.63, 0.061720, , 
39.66, 0.062544, , 
39.69, 0.063413, , 
39.72, 0.064159, , 
39.75, 0.064723, , 
39.78, 0.065500, , 
39.81, 0.066224, , 
39.84, 0.066887, , 
39.87, 0.067540, , 
39.90, 0.068079, , 
39.93, 0.068885, , 
39.96, 0.069364, , 
39.99, 0.069849, , 
40.02, 0.070395, , 
40.05, 0.070877, , 
40.08, 0.071118, , 
40.11, 0.071356, , 
40.14, 0.071771, , 
40.17, 0.072070, , 
40.20, 0.072304, , 
40.23, 0.072418, , 
40.26, 0.072602, , 
40.29, 0.072815, , 
40.32, 0.072771, , 
40.35, 0.072612, , 
40.38, 0.072596, , 
40.41, 0.072517, , 
40.44, 0.072339, , 
40.47, 0.071949, , 
40.50, 0.071892, , 
40.53, 0.071683, , 
40.56, 0.071299, , 
40.59, 0.070880, , 
40.62, 0.070468, , 
40.65, 0.070147, , 
40.68, 0.069764, , 
40.71, 0.069186, , 
40.74, 0.068752, , 
40.77, 0.068447, , 
40.80, 0.067857, , 
40.84, 0.067347, , 
40.86, 0.067010, , 
40.89, 0.066642, , 
40.92, 0.065992, , 
40.95, 0.065408, , 
40.98, 0.064914, , 
41.01, 0.064378, , 
41.04, 0.063835, , 
41.07, 0.063356, , 
41.10, 0.062915, , 
41.13, 0.062493, , 
41.16, 0.061856, , 
41.19, 0.061291, , 
41.22, 0.060816, , 
41.25, 0.060251, , 
41.28, 0.059699, , 
41.31, 0.059166, , 
41.34, 0.058836, , 
41.37, 0.058389, , 
41.40, 0.057732, , 
41.43, 0.057371, , 
41.46, 0.056987, , 
41.49, 0.056581, , 
41.52, 0.056086, , 
41.55, 0.055518, , 
41.58, 0.055185, , 
41.59, 0.055169, 13, 0.585
41.61, 0.054738, , 
41.64, 0.054234, , 
41.67, 0.053844, , 
41.70, 0.053457, , 
41.73, 0.053038, , 
41.76, 0.052438, , 
41.79, 0.052131, , 
41.82, 0.051826, , 
41.86, 0.051442, , 
41.88, 0.051068, , 
41.91, 0.050643, , 
41.94, 0.050431, , 
41.97, 0.050136, , 
42.00, 0.049777, , 
42.03, 0.049498, , 
42.07, 0.049368, , 
42.09, 0.049257, , 
42.12, 0.048933, , 
42.15, 0.048635, , 
42.18, 0.048480, , 
42.21, 0.048204, , 
42.24, 0.047928, , 
42.27, 0.047757, , 
42.30, 0.047595, , 
42.33, 0.047338, , 
42.36, 0.046989, , 
42.39, 0.046856, , 
42.42, 0.046685, , 
42.45, 0.046459, , 
42.48, 0.046317, , 
42.51, 0.046095, , 
42.54, 0.046028, , 
42.57, 0.045822, , 
42.60, 0.045590, , 
42.63, 0.045524, , 
42.66, 0.045308, , 
42.70, 0.045127, , 
42.72, 0.045019, , 
42.75, 0.045064, , 
42.78, 0.045108, , 
42.81, 0.044937, , 
42.84, 0.044696, , 
42.87, 0.044693, , 
42.90, 0.044677, , 
42.93, 0.044566, , 
42.96, 0.044496, , 
42.99, 0.044543, , 
43.02, 0.044550, , 
43.05, 0.044318, , 
43.08, 0.044195, , 
43.11, 0.044176, , 
43.14, 0.044118, , 
43.17, 0.043915, , 
43.20, 0.043725, , 
43.23, 0.043700, , 
43.26, 0.043601, , 
43.29, 0.043392, , 
43.32, 0.043262, , 
43.35, 0.043316, , 
43.38, 0.043246, , 
43.41, 0.043059, , 
43.44, 0.043116, , 
43.47, 0.043094, , 
43.50, 0.043113, , 
43.53, 0.043034, , 
43.56, 0.043018, , 
43.59, 0.043100, , 
43.62, 0.043046, , 
43.65, 0.042970, , 
43.68, 0.043078, , 
43.71, 0.043192, , 
43.74, 0.043253, , 
43.77, 0.043370, , 
43.80, 0.043433, , 
43.83, 0.043643, , 
43.86, 0.043649, , 
43.89, 0.043725, , 
43.92, 0.044039, , 
43.95, 0.044280, , 
43.98, 0.044334, , 
44.01, 0.044553, , 
44.04, 0.044769, , 
44.07, 0.044946, , 
44.10, 0.045083, , 
44.13, 0.045305, , 
44.16, 0.045825, , 
44.19, 0.046145, , 
44.22, 0.046437, , 
44.25, 0.046859, , 
44.28, 0.047287, , 
44.31, 0.047725, , 
44.34, 0.048096, , 
44.37, 0.048559, , 
44.40, 0.049051, , 
44.43, 0.049574, , 
44.46, 0.050136, , 
44.49, 0.050510, , 
44.52, 0.051214, , 
44.55, 0.051887, , 
44.58, 0.052423, , 
44.61, 0.053149, , 
44.64, 0.053920, , 
44.67, 0.054811, , 
44.70, 0.055325, , 
44.73, 0.055956, , 
44.76, 0.056908, , 
44.79, 0.057666, 14, 0.587
44.80, 0.057793, , 
44.82, 0.058272, , 
44.85, 0.059204, , 
44.88, 0.059975, , 
44.91, 0.060835, , 
44.94, 0.061425, , 
44.97, 0.062192, , 
45.00, 0.063210, , 
45.03, 0.064003, , 
45.06, 0.064822, , 
45.09, 0.065500, , 
45.12, 0.066370, , 
45.15, 0.066950, , 
45.18, 0.067597, , 
45.21, 0.068403, , 
45.24, 0.069224, , 
45.27, 0.069840, , 
45.30, 0.070300, , 
45.33, 0.070877, , 
45.36, 0.071480, , 
45.39, 0.072006, , 
45.42, 0.072292, , 
45.45, 0.072707, , 
45.48, 0.073192, , 
45.51, 0.073411, , 
45.54, 0.073636, , 
45.57, 0.073909, , 
45.60, 0.074207, , 
45.63, 0.074236, , 
45.66, 0.074331, , 
45.69, 0.074452, , 
45.72, 0.074493, , 
45.75, 0.074312, , 
45.78, 0.074147, , 
45.81, 0.074084, , 
45.84, 0.073976, , 
45.87, 0.073687, , 
45.90, 0.073310, , 
45.93, 0.073091, , 
45.96, 0.072790, , 
45.99, 0.072441, , 
46.02, 0.072139, , 
46.05, 0.071797, , 
46.08, 0.071378, , 
46.11, 0.070861, , 
46.14, 0.070426, , 
46.17, 0.069998, , 
46.20, 0.069424, , 
46.23, 0.068774, , 
46.26, 0.068143, , 
46.29, 0.067797, , 
46.32, 0.067232, , 
46.35, 0.066639, , 
46.38, 0.065979, , 
46.41, 0.065507, , 
46.44, 0.064996, , 
46.47, 0.064286, , 
46.50, 0.063797, , 
46.53, 0.063397, , 
46.56, 0.062725, , 
46.59, 0.062135, , 
46.62, 0.061545, , 
46.65, 0.060955, , 
46.68, 0.060222, , 
46.71, 0.059445, , 
46.75, 0.058973, , 
46.77, 0.058522, , 
46.80, 0.057958, , 
46.83, 0.057291, , 
46.86, 0.056721, , 
46.89, 0.056178, , 
46.92, 0.055696, , 
46.95, 0.055347, , 
46.98, 0.055017, , 
47.01, 0.054633, , 
47.04, 0.054240, , 
47.07, 0.053920, , 
47.10, 0.053590, , 
47.13, 0.053444, , 
47.16, 0.053079, , 
47.19, 0.052752, , 
47.22, 0.052496, , 
47.25, 0.052283, , 
47.28, 0.051988, , 
47.31, 0.051664, , 
47.34, 0.051484, , 
47.37, 0.051271, , 
47.40, 0.050871, , 
47.43, 0.050634, , 
47.46, 0.050329, , 
47.49, 0.050056, , 
47.52, 0.049780, , 
47.55, 0.049336, , 
47.59, 0.049073, , 
47.61, 0.048715, , 
47.64, 0.048385, , 
47.67, 0.048159, , 
47.70, 0.047874, , 
47.73, 0.047703, , 
47.76, 0.047414, , 
47.79, 0.047087, , 
47.82, 0.046884, , 
47.85, 0.046751, , 
47.88, 0.046554, , 
47.91, 0.046412, , 
47.94, 0.046348, , 
47.97, 0.046269, , 
47.98, 0.046221, 15, 0.584
48.00, 0.046091, , 
48.03, 0.046018, , 
48.06, 0.046117, , 
48.09, 0.046183, , 
48.12, 0.046148, , 
48.15, 0.046110, , 
48.18, 0.046196, , 
48.21, 0.046142, , 
48.24, 0.046218, , 
48.28, 0.046396, , 
48.30, 0.046548, , 
48.33, 0.046640, , 
48.36, 0.046691, , 
48.39, 0.046830, , 
48.42, 0.047163, , 
48.45, 0.047458, , 
48.48, 0.047595, , 
48.51, 0.047950, , 
48.54, 0.048391, , 
48.57, 0.048711, , 
48.60, 0.049003, , 
48.63, 0.049324, , 
48.66, 0.049685, , 
48.69, 0.050082, , 
48.72, 0.050408, , 
48.75, 0.050922, , 
48.78, 0.051408, , 
48.81, 0.051915, , 
48.84, 0.052207, , 
48.87, 0.052626, , 
48.90, 0.053209, , 
48.93, 0.053688, , 
48.96, 0.054107, , 
48.99, 0.054656, , 
49.02, 0.055055, , 
49.05, 0.055464, , 
49.08, 0.055966, , 
49.11, 0.056606, , 
49.14, 0.057253, , 
49.17, 0.057628, , 
49.20, 0.058215, , 
49.23, 0.058988, , 
49.26, 0.059702, , 
49.29, 0.060257, , 
49.32, 0.060793, , 
49.35, 0.061548, , 
49.38, 0.062246, , 
49.41, 0.062785, , 
49.44, 0.063458, , 
49.47, 0.064137, , 
49.50, 0.064701, , 
49.53, 0.065380, , 
49.56, 0.066027, , 
49.59, 0.066788, , 
49.62, 0.067347, , 
49.65, 0.067848, , 
49.68, 0.068374, , 
49.71, 0.068964, , 
49.74, 0.069392, , 
49.77, 0.069779, , 
49.80, 0.070192, , 
49.83, 0.070614, , 
49.86, 0.070864, , 
49.90, 0.071131, , 
49.92, 0.071267, , 
49.95, 0.071375, , 
49.98, 0.071470, , 
50.01, 0.071391, , 
50.04, 0.071419, , 
50.07, 0.071422, , 
50.10, 0.071238, , 
50.13, 0.071004, , 
50.16, 0.070813, , 
50.19, 0.070629, , 
50.22, 0.070341, , 
50.25, 0.069986, , 
50.28, 0.069672, , 
50.31, 0.069332, , 
50.34, 0.068996, , 
50.37, 0.068710, , 
50.40, 0.068412, , 
50.43, 0.068136, , 
50.46, 0.067626, , 
50.49, 0.067201, , 
50.52, 0.067020, , 
50.55, 0.066788, , 
50.58, 0.066306, , 
50.61, 0.065783, , 
50.64, 0.065418, , 
50.67, 0.065012, , 
50.70, 0.064425, , 
50.73, 0.063949, , 
50.76, 0.063581, , 
50.79, 0.063087, , 
50.82, 0.062598, , 
50.85, 0.062249, , 
50.88, 0.061900, , 
50.91, 0.061310, , 
50.94, 0.060765, , 
50.97, 0.060343, , 
51.00, 0.059972, , 
51.03, 0.059521, , 
51.06, 0.059106, , 
51.09, 0.058582, , 
51.12, 0.058348, , 
51.15, 0.057983, , 
51.18, 0.057577, , 
51.19, 0.057498, 16, 0.586
51.21, 0.057155, , 
51.25, 0.056790, , 
51.27, 0.056375, , 
51.30, 0.055962, , 
51.33, 0.055610, , 
51.36, 0.055350, , 
51.39, 0.054957, , 
51.42, 0.054487, , 
51.45, 0.054275, , 
51.48, 0.054015, , 
51.51, 0.053809, , 
51.54, 0.053463, , 
51.57, 0.053190, , 
51.60, 0.053051, , 
51.63, 0.052825, , 
51.66, 0.052534, , 
51.69, 0.052343, , 
51.72, 0.052207, , 
51.75, 0.051918, , 
51.78, 0.051614, , 
51.81, 0.051576, , 
51.84, 0.051458, , 
51.87, 0.051243, , 
51.90, 0.051138, , 
51.93, 0.051125, , 
51.96, 0.051160, , 
51.99, 0.051147, , 
52.02, 0.051166, , 
52.05, 0.051271, , 
52.08, 0.051433, , 
52.12, 0.051538, , 
52.14, 0.051696, , 
52.17, 0.051944, , 
52.20, 0.052232, , 
52.23, 0.052502, , 
52.26, 0.052787, , 
52.29, 0.053177, , 
52.32, 0.053400, , 
52.35, 0.053688, , 
52.38, 0.054224, , 
52.41, 0.054671, , 
52.44, 0.055188, , 
52.47, 0.055531, , 
52.50, 0.056070, , 
52.53, 0.056505, , 
52.56, 0.057006, , 
52.59, 0.057450, , 
52.62, 0.057856, , 
52.65, 0.058494, , 
52.68, 0.059163, , 
52.71, 0.059575, , 
52.74, 0.060035, , 
52.77, 0.060584, , 
52.80, 0.061060, , 
52.83, 0.061507, , 
52.86, 0.061869, , 
52.89, 0.062367, , 
52.92, 0.062922, , 
52.95, 0.063305, , 
52.98, 0.063842, , 
53.01, 0.064263, , 
53.04, 0.064711, , 
53.07, 0.065145, , 
53.10, 0.065554, , 
53.13, 0.065979, , 
53.16, 0.066281, , 
53.19, 0.066474, , 
53.22, 0.066687, , 
53.25, 0.066918, , 
53.28, 0.067064, , 
53.31, 0.067178, , 
53.34, 0.067353, , 
53.37, 0.067702, , 
53.41, 0.067784, , 
53.43, 0.067753, , 
53.46, 0.067822, , 
53.49, 0.067987, , 
53.52, 0.067895, , 
53.55, 0.067708, , 
53.58, 0.067654, , 
53.61, 0.067689, , 
53.64, 0.067553, , 
53.67, 0.067372, , 
53.70, 0.067277, , 
53.73, 0.067210, , 
53.76, 0.067036, , 
53.79, 0.066953, , 
53.82, 0.066880, , 
53.85, 0.066747, , 
53.88, 0.066477, , 
53.91, 0.066154, , 
53.94, 0.065960, , 
53.97, 0.065672, , 
54.00, 0.065389, , 
54.03, 0.065009, , 
54.06, 0.064784, , 
54.09, 0.064412, , 
54.12, 0.063956, , 
54.15, 0.063645, , 
54.18, 0.063347, , 
54.22, 0.062871, , 
54.24, 0.062446, , 
54.27, 0.061907, , 
54.30, 0.061561, , 
54.33, 0.061190, , 
54.36, 0.060603, , 
54.38, 0.060254, 17, 0.585
54.39, 0.060124, , 
54.42, 0.059861, , 
54.45, 0.059537, , 
54.48, 0.059166, , 
54.51, 0.058912, , 
54.54, 0.058684, , 
54.57, 0.058300, , 
54.60, 0.057856, , 
54.63, 0.057694, , 
54.66, 0.057529, , 
54.69, 0.057285, , 
54.72, 0.056911, , 
54.75, 0.056673, , 
54.78, 0.056638, , 
54.81, 0.056587, , 
54.84, 0.056400, , 
54.87, 0.056305, , 
54.90, 0.056381, , 
54.93, 0.056378, , 
54.96, 0.056407, , 
54.99, 0.056410, , 
55.02, 0.056590, , 
55.05, 0.056686, , 
55.08, 0.056813, , 
55.11, 0.057060, , 
55.14, 0.057406, , 
55.17, 0.057647, , 
55.20, 0.057897, , 
55.23, 0.058240, , 
55.26, 0.058614, , 
55.29, 0.058877, , 
55.32, 0.059252, , 
55.35, 0.059651, , 
55.38, 0.060092, , 
55.41, 0.060289, , 
55.44, 0.060413, , 
55.47, 0.060765, , 
55.50, 0.061038, , 
55.53, 0.061269, , 
55.56, 0.061662, , 
55.59, 0.062040, , 
55.62, 0.062376, , 
55.65, 0.062630, , 
55.68, 0.062874, , 
55.71, 0.063315, , 
55.74, 0.063623, , 
55.77, 0.063832, , 
55.80, 0.064190, , 
55.83, 0.064581, , 
55.86, 0.064841, , 
55.89, 0.065044, , 
55.92, 0.065244, , 
55.95, 0.065570, , 
55.98, 0.065868, , 
56.01, 0.065970, , 
56.04, 0.066135, , 
56.07, 0.066376, , 
56.10, 0.066481, , 
56.13, 0.066379, , 
56.16, 0.066541, , 
56.19, 0.066757, , 
56.22, 0.066833, , 
56.25, 0.066836, , 
56.28, 0.066921, , 
56.31, 0.066979, , 
56.34, 0.066883, , 
56.37, 0.066760, , 
56.40, 0.066731, , 
56.43, 0.066639, , 
56.46, 0.066420, , 
56.49, 0.066214, , 
56.52, 0.066116, , 
56.55, 0.066068, , 
56.58, 0.065811, , 
56.61, 0.065558, , 
56.64, 0.065393, , 
56.67, 0.065237, , 
56.70, 0.065015, , 
56.73, 0.064628, , 
56.76, 0.064476, , 
56.79, 0.064286, , 
56.82, 0.063927, , 
56.85, 0.063667, , 
56.88, 0.063455, , 
56.91, 0.063245, , 
56.94, 0.062988, , 
56.97, 0.062598, , 
57.00, 0.062408, , 
57.03, 0.062024, , 
57.06, 0.061647, , 
57.09, 0.061596, , 
57.12, 0.061596, , 
57.15, 0.061345, , 
57.18, 0.061076, , 
57.21, 0.061034, , 
57.24, 0.061034, , 
57.27, 0.060796, , 
57.30, 0.060562, , 
57.33, 0.060521, , 
57.36, 0.060628, , 
57.39, 0.060593, , 
57.42, 0.060517, , 
57.45, 0.060552, , 
57.48, 0.060711, , 
57.51, 0.060831, , 
57.54, 0.060942, , 
57.57, 0.061104, , 
57.59, 0.061222, 18, 0.587
57.60, 0.061317, , 
57.63, 0.061453, , 
57.66, 0.061551, , 
57.69, 0.061726, , 
57.72, 0.061957, , 
57.75, 0.062005, , 
57.78, 0.062119, , 
57.81, 0.062363, , 
57.84, 0.062681, , 
57.87, 0.062865, , 
57.90, 0.062988, , 
57.93, 0.063163, , 
57.96, 0.063334, , 
57.99, 0.063309, , 
58.02, 0.063483, , 
58.05, 0.063829, , 
58.08, 0.064133, , 
58.11, 0.064225, , 
58.14, 0.064333, , 
58.17, 0.064587, , 
58.20, 0.064863, , 
58.23, 0.065009, , 
58.26, 0.065240, , 
58.29, 0.065434, , 
58.32, 0.065592, , 
58.35, 0.065678, , 
58.38, 0.065735, , 
58.41, 0.065916, , 
58.44, 0.066094, , 
58.47, 0.066135, , 
58.50, 0.066227, , 
58.53, 0.066370, , 
58.56, 0.066423, , 
58.59, 0.066325, , 
58.62, 0.066157, , 
58.65, 0.066135, , 
58.68, 0.066081, , 
58.71, 0.065954, , 
58.74, 0.065808, , 
58.77, 0.065694, , 
58.80, 0.065478, , 
58.83, 0.065231, , 
58.86, 0.065053, , 
58.89, 0.064983, , 
58.92, 0.064768, , 
58.95, 0.064416, , 
58.98, 0.064187, , 
59.01, 0.064006, , 
59.04, 0.063772, , 
59.07, 0.063534, , 
59.10, 0.063328, , 
59.13, 0.063252, , 
59.16, 0.063169, , 
59.19, 0.062995, , 
59.22, 0.062950, , 
59.25, 0.062950, , 
59.28, 0.062693, , 
59.31, 0.062579, , 
59.34, 0.062547, , 
59.37, 0.062579, , 
59.40, 0.062570, , 
59.43, 0.062493, , 
59.46, 0.062465, , 
59.49, 0.062582, , 
59.52, 0.062573, , 
59.55, 0.062449, , 
59.58, 0.062490, , 
59.61, 0.062538, , 
59.64, 0.062538, , 
59.67, 0.062490, , 
59.70, 0.062709, , 
59.73, 0.062896, , 
59.76, 0.062953, , 
59.79, 0.062912, , 
59.82, 0.062960, , 
59.85, 0.063118, , 
59.88, 0.063109, , 
59.91, 0.063315, , 
59.94, 0.063455, , 
59.97, 0.063515, , 
60.00, 0.063591, , 
60.03, 0.063699, , 
60.06, 0.063864, , 
60.09, 0.064060, , 
60.12, 0.064181, , 
60.15, 0.064260, , 
60.18, 0.064489, , 
60.21, 0.064666, , 
60.24, 0.064707, , 
60.27, 0.064780, , 
60.30, 0.064891, , 
60.33, 0.065002, , 
60.36, 0.064939, , 
60.39, 0.064910, , 
60.42, 0.064999, , 
60.45, 0.064968, , 
60.48, 0.064898, , 
60.51, 0.064923, , 
60.54, 0.065002, , 
60.57, 0.064812, , 
60.60, 0.064638, , 
60.63, 0.064454, , 
60.67, 0.064457, , 
60.69, 0.064219, , 
60.72, 0.063981, , 
60.75, 0.063965, , 
60.78, 0.063959, 19, 0.585
60.79, 0.063889, , 
60.81, 0.063769, , 
60.84, 0.063645, , 
60.87, 0.063585, , 
60.90, 0.063515, , 
60.93, 0.063280, , 
60.96, 0.063039, , 
60.99, 0.062925, , 
61.02, 0.062811, , 
61.05, 0.062646, , 
61.08, 0.062474, , 
61.11, 0.062528, , 
61.14, 0.062474, , 
61.17, 0.062297, , 
61.20, 0.062195, , 
61.23, 0.062192, , 
61.26, 0.062126, , 
61.29, 0.061973, , 
61.32, 0.061827, , 
61.35, 0.061792, , 
61.38, 0.061681, , 
61.41, 0.061618, , 
61.44, 0.061510, , 
61.47, 0.061539, , 
61.50, 0.061567, , 
61.53, 0.061463, , 
61.56, 0.061425, , 
61.59, 0.061662, , 
61.62, 0.061792, , 
61.65, 0.061872, , 
61.68, 0.061951, , 
61.71, 0.061967, , 
61.74, 0.062046, , 
61.77, 0.062046, , 
61.80, 0.062068, , 
61.83, 0.062306, , 
61.86, 0.062430, , 
61.89, 0.062373, , 
61.92, 0.062363, , 
61.95, 0.062493, , 
61.98, 0.062554, , 
62.01, 0.062474, , 
62.04, 0.062449, , 
62.07, 0.062512, , 
62.10, 0.062497, , 
62.13, 0.062424, , 
62.16, 0.062443, , 
62.19, 0.062573, , 
62.22, 0.062579, , 
62.25, 0.062474, , 
62.28, 0.062493, , 
62.32, 0.062551, , 
62.34, 0.062398, , 
62.37, 0.062145, , 
62.40, 0.062059, , 
62.43, 0.062037, , 
62.46, 0.061986, , 
62.49, 0.061758, , 
62.52, 0.061602, , 
62.55, 0.061596, , 
62.58, 0.061434, , 
62.61, 0.061164, , 
62.64, 0.061079, , 
62.67, 0.061034, , 
62.70, 0.060911, , 
62.73, 0.060676, , 
62.76, 0.060619, , 
62.79, 0.060565, , 
62.82, 0.060298, , 
62.85, 0.060095, , 
62.88, 0.060086, , 
62.91, 0.060083, , 
62.94, 0.059981, , 
62.97, 0.059908, , 
63.00, 0.059870, , 
63.03, 0.059737, , 
63.06, 0.059540, , 
63.09, 0.059486, , 
63.12, 0.059550, , 
63.15, 0.059648, , 
63.18, 0.059556, , 
63.21, 0.059433, , 
63.24, 0.059525, , 
63.27, 0.059597, , 
63.30, 0.059537, , 
63.33, 0.059531, , 
63.36, 0.059591, , 
63.39, 0.059597, , 
63.42, 0.059582, , 
63.45, 0.059566, , 
63.48, 0.059705, , 
63.51, 0.059892, , 
63.54, 0.059883, , 
63.57, 0.059937, , 
63.60, 0.060013, , 
63.63, 0.060016, , 
63.66, 0.059870, , 
63.69, 0.059832, , 
63.72, 0.059724, , 
63.75, 0.059540, , 
63.78, 0.059464, , 
63.81, 0.059502, , 
63.84, 0.059559, , 
63.87, 0.059464, , 
63.90, 0.059245, , 
63.93, 0.059112, , 
63.96, 0.059090, , 
63.99, 0.059011, 20, 0.587
64.00, 0.058966, , 
64.02, 0.058763, , 
64.05, 0.058649, , 
64.08, 0.058560, , 
64.11, 0.058319, , 
64.14, 0.058053, , 
64.17, 0.058065, , 
64.20, 0.058084, , 
64.23, 0.057856, , 
64.26, 0.057650, , 
64.29, 0.057590, , 
64.32, 0.057609, , 
64.35, 0.057580, , 
64.38, 0.057571, , 
64.41, 0.057596, , 
64.44, 0.057583, , 
64.47, 0.057453, , 
64.50, 0.057279, , 
64.53, 0.057276, , 
64.56, 0.057269, , 
64.59, 0.057142, , 
64.62, 0.057076, , 
64.65, 0.057092, , 
64.68, 0.057104, , 
64.71, 0.057063, , 
64.74, 0.057063, , 
64.77, 0.056981, , 
64.80, 0.056778, , 
64.83, 0.056584, , 
64.86, 0.056590, , 
64.89, 0.056568, , 
64.92, 0.056438, , 
64.95, 0.056172, , 
64.98, 0.056061, , 
65.01, 0.056159, , 
65.04, 0.056023, , 
65.07, 0.055766, , 
65.10, 0.055709, , 
65.13, 0.055712, , 
65.16, 0.055607, , 
65.19, 0.055512, , 
65.22, 0.055464, , 
65.25, 0.055369, , 
65.28, 0.055157, , 
65.31, 0.055074, , 
65.34, 0.055024, , 
65.37, 0.054909, , 
65.40, 0.054697, , 
65.43, 0.054570, , 
65.46, 0.054583, , 
65.49, 0.054500, , 
65.52, 0.054338, , 
65.55, 0.054288, , 
65.58, 0.054253, , 
65.61, 0.054047, , 
65.64, 0.053806, , 
65.67, 0.053637, , 
65.70, 0.053701, , 
65.73, 0.053593, , 
65.76, 0.053361, , 
65.79, 0.053206, , 
65.82, 0.053184, , 
65.85, 0.053089, , 
65.88, 0.052981, , 
65.91, 0.052857, , 
65.94, 0.052787, , 
65.97, 0.052778, , 
66.00, 0.052584, , 
66.03, 0.052562, , 
66.06, 0.052613, , 
66.09, 0.052340, , 
66.12, 0.052223, , 
66.15, 0.052194, , 
66.18, 0.052197, , 
66.21, 0.052099, , 
66.24, 0.051845, , 
66.27, 0.051817, , 
66.30, 0.051839, , 
66.33, 0.051664, , 
66.36, 0.051553, , 
66.39, 0.051455, , 
66.42, 0.051506, , 
66.45, 0.051309, , 
66.48, 0.051186, , 
66.51, 0.051138, , 
66.54, 0.050995, , 
66.57, 0.050875, , 
66.60, 0.050710, , 
66.63, 0.050637, , 
66.66, 0.050653, , 
66.69, 0.050513, , 
66.72, 0.050329, , 
66.75, 0.050272, , 
66.78, 0.050247, , 
66.81, 0.050123, , 
66.84, 0.049917, , 
66.87, 0.049796, , 
66.90, 0.049749, , 
66.93, 0.049619, , 
66.96, 0.049469, , 
66.99, 0.049352, , 
67.02, 0.049298, , 
67.05, 0.049162, , 
67.08, 0.049095, , 
67.11, 0.049073, , 
67.14, 0.048959, , 
67.17, 0.048737, , 
67.19, 0.048635, 21, 0.585
67.20, 0.048585, , 
67.23, 0.048667, , 
67.26, 0.048692, , 
67.29, 0.048632, , 
67.32, 0.048623, , 
67.35, 0.048588, , 
67.38, 0.048404, , 
67.41, 0.048172, , 
67.44, 0.048144, , 
67.47, 0.048071, , 
67.50, 0.047868, , 
67.53, 0.047725, , 
67.56, 0.047687, , 
67.59, 0.047795, , 
67.62, 0.047604, , 
67.65, 0.047465, , 
67.68, 0.047411, , 
67.71, 0.047335, , 
67.74, 0.047148, , 
67.77, 0.046922, , 
67.80, 0.046846, , 
67.83, 0.046846, , 
67.86, 0.046675, , 
67.89, 0.046443, , 
67.92, 0.046409, , 
67.95, 0.046380, , 
67.99, 0.046247, , 
68.01, 0.046177, , 
68.04, 0.046082, , 
68.07, 0.046133, , 
68.10, 0.045822, , 
68.13, 0.045711, , 
68.16, 0.045679, , 
68.19, 0.045603, , 
68.22, 0.045425, , 
68.25, 0.045292, , 
68.28, 0.045248, , 
68.31, 0.045206, , 
68.34, 0.045089, , 
68.37, 0.045019, , 
68.40, 0.044997, , 
68.43, 0.044832, , 
68.46, 0.044702, , 
68.49, 0.044585, , 
68.52, 0.044540, , 
68.55, 0.044429, , 
68.58, 0.044226, , 
68.61, 0.044160, , 
68.64, 0.044179, , 
68.67, 0.044065, , 
68.70, 0.043842, , 
68.73, 0.043763, , 
68.76, 0.043858, , 
68.79, 0.043754, , 
68.82, 0.043430, , 
68.85, 0.043313, , 
68.88, 0.043262, , 
68.91, 0.043040, , 
68.94, 0.042913, , 
68.97, 0.042862, , 
69.00, 0.042774, , 
69.03, 0.042624, , 
69.06, 0.042453, , 
69.10, 0.042415, , 
69.12, 0.042291, , 
69.15, 0.042092, , 
69.18, 0.042054, , 
69.21, 0.042034, , 
69.24, 0.041923, , 
69.27, 0.041619, , 
69.30, 0.041549, , 
69.33, 0.041483, , 
69.36, 0.041613, , 
69.39, 0.041441, , 
69.42, 0.041184, , 
69.45, 0.041169, , 
69.48, 0.041089, , 
69.51, 0.040956, , 
69.54, 0.040924, , 
69.57, 0.040905, , 
69.61, 0.040709, , 
69.63, 0.040569, , 
69.66, 0.040518, , 
69.69, 0.040528, , 
69.72, 0.040506, , 
69.75, 0.040455, , 
69.78, 0.040401, , 
69.81, 0.040426, , 
69.84, 0.040268, , 
69.87, 0.040093, , 
69.90, 0.040074, , 
69.93, 0.040049, , 
69.96, 0.040036, , 
69.99, 0.039805, , 
70.02, 0.039744, , 
70.05, 0.039738, , 
70.08, 0.039608, , 
70.11, 0.039487, , 
70.14, 0.039579, , 
70.17, 0.039640, , 
70.20, 0.039421, , 
70.23, 0.039361, , 
70.26, 0.039269, , 
70.29, 0.039167, , 
70.32, 0.039072, , 
70.35, 0.038974, , 
70.38, 0.038939, 22, 0.584
70.39, 0.038945, , 
70.41, 0.038853, , 
70.44, 0.038704, , 
70.47, 0.038650, , 
70.50, 0.038641, , 
70.53, 0.038634, , 
70.56, 0.038311, , 
70.59, 0.038247, , 
70.62, 0.038244, , 
70.65, 0.038254, , 
70.68, 0.038181, , 
70.71, 0.038038, , 
70.74, 0.038003, , 
70.77, 0.037844, , 
70.80, 0.037625, , 
70.83, 0.037565, , 
70.86, 0.037638, , 
70.89, 0.037635, , 
70.92, 0.037476, , 
70.95, 0.037445, , 
70.98, 0.037407, , 
71.01, 0.037299, , 
71.04, 0.037118, , 
71.07, 0.037074, , 
71.10, 0.037020, , 
71.13, 0.036826, , 
71.16, 0.036750, , 
71.19, 0.036718, , 
71.22, 0.036579, , 
71.25, 0.036382, , 
71.28, 0.036223, , 
71.31, 0.036198, , 
71.34, 0.036217, , 
71.37, 0.036189, , 
71.40, 0.035986, , 
71.43, 0.035932, , 
71.46, 0.036014, , 
71.49, 0.035798, , 
71.52, 0.035580, , 
71.55, 0.035583, , 
71.58, 0.035586, , 
71.61, 0.035446, , 
71.64, 0.035323, , 
71.67, 0.035304, , 
71.70, 0.035323, , 
71.73, 0.035148, , 
71.76, 0.035005, , 
71.79, 0.035047, , 
71.82, 0.035072, , 
71.85, 0.034917, , 
71.88, 0.034806, , 
71.91, 0.034768, , 
71.94, 0.034599, , 
71.97, 0.034435, , 
72.00, 0.034514, , 
72.03, 0.034663, , 
72.06, 0.034707, , 
72.09, 0.034768, , 
72.12, 0.034904, , 
72.15, 0.035015, , 
72.18, 0.035034, , 
72.21, 0.034971, , 
72.24, 0.035069, , 
72.27, 0.035091, , 
72.31, 0.034879, , 
72.33, 0.034679, , 
72.36, 0.034628, , 
72.39, 0.034644, , 
72.42, 0.034517, , 
72.45, 0.034501, , 
72.48, 0.034555, , 
72.51, 0.034504, , 
72.54, 0.034257, , 
72.57, 0.033952, , 
72.60, 0.033806, , 
72.63, 0.033632, , 
72.66, 0.033458, , 
72.69, 0.033343, , 
72.72, 0.033261, , 
72.75, 0.033150, , 
72.78, 0.033004, , 
72.81, 0.032918, , 
72.84, 0.032928, , 
72.87, 0.032839, , 
72.90, 0.032630, , 
72.93, 0.032512, , 
72.96, 0.032531, , 
72.99, 0.032449, , 
73.02, 0.032344, , 
73.05, 0.032332, , 
73.08, 0.032427, , 
73.11, 0.032436, , 
73.14, 0.032316, , 
73.17, 0.032382, , 
73.20, 0.032293, , 
73.23, 0.032211, , 
73.26, 0.031995, , 
73.29, 0.031868, , 
73.32, 0.031865, , 
73.35, 0.031887, , 
73.38, 0.031815, , 
73.41, 0.031837, , 
73.44, 0.031872, , 
73.47, 0.031849, , 
73.50, 0.031773, , 
73.53, 0.031837, , 
73.56, 0.031713, , 
73.59, 0.031554, 23, 0.588
73.59, 0.031535, , 
73.62, 0.031450, , 
73.65, 0.031412, , 
73.68, 0.031408, , 
73.71, 0.031310, , 
73.74, 0.031215, , 
73.77, 0.031282, , 
73.80, 0.031237, , 
73.83, 0.031018, , 
73.86, 0.030930, , 
73.89, 0.030860, , 
73.92, 0.030936, , 
73.95, 0.030730, , 
73.98, 0.030536, , 
74.01, 0.030495, , 
74.04, 0.030422, , 
74.07, 0.030295, , 
74.10, 0.030225, , 
74.13, 0.030263, , 
74.16, 0.030124, , 
74.19, 0.029883, , 
74.22, 0.029772, , 
74.25, 0.029845, , 
74.28, 0.029832, , 
74.31, 0.029715, , 
74.34, 0.029677, , 
74.37, 0.029588, , 
74.40, 0.029442, , 
74.43, 0.029328, , 
74.46, 0.029286, , 
74.49, 0.029321, , 
74.52, 0.029280, , 
74.55, 0.029239, , 
74.58, 0.029220, , 
74.61, 0.029306, , 
74.64, 0.029239, , 
74.67, 0.029179, , 
74.70, 0.029252, , 
74.73, 0.029293, , 
74.76, 0.029175, , 
74.79, 0.029125, , 
74.82, 0.029118, , 
74.86, 0.029020, , 
74.88, 0.028852, , 
74.91, 0.028754, , 
74.94, 0.028874, , 
74.97, 0.028811, , 
75.00, 0.028855, , 
75.03, 0.028766, , 
75.06, 0.028766, , 
75.09, 0.028592, , 
75.12, 0.028348, , 
75.15, 0.028262, , 
75.18, 0.028275, , 
75.21, 0.028360, , 
75.24, 0.028164, , 
75.27, 0.028211, , 
75.30, 0.028360, , 
75.33, 0.028297, , 
75.36, 0.028202, , 
75.39, 0.028224, , 
75.42, 0.028189, , 
75.45, 0.028027, , 
75.48, 0.027805, , 
75.51, 0.027913, , 
75.54, 0.027846, , 
75.57, 0.027754, , 
75.61, 0.027672, , 
75.63, 0.027713, , 
75.66, 0.027729, , 
75.69, 0.027701, , 
75.72, 0.027631, , 
75.75, 0.027574, , 
75.78, 0.027513, , 
75.81, 0.027367, , 
75.84, 0.027247, , 
75.87, 0.027263, , 
75.90, 0.027380, , 
75.93, 0.027298, , 
75.96, 0.027155, , 
75.99, 0.027241, , 
76.02, 0.027298, , 
76.05, 0.027196, , 
76.08, 0.027076, , 
76.11, 0.027025, , 
76.14, 0.026993, , 
76.17, 0.026892, , 
76.20, 0.026755, , 
76.23, 0.026803, , 
76.26, 0.026803, , 
76.29, 0.026730, , 
76.32, 0.026581, , 
76.35, 0.026552, , 
76.38, 0.026508, , 
76.41, 0.026340, , 
76.44, 0.026378, , 
76.47, 0.026387, , 
76.50, 0.026210, , 
76.54, 0.026203, , 
76.56, 0.026286, , 
76.59, 0.026299, , 
76.62, 0.026295, , 
76.65, 0.026219, , 
76.68, 0.026327, , 
76.71, 0.026330, , 
76.74, 0.026137, , 
76.77, 0.025975, , 
76.79, 0.025908, 24, 0.585
76.80, 0.025896, , 
76.83, 0.025829, , 
76.86, 0.025785, , 
76.89, 0.025801, , 
76.92, 0.025854, , 
76.95, 0.025880, , 
76.98, 0.025766, , 
77.01, 0.025648, , 
77.04, 0.025680, , 
77.07, 0.025553, , 
77.10, 0.025369, , 
77.13, 0.025318, , 
77.16, 0.025344, , 
77.19, 0.025344, , 
77.22, 0.025258, , 
77.25, 0.025138, , 
77.28, 0.025061, , 
77.31, 0.024969, , 
77.34, 0.024877, , 
77.37, 0.024817, , 
77.40, 0.024887, , 
77.43, 0.024909, , 
77.46, 0.024754, , 
77.50, 0.024782, , 
77.52, 0.024846, , 
77.55, 0.024931, , 
77.58, 0.024830, , 
77.61, 0.024795, , 
77.64, 0.024922, , 
77.67, 0.024900, , 
77.70, 0.024830, , 
77.73, 0.024824, , 
77.76, 0.024906, , 
77.79, 0.024922, , 
77.82, 0.024795, , 
77.85, 0.024770, , 
77.88, 0.024773, , 
77.91, 0.024573, , 
77.94, 0.024418, , 
77.97, 0.024402, , 
78.00, 0.024421, , 
78.03, 0.024354, , 
78.06, 0.024275, , 
78.09, 0.024303, , 
78.12, 0.024376, , 
78.15, 0.024249, , 
78.18, 0.024221, , 
78.21, 0.024272, , 
78.24, 0.024180, , 
78.27, 0.023970, , 
78.30, 0.023875, , 
78.33, 0.023897, , 
78.36, 0.023916, , 
78.39, 0.023818, , 
78.42, 0.023688, , 
78.45, 0.023621, , 
78.48, 0.023580, , 
78.51, 0.023377, , 
78.54, 0.023298, , 
78.57, 0.023428, , 
78.60, 0.023415, , 
78.63, 0.023330, , 
78.66, 0.023234, , 
78.69, 0.023200, , 
78.72, 0.023006, , 
78.75, 0.022806, , 
78.78, 0.022825, , 
78.81, 0.022800, , 
78.84, 0.022914, , 
78.87, 0.022778, , 
78.90, 0.022844, , 
78.93, 0.022832, , 
78.96, 0.022790, , 
78.99, 0.022717, , 
79.02, 0.022828, , 
79.05, 0.022914, , 
79.08, 0.022933, , 
79.11, 0.022825, , 
79.14, 0.022705, , 
79.17, 0.022822, , 
79.20, 0.022787, , 
79.23, 0.022568, , 
79.26, 0.022375, , 
79.29, 0.022391, , 
79.32, 0.022280, , 
79.35, 0.022270, , 
79.38, 0.022378, , 
79.41, 0.022435, , 
79.44, 0.022378, , 
79.47, 0.022254, , 
79.50, 0.022327, , 
79.53, 0.022368, , 
79.56, 0.022235, , 
79.59, 0.022261, , 
79.62, 0.022356, , 
79.65, 0.022391, , 
79.68, 0.022340, , 
79.71, 0.022238, , 
79.74, 0.022349, , 
79.77, 0.022432, , 
79.80, 0.022188, , 
79.83, 0.022061, , 
79.86, 0.022099, , 
79.89, 0.022007, , 
79.92, 0.021832, , 
79.96, 0.021782, , 
79.98, 0.021807, , 
79.99, 0.021791, 25, 0.586
80.01, 0.021620, , 
80.04, 0.021388, , 
80.07, 0.021417, , 
80.10, 0.021531, , 
80.13, 0.021471, , 
80.16, 0.021284, , 
80.19, 0.021233, , 
80.22, 0.021344, , 
80.25, 0.021176, , 
80.28, 0.020973, , 
80.31, 0.021033, , 
80.34, 0.020970, , 
80.37, 0.020833, , 
80.40, 0.020725, , 
80.43, 0.020748, , 
80.46, 0.020805, , 
80.49, 0.020700, , 
80.52, 0.020706, , 
80.55, 0.020795, , 
80.58, 0.020894, , 
80.61, 0.020738, , 
80.64, 0.020456, , 
80.67, 0.020380, , 
80.70, 0.020437, , 
80.73, 0.020285, , 
80.76, 0.020189, , 
80.79, 0.020250, , 
80.82, 0.020285, , 
80.85, 0.020272, , 
80.88, 0.020174, , 
80.91, 0.020202, , 
80.94, 0.020262, , 
80.97, 0.020253, , 
81.00, 0.020151, , 
81.03, 0.020186, , 
81.06, 0.020205, , 
81.09, 0.020189, , 
81.12, 0.020154, , 
81.15, 0.020300, , 
81.18, 0.020161, , 
81.21, 0.020094, , 
81.24, 0.020031, , 
81.27, 0.020151, , 
81.30, 0.020259, , 
81.33, 0.020148, , 
81.36, 0.020186, , 
81.39, 0.020253, , 
81.42, 0.020240, , 
81.45, 0.020158, , 
81.48, 0.020167, , 
81.51, 0.020246, , 
81.54, 0.020186, , 
81.57, 0.019996, , 
81.60, 0.019898, , 
81.63, 0.019850, , 
81.66, 0.019783, , 
81.69, 0.019631, , 
81.72, 0.019660, , 
81.75, 0.019742, , 
81.78, 0.019672, , 
81.81, 0.019488, , 
81.84, 0.019647, , 
81.87, 0.019764, , 
81.90, 0.019739, , 
81.93, 0.019612, , 
81.96, 0.019685, , 
81.99, 0.019774, , 
82.02, 0.019752, , 
82.05, 0.019596, , 
82.08, 0.019428, , 
82.11, 0.019473, , 
82.14, 0.019361, , 
82.17, 0.019111, , 
82.20, 0.019200, , 
82.23, 0.019171, , 
82.26, 0.019168, , 
82.29, 0.019089, , 
82.32, 0.019076, , 
82.35, 0.019273, , 
82.38, 0.019171, , 
82.41, 0.019066, , 
82.44, 0.019155, , 
82.47, 0.019228, , 
82.50, 0.019136, , 
82.53, 0.019149, , 
82.56, 0.019285, , 
82.59, 0.019241, , 
82.62, 0.019158, , 
82.65, 0.019162, , 
82.68, 0.019247, , 
82.71, 0.019266, , 
82.74, 0.019219, , 
82.77, 0.019197, , 
82.80, 0.019289, , 
82.83, 0.019187, , 
82.86, 0.019143, , 
82.89, 0.019098, , 
82.92, 0.019184, , 
82.95, 0.019228, , 
82.98, 0.019171, , 
83.01, 0.019162, , 
83.04, 0.019222, , 
83.07, 0.019197, , 
83.10, 0.019070, , 
83.13, 0.019070, , 
83.16, 0.019219, , 
83.18, 0.019168, 26, 0.584
83.19, 0.019143, , 
83.22, 0.019079, , 
83.25, 0.019158, , 
83.28, 0.019228, , 
83.31, 0.019197, , 
83.34, 0.019136, , 
83.37, 0.019206, , 
83.41, 0.019190, , 
83.43, 0.019117, , 
83.46, 0.019086, , 
83.49, 0.019241, , 
83.52, 0.019298, , 
83.55, 0.019197, , 
83.58, 0.019054, , 
83.61, 0.019124, , 
83.64, 0.019158, , 
83.67, 0.019184, , 
83.70, 0.019073, , 
83.73, 0.019076, , 
83.76, 0.019149, , 
83.79, 0.019060, , 
83.82, 0.019044, , 
83.85, 0.019057, , 
83.88, 0.019181, , 
83.91, 0.019086, , 
83.94, 0.019073, , 
83.97, 0.019197, , 
84.00, 0.019149, , 
84.03, 0.019095, , 
84.06, 0.019054, , 
84.09, 0.019105, , 
84.12, 0.019108, , 
84.15, 0.019051, , 
84.18, 0.019117, , 
84.21, 0.019206, , 
84.24, 0.019174, , 
84.27, 0.019086, , 
84.30, 0.019070, , 
84.33, 0.019155, , 
84.36, 0.019193, , 
84.39, 0.019127, , 
84.42, 0.019070, , 
84.45, 0.019257, , 
84.48, 0.019225, , 
84.51, 0.019111, , 
84.54, 0.019035, , 
84.57, 0.018975, , 
84.60, 0.018848, , 
84.63, 0.018648, , 
84.66, 0.018572, , 
84.69, 0.018657, , 
84.72, 0.018591, , 
84.75, 0.018499, , 
84.78, 0.018591, , 
84.81, 0.018667, , 
84.84, 0.018667, , 
84.87, 0.018527, , 
84.90, 0.018613, , 
84.93, 0.018645, , 
84.96, 0.018667, , 
84.99, 0.018569, , 
85.02, 0.018635, , 
85.05, 0.018603, , 
85.08, 0.018505, , 
85.11, 0.018527, , 
85.14, 0.018607, , 
85.17, 0.018686, , 
85.20, 0.018654, , 
85.23, 0.018477, , 
85.26, 0.018616, , 
85.29, 0.018616, , 
85.32, 0.018549, , 
85.35, 0.018556, , 
85.38, 0.018660, , 
85.41, 0.018645, , 
85.44, 0.018597, , 
85.47, 0.018530, , 
85.50, 0.018680, , 
85.53, 0.018714, , 
85.56, 0.018569, , 
85.59, 0.018648, , 
85.62, 0.018724, , 
85.65, 0.018603, , 
85.68, 0.018556, , 
85.71, 0.018648, , 
85.74, 0.018772, , 
85.77, 0.018667, , 
85.80, 0.018524, , 
85.83, 0.018559, , 
85.86, 0.018654, , 
85.89, 0.018635, , 
85.92, 0.018534, , 
85.95, 0.018483, , 
85.98, 0.018502, , 
86.01, 0.018578, , 
86.04, 0.018426, , 
86.07, 0.018391, , 
86.10, 0.018308, , 
86.13, 0.018194, , 
86.16, 0.018131, , 
86.19, 0.018178, , 
86.22, 0.018274, , 
86.25, 0.018172, , 
86.28, 0.018077, , 
86.31, 0.018166, , 
86.34, 0.018204, , 
86.37, 0.018124, , 
86.38, 0.018115, 27, 0.586
86.40, 0.018083, , 
86.43, 0.018172, , 
86.46, 0.018289, , 
86.49, 0.018131, , 
86.52, 0.018071, , 
86.55, 0.018204, , 
86.58, 0.018327, , 
86.61, 0.018216, , 
86.64, 0.018093, , 
86.67, 0.018235, , 
86.70, 0.018258, , 
86.73, 0.018162, , 
86.76, 0.018194, , 
86.79, 0.018235, , 
86.82, 0.018213, , 
86.85, 0.018102, , 
86.88, 0.018242, , 
86.91, 0.018340, , 
86.94, 0.018185, , 
86.97, 0.018118, , 
87.00, 0.018112, , 
87.03, 0.018197, , 
87.06, 0.018226, , 
87.09, 0.018172, , 
87.12, 0.018112, , 
87.15, 0.018124, , 
87.18, 0.018204, , 
87.22, 0.018083, , 
87.24, 0.018090, , 
87.27, 0.018220, , 
87.30, 0.018274, , 
87.33, 0.018182, , 
87.36, 0.018216, , 
87.39, 0.018182, , 
87.42, 0.018143, , 
87.45, 0.018134, , 
87.48, 0.018166, , 
87.51, 0.018147, , 
87.54, 0.018185, , 
87.57, 0.018102, , 
87.60, 0.018080, , 
87.63, 0.018188, , 
87.66, 0.018172, , 
87.69, 0.018083, , 
87.72, 0.018143, , 
87.75, 0.018223, , 
87.78, 0.018229, , 
87.81, 0.018077, , 
87.84, 0.018286, , 
87.87, 0.018334, , 
87.90, 0.018128, , 
87.93, 0.018051, , 
87.96, 0.018121, , 
87.99, 0.018172, , 
88.02, 0.018093, , 
88.05, 0.018023, , 
88.08, 0.018166, , 
88.11, 0.018232, , 
88.14, 0.018178, , 
88.17, 0.018207, , 
88.20, 0.018251, , 
88.23, 0.018254, , 
88.26, 0.018156, , 
88.29, 0.018102, , 
88.32, 0.018261, , 
88.35, 0.018188, , 
88.38, 0.018137, , 
88.41, 0.018169, , 
88.44, 0.018258, , 
88.47, 0.018182, , 
88.50, 0.018124, , 
88.53, 0.018175, , 
88.56, 0.018210, , 
88.59, 0.018194, , 
88.62, 0.018042, , 
88.65, 0.018162, , 
88.68, 0.018172, , 
88.71, 0.018245, , 
88.74, 0.018350, , 
88.77, 0.018521, , 
88.80, 0.018607, , 
88.83, 0.018622, , 
88.86, 0.018588, , 
88.89, 0.018616, , 
88.92, 0.018651, , 
88.95, 0.018708, , 
88.98, 0.018683, , 
89.01, 0.018641, , 
89.04, 0.018689, , 
89.07, 0.018629, , 
89.10, 0.018619, , 
89.13, 0.018676, , 
89.16, 0.018676, , 
89.19, 0.018844, , 
89.22, 0.018581, , 
89.25, 0.018711, , 
89.28, 0.018810, , 
89.31, 0.018810, , 
89.34, 0.018648, , 
89.37, 0.018616, , 
89.40, 0.018464, , 
89.43, 0.018251, , 
89.46, 0.018150, , 
89.49, 0.018213, , 
89.52, 0.018226, , 
89.55, 0.018124, , 
89.58, 0.018131, , 
89.61, 0.018191, , 
89.64, 0.018223, , 
89.67, 0.018102, , 
89.70, 0.018121, , 
89.73, 0.018226, , 
89.76, 0.018261, , 
89.79, 0.018178, , 
89.82, 0.018254, , 
89.85, 0.018293, , 
89.88, 0.018242, , 
89.91, 0.018143, , 
89.94, 0.018112, , 
89.97, 0.018299, , 
90.00, 0.018258, , 
90.03, 0.018162, , 
90.06, 0.018220, , 
90.09, 0.018296, , 
90.12, 0.018220, , 
90.15, 0.018124, , 
90.18, 0.018118, , 
90.21, 0.018251, , 
90.24, 0.018305, , 
90.27, 0.018166, , 
90.30, 0.018229, , 
90.33, 0.018343, , 
90.36, 0.018270, , 
90.39, 0.018064, , 
90.42, 0.018090, , 
90.45, 0.018331, , 
90.48, 0.018166, , 
90.51, 0.018159, , 
90.54, 0.018204, , 
90.57, 0.018312, , 
90.60, 0.018239, , 
90.63, 0.018178, , 
90.66, 0.018239, , 
90.69, 0.018258, , 
90.72, 0.018223, , 
90.75, 0.018162, , 
90.78, 0.018182, , 
90.81, 0.018194, , 
90.84, 0.018210, , 
90.87, 0.018115, , 
90.90, 0.018185, , 
90.93, 0.018274, , 
90.96, 0.018226, , 
90.99, 0.018175, , 
91.02, 0.018166, , 
91.05, 0.018191, , 
91.08, 0.018147, , 
91.11, 0.018023, , 
91.14, 0.018112, , 
91.17, 0.018220, , 
91.20, 0.018124, , 
91.23, 0.018077, , 
91.26, 0.018204, , 
91.29, 0.018239, , 
91.32, 0.018182, , 
91.35, 0.018191, , 
91.38, 0.018289, , 
91.41, 0.018201, , 
91.44, 0.018156, , 
91.47, 0.018156, , 
91.50, 0.018118, , 
91.53, 0.018194, , 
91.56, 0.018140, , 
91.59, 0.018128, , 
91.62, 0.018207, , 
91.65, 0.018153, , 
91.68, 0.018061, , 
91.71, 0.018156, , 
91.74, 0.018293, , 
91.77, 0.018248, , 
91.80, 0.018128, , 
91.83, 0.018172, , 
91.86, 0.018264, , 
91.89, 0.018204, , 
91.92, 0.018150, , 
91.95, 0.018178, , 
91.98, 0.018112, , 
92.01, 0.018178, , 
92.04, 0.018118, , 
92.07, 0.018213, , 
92.10, 0.018254, , 
92.13, 0.018232, , 
92.16, 0.018235, , 
92.19, 0.018229, , 
92.23, 0.018169, , 
92.25, 0.018169, , 
92.28, 0.018105, , 
92.31, 0.018232, , 
92.34, 0.018350, , 
92.37, 0.018182, , 
92.40, 0.018140, , 
92.44, 0.018191, , 
92.46, 0.018229, , 
92.49, 0.018188, , 
92.52, 0.018159, , 
92.55, 0.018185, , 
92.58, 0.018277, , 
92.61, 0.018172, , 
92.64, 0.018185, , 
92.67, 0.018267, , 
92.70, 0.018302, , 
92.73, 0.018286, , 
92.76, 0.018197, , 
92.79, 0.018194, , 
92.82, 0.018289, , 
92.85, 0.018175, , 
92.88, 0.018166, , 
92.91, 0.018293, , 
92.94, 0.018280, , 
92.98, 0.018115, , 
93.00, 0.018143, , 
93.03, 0.018242, , 
93.06, 0.018302, , 
93.09, 0.018229, , 
93.12, 0.018188, , 
93.15, 0.018274, , 
93.18, 0.018270, , 
93.21, 0.018324, , 
93.24, 0.018099, , 
93.27, 0.018194, , 
93.30, 0.018242, , 
93.33, 0.018162, , 
93.36, 0.018210, , 
93.39, 0.018239, , 
93.42, 0.018350, , 
93.45, 0.018207, , 
93.48, 0.018261, , 
93.51, 0.018318, , 
93.54, 0.018334, , 
93.57, 0.018201, , 
93.60, 0.018216, , 
93.63, 0.018305, , 
93.66, 0.018251, , 
93.69, 0.018156, , 
93.72, 0.018274, , 
93.75, 0.018400, , 
93.78, 0.018137, , 
93.81, 0.018083, , 
93.84, 0.018182, , 
93.87, 0.018261, , 
93.90, 0.018223, , 
93.93, 0.018143, , 
93.96, 0.018235, , 
93.99, 0.018312, , 
94.02, 0.018204, , 
94.05, 0.018159, , 
94.08, 0.018156, , 
94.11, 0.018277, , 
94.15, 0.018086, , 
94.17, 0.018182, , 
94.20, 0.018216, , 
94.23, 0.018286, , 
94.26, 0.018172, , 
94.29, 0.018166, , 
94.32, 0.018245, , 
94.35, 0.018248, , 
94.38, 0.018162, , 
94.41, 0.018220, , 
94.44, 0.018308, , 
94.47, 0.018261, , 
94.50, 0.018175, , 
94.53, 0.018204, , 
94.56, 0.018248, , 
94.59, 0.018204, , 
94.62, 0.018118, , 
94.65, 0.018137, , 
94.68, 0.018239, , 
94.71, 0.018162, , 
94.74, 0.018083, , 
94.77, 0.018169, , 
94.80, 0.018178, , 
94.84, 0.018220, , 
94.86, 0.018143, , 
94.89, 0.018017, , 
94.92, 0.018115, , 
94.95, 0.018226, , 
94.98, 0.018124, , 
95.01, 0.018096, , 
95.04, 0.018153, , 
95.07, 0.018213, , 
95.10, 0.018143, , 
95.13, 0.018077, , 
95.16, 0.018159, , 
95.19, 0.018216, , 
95.22, 0.018140, , 
95.26, 0.018143, , 
95.28, 0.018166, , 
95.31, 0.018182, , 
95.34, 0.018061, , 
95.37, 0.018064, , 
95.40, 0.018188, , 
95.43, 0.018251, , 
95.46, 0.018274, , 
95.49, 0.018416, , 
95.52, 0.018619, , 
95.55, 0.018600, , 
95.58, 0.018600, , 
95.61, 0.018502, , 
95.64, 0.018530, , 
95.67, 0.018622, , 
95.70, 0.018553, , 
95.73, 0.018524, , 
95.76, 0.018724, , 
95.79, 0.018641, , 
95.82, 0.018622, , 
95.85, 0.018711, , 
95.88, 0.018762, , 
95.91, 0.018651, , 
95.94, 0.018632, , 
95.97, 0.018657, , 
96.00, 0.018626, , 
