Gradient Profiler Text Data File: 2025_1_28_C5_SH.csv
Date: 2025-01-28
Time: 18:20:59

User: Jared
Experiment name: 
UV Unit: EM-1
Rotor Manufacturer: Beckman
Rotor Model: SW28.1
Speed: 28 rpm
Gradient: sucrose 10.0% to 50.0% w/v
Time: 4
w2t:  x 10^0
Sample Volume: 18 ml
Number of Tubes: 6
Volume per mm: 0.183 ml/mm

Absorbance Units Full Scale (AUFS): 2.00
Event Mark-triggered gradient; (with distance; auto start and stop)
Delay: No Delay
UV Wavelength: 254 nm
Samples / sec: 10 Hz
EM1 Speed: 0.30 mm/sec
Distance: 3.20 mm
Number: 30
Dead Volume: 0.000000 ml; Distance due to Dead Volume: 0.00 mm
Total Distance: 96.00 mm

Data Columns:
Distance(mm), Absorbance, Fraction Number, Fraction Volume(ml)
0.00, 0.072390, 0, 0.000
0.03, 0.072409, , 
0.06, 0.072317, , 
0.09, 0.072282, , 
0.12, 0.072368, , 
0.15, 0.072399, , 
0.18, 0.072330, , 
0.21, 0.072345, , 
0.24, 0.072425, , 
0.27, 0.072422, , 
0.30, 0.072349, , 
0.33, 0.072393, , 
0.36, 0.072444, , 
0.39, 0.072365, , 
0.42, 0.072301, , 
0.45, 0.072323, , 
0.48, 0.072472, , 
0.51, 0.072460, , 
0.54, 0.072336, , 
0.57, 0.072387, , 
0.60, 0.072437, , 
0.63, 0.072450, , 
0.66, 0.072437, , 
0.69, 0.072393, , 
0.72, 0.072457, , 
0.75, 0.072384, , 
0.78, 0.072276, , 
0.81, 0.072292, , 
0.84, 0.072637, , 
0.87, 0.074417, , 
0.90, 0.080589, , 
0.93, 0.096151, , 
0.97, 0.133180, , 
0.99, 0.182202, , 
1.02, 0.243681, , 
1.05, 0.325139, , 
1.08, 0.399442, , 
1.11, 0.476009, , 
1.14, 0.567180, , 
1.17, 0.632982, , 
1.20, 0.712394, , 
1.23, 0.805640, , 
1.26, 0.886273, , 
1.29, 0.967472, , 
1.32, 1.062950, , 
1.35, 1.145278, , 
1.38, 1.227555, , 
1.41, 1.308230, , 
1.44, 1.395597, , 
1.47, 1.458643, , 
1.50, 1.513124, , 
1.53, 1.544307, , 
1.56, 1.565267, , 
1.59, 1.580128, , 
1.62, 1.591626, , 
1.65, 1.602785, , 
1.68, 1.611038, , 
1.71, 1.618664, , 
1.74, 1.627367, , 
1.77, 1.634539, , 
1.80, 1.640087, , 
1.83, 1.647592, , 
1.86, 1.653745, , 
1.89, 1.660498, , 
1.92, 1.665786, , 
1.95, 1.670915, , 
1.98, 1.676586, , 
2.01, 1.680358, , 
2.04, 1.685350, , 
2.07, 1.689420, , 
2.10, 1.693375, , 
2.13, 1.697851, , 
2.16, 1.701492, , 
2.19, 1.704896, , 
2.22, 1.708350, , 
2.25, 1.712080, , 
2.28, 1.714938, , 
2.31, 1.717771, , 
2.34, 1.721016, , 
2.37, 1.723125, , 
2.40, 1.725628, , 
2.43, 1.727616, , 
2.46, 1.729583, , 
2.49, 1.731591, , 
2.52, 1.733056, , 
2.55, 1.734512, , 
2.58, 1.735921, , 
2.61, 1.737062, , 
2.64, 1.737992, , 
2.67, 1.738601, , 
2.70, 1.739213, , 
2.73, 1.739276, , 
2.76, 1.739219, , 
2.79, 1.739007, , 
2.82, 1.738810, , 
2.85, 1.738385, , 
2.88, 1.737729, , 
2.91, 1.736948, , 
2.94, 1.736003, , 
2.97, 1.734890, , 
3.00, 1.733596, , 
3.03, 1.732203, , 
3.06, 1.730576, , 
3.09, 1.728219, , 
3.12, 1.726015, , 
3.15, 1.723268, , 
3.18, 1.720587, 1, 0.582
3.19, 1.720093, , 
3.21, 1.718012, , 
3.24, 1.714190, , 
3.27, 1.710710, , 
3.30, 1.706120, , 
3.33, 1.701765, , 
3.36, 1.697144, , 
3.40, 1.691314, , 
3.42, 1.686911, , 
3.45, 1.679907, , 
3.48, 1.673389, , 
3.51, 1.666738, , 
3.54, 1.659563, , 
3.57, 1.650456, , 
3.60, 1.642203, , 
3.63, 1.632037, , 
3.66, 1.622740, , 
3.69, 1.614566, , 
3.72, 1.602709, , 
3.75, 1.592105, , 
3.78, 1.579195, , 
3.81, 1.567624, , 
3.84, 1.555672, , 
3.87, 1.541468, , 
3.90, 1.530865, , 
3.93, 1.517809, , 
3.96, 1.502622, , 
3.99, 1.489439, , 
4.02, 1.473551, , 
4.05, 1.459788, , 
4.08, 1.446028, , 
4.11, 1.432176, , 
4.14, 1.418105, , 
4.17, 1.401726, , 
4.20, 1.387826, , 
4.23, 1.373819, , 
4.26, 1.357274, , 
4.29, 1.343375, , 
4.32, 1.329589, , 
4.35, 1.315804, , 
4.38, 1.301987, , 
4.41, 1.288259, , 
4.44, 1.272644, , 
4.47, 1.259372, , 
4.50, 1.243865, , 
4.53, 1.230752, , 
4.56, 1.217858, , 
4.59, 1.202871, , 
4.62, 1.192245, , 
4.65, 1.177612, , 
4.68, 1.165309, , 
4.71, 1.153100, , 
4.74, 1.138864, , 
4.77, 1.126947, , 
4.80, 1.113263, , 
4.83, 1.101486, , 
4.86, 1.089861, , 
4.89, 1.078528, , 
4.92, 1.067321, , 
4.95, 1.056131, , 
4.98, 1.043230, , 
5.01, 1.032468, , 
5.04, 1.021883, , 
5.07, 1.011302, , 
5.10, 0.999036, , 
5.13, 0.988762, , 
5.16, 0.976911, , 
5.19, 0.968500, , 
5.22, 0.958441, , 
5.25, 0.946892, , 
5.28, 0.937110, , 
5.31, 0.927372, , 
5.34, 0.916128, , 
5.37, 0.906707, , 
5.40, 0.897353, , 
5.43, 0.886476, , 
5.46, 0.877281, , 
5.49, 0.868260, , 
5.52, 0.859236, , 
5.55, 0.850212, , 
5.58, 0.841311, , 
5.61, 0.831234, , 
5.64, 0.822587, , 
5.67, 0.813979, , 
5.70, 0.804051, , 
5.73, 0.795712, , 
5.76, 0.787442, , 
5.79, 0.777838, , 
5.82, 0.769759, , 
5.85, 0.761956, , 
5.88, 0.752684, , 
5.91, 0.746061, , 
5.94, 0.737034, , 
5.97, 0.729424, , 
6.00, 0.720641, , 
6.03, 0.713175, , 
6.06, 0.706996, , 
6.09, 0.698530, , 
6.12, 0.691146, , 
6.15, 0.682670, , 
6.18, 0.675632, , 
6.21, 0.668672, , 
6.24, 0.660454, , 
6.27, 0.654671, , 
6.30, 0.646897, , 
6.33, 0.640192, , 
6.36, 0.633505, , 
6.39, 0.626955, 2, 0.587
6.39, 0.625854, , 
6.42, 0.619412, , 
6.46, 0.611949, , 
6.48, 0.606607, , 
6.51, 0.600238, , 
6.54, 0.593031, , 
6.57, 0.586919, , 
6.60, 0.579785, , 
6.63, 0.573762, , 
6.66, 0.567903, , 
6.69, 0.562118, , 
6.72, 0.556265, , 
6.75, 0.549484, , 
6.78, 0.543850, , 
6.81, 0.538192, , 
6.85, 0.531591, , 
6.87, 0.526950, , 
6.90, 0.520587, , 
6.93, 0.515141, , 
6.96, 0.508778, , 
7.00, 0.503503, , 
7.02, 0.498292, , 
7.05, 0.493011, , 
7.08, 0.487777, , 
7.11, 0.481811, , 
7.14, 0.476846, , 
7.17, 0.471768, , 
7.20, 0.466005, , 
7.24, 0.461168, , 
7.26, 0.456470, , 
7.29, 0.451680, , 
7.32, 0.446973, , 
7.35, 0.441622, , 
7.38, 0.437045, , 
7.41, 0.432395, , 
7.44, 0.427117, , 
7.47, 0.423472, , 
7.50, 0.418385, , 
7.53, 0.413969, , 
7.56, 0.408891, , 
7.59, 0.404752, , 
7.62, 0.400606, , 
7.65, 0.396365, , 
7.68, 0.392270, , 
7.71, 0.387557, , 
7.74, 0.383538, , 
7.77, 0.379493, , 
7.80, 0.374929, , 
7.84, 0.371075, , 
7.86, 0.367123, , 
7.89, 0.363244, , 
7.92, 0.359488, , 
7.95, 0.355282, , 
7.98, 0.351663, , 
8.01, 0.347333, , 
8.04, 0.344459, , 
8.07, 0.341123, , 
8.10, 0.336939, , 
8.13, 0.333307, , 
8.16, 0.329386, , 
8.19, 0.326075, , 
8.22, 0.322751, , 
8.25, 0.319382, , 
8.28, 0.316093, , 
8.31, 0.312404, , 
8.34, 0.309146, , 
8.37, 0.305984, , 
8.40, 0.302450, , 
8.43, 0.299427, , 
8.46, 0.296319, , 
8.49, 0.293255, , 
8.52, 0.290340, , 
8.55, 0.286993, , 
8.58, 0.283999, , 
8.61, 0.281078, , 
8.64, 0.277823, , 
8.67, 0.275000, , 
8.70, 0.272212, , 
8.73, 0.269126, , 
8.76, 0.266960, , 
8.79, 0.264320, , 
8.82, 0.261171, , 
8.85, 0.258497, , 
8.88, 0.255683, , 
8.91, 0.253143, , 
8.94, 0.250608, , 
8.97, 0.248217, , 
9.00, 0.245819, , 
9.03, 0.243034, , 
9.06, 0.240591, , 
9.09, 0.238209, , 
9.12, 0.235583, , 
9.15, 0.233264, , 
9.18, 0.230949, , 
9.21, 0.228830, , 
9.24, 0.226809, , 
9.27, 0.224351, , 
9.30, 0.222172, , 
9.33, 0.220091, , 
9.37, 0.217747, , 
9.39, 0.215698, , 
9.42, 0.213595, , 
9.45, 0.211609, , 
9.48, 0.209414, , 
9.51, 0.207410, , 
9.54, 0.205116, , 
9.57, 0.203562, , 
9.59, 0.202300, 3, 0.586
9.60, 0.201637, , 
9.63, 0.199407, , 
9.66, 0.197640, , 
9.69, 0.195626, , 
9.72, 0.193894, , 
9.76, 0.192083, , 
9.78, 0.190196, , 
9.81, 0.188419, , 
9.84, 0.186754, , 
9.87, 0.184981, , 
9.90, 0.182913, , 
9.93, 0.181327, , 
9.96, 0.179484, , 
9.99, 0.177844, , 
10.02, 0.176182, , 
10.05, 0.174463, , 
10.08, 0.173264, , 
10.11, 0.171383, , 
10.14, 0.169860, , 
10.17, 0.168461, , 
10.20, 0.166657, , 
10.23, 0.165429, , 
10.26, 0.163792, , 
10.29, 0.162498, , 
10.32, 0.161160, , 
10.35, 0.159523, , 
10.38, 0.158175, , 
10.41, 0.156757, , 
10.44, 0.155403, , 
10.47, 0.154273, , 
10.50, 0.152719, , 
10.53, 0.151476, , 
10.56, 0.149988, , 
10.59, 0.148700, , 
10.62, 0.147514, , 
10.65, 0.146194, , 
10.68, 0.145113, , 
10.71, 0.143787, , 
10.74, 0.142639, , 
10.77, 0.141614, , 
10.80, 0.140295, , 
10.83, 0.139127, , 
10.86, 0.138084, , 
10.89, 0.136891, , 
10.92, 0.135787, , 
10.95, 0.134722, , 
10.98, 0.133754, , 
11.01, 0.132771, , 
11.04, 0.131626, , 
11.07, 0.130592, , 
11.10, 0.129409, , 
11.13, 0.128498, , 
11.16, 0.127651, , 
11.19, 0.126554, , 
11.22, 0.125755, , 
11.25, 0.124698, , 
11.28, 0.123715, , 
11.31, 0.122925, , 
11.35, 0.121974, , 
11.37, 0.121012, , 
11.40, 0.120061, , 
11.43, 0.119204, , 
11.47, 0.118304, , 
11.49, 0.117546, , 
11.52, 0.116603, , 
11.55, 0.115747, , 
11.58, 0.115071, , 
11.61, 0.114120, , 
11.64, 0.113219, , 
11.67, 0.112290, , 
11.70, 0.111627, , 
11.73, 0.110961, , 
11.76, 0.109930, , 
11.79, 0.109260, , 
11.82, 0.108626, , 
11.85, 0.107757, , 
11.88, 0.106888, , 
11.91, 0.106238, , 
11.94, 0.105619, , 
11.97, 0.104871, , 
12.00, 0.104078, , 
12.03, 0.103462, , 
12.06, 0.102777, , 
12.09, 0.102044, , 
12.12, 0.101274, , 
12.15, 0.100706, , 
12.18, 0.100106, , 
12.21, 0.099243, , 
12.24, 0.098647, , 
12.27, 0.098057, , 
12.30, 0.097597, , 
12.33, 0.096846, , 
12.36, 0.096179, , 
12.40, 0.095434, , 
12.42, 0.095025, , 
12.45, 0.094375, , 
12.48, 0.093648, , 
12.51, 0.093147, , 
12.54, 0.092567, , 
12.57, 0.091878, , 
12.60, 0.091193, , 
12.63, 0.090806, , 
12.66, 0.090067, , 
12.69, 0.089360, , 
12.72, 0.088900, , 
12.75, 0.088373, , 
12.78, 0.087752, , 
12.80, 0.087415, 4, 0.586
12.81, 0.087000, , 
12.84, 0.086508, , 
12.87, 0.086083, , 
12.90, 0.085550, , 
12.93, 0.084960, , 
12.96, 0.084434, , 
12.99, 0.083948, , 
13.02, 0.083438, , 
13.05, 0.082721, , 
13.08, 0.082388, , 
13.11, 0.081918, , 
13.14, 0.081221, , 
13.17, 0.080738, , 
13.20, 0.080145, , 
13.23, 0.079739, , 
13.26, 0.079197, , 
13.29, 0.078667, , 
13.32, 0.078144, , 
13.35, 0.077589, , 
13.38, 0.076992, , 
13.42, 0.076390, , 
13.44, 0.076031, , 
13.47, 0.075457, , 
13.50, 0.074842, , 
13.53, 0.074382, , 
13.56, 0.073979, , 
13.59, 0.073510, , 
13.62, 0.072897, , 
13.65, 0.072390, , 
13.68, 0.071876, , 
13.71, 0.071369, , 
13.74, 0.070785, , 
13.77, 0.070350, , 
13.80, 0.069963, , 
13.83, 0.069554, , 
13.86, 0.069047, , 
13.89, 0.068539, , 
13.92, 0.068092, , 
13.95, 0.067708, , 
13.98, 0.067058, , 
14.01, 0.066598, , 
14.04, 0.066278, , 
14.07, 0.066011, , 
14.10, 0.065611, , 
14.13, 0.065234, , 
14.16, 0.064920, , 
14.19, 0.064504, , 
14.22, 0.064108, , 
14.25, 0.063702, , 
14.28, 0.063470, , 
14.31, 0.063125, , 
14.34, 0.062690, , 
14.37, 0.062281, , 
14.40, 0.062072, , 
14.43, 0.061672, , 
14.46, 0.061266, , 
14.49, 0.061101, , 
14.52, 0.060762, , 
14.55, 0.060387, , 
14.58, 0.060048, , 
14.61, 0.059750, , 
14.64, 0.059613, , 
14.67, 0.059271, , 
14.70, 0.058906, , 
14.73, 0.058751, , 
14.76, 0.058671, , 
14.79, 0.058398, , 
14.82, 0.058132, , 
14.85, 0.057980, , 
14.88, 0.057774, , 
14.91, 0.057447, , 
14.94, 0.057311, , 
14.97, 0.057234, , 
15.00, 0.057031, , 
15.03, 0.056771, , 
15.06, 0.056632, , 
15.09, 0.056556, , 
15.12, 0.056327, , 
15.15, 0.056092, , 
15.18, 0.055972, , 
15.21, 0.055896, , 
15.24, 0.055775, , 
15.27, 0.055474, , 
15.30, 0.055379, , 
15.33, 0.055309, , 
15.36, 0.055065, , 
15.39, 0.054868, , 
15.42, 0.054748, , 
15.45, 0.054589, , 
15.48, 0.054481, , 
15.51, 0.054237, , 
15.54, 0.054120, , 
15.57, 0.054196, , 
15.60, 0.054028, , 
15.63, 0.053790, , 
15.66, 0.053720, , 
15.69, 0.053707, , 
15.72, 0.053571, , 
15.75, 0.053511, , 
15.78, 0.053434, , 
15.81, 0.053279, , 
15.84, 0.053165, , 
15.87, 0.053139, , 
15.90, 0.053168, , 
15.93, 0.053181, , 
15.96, 0.053073, , 
15.99, 0.052968, 5, 0.585
16.00, 0.052965, , 
16.02, 0.052921, , 
16.05, 0.052841, , 
16.08, 0.052718, , 
16.11, 0.052619, , 
16.14, 0.052673, , 
16.17, 0.052670, , 
16.20, 0.052591, , 
16.23, 0.052575, , 
16.26, 0.052610, , 
16.29, 0.052622, , 
16.33, 0.052499, , 
16.35, 0.052445, , 
16.38, 0.052429, , 
16.41, 0.052315, , 
16.44, 0.052197, , 
16.47, 0.052134, , 
16.50, 0.052181, , 
16.53, 0.052055, , 
16.56, 0.051982, , 
16.59, 0.052083, , 
16.62, 0.052191, , 
16.65, 0.052140, , 
16.68, 0.052048, , 
16.71, 0.052131, , 
16.75, 0.052258, , 
16.77, 0.052312, , 
16.80, 0.052372, , 
16.83, 0.052568, , 
16.86, 0.052664, , 
16.89, 0.052657, , 
16.92, 0.052762, , 
16.95, 0.052908, , 
16.98, 0.053070, , 
17.01, 0.053079, , 
17.04, 0.053152, , 
17.07, 0.053415, , 
17.10, 0.053599, , 
17.13, 0.053767, , 
17.16, 0.053850, , 
17.19, 0.054177, , 
17.22, 0.054579, , 
17.25, 0.054703, , 
17.28, 0.054957, , 
17.31, 0.055363, , 
17.34, 0.055680, , 
17.37, 0.055988, , 
17.40, 0.056197, , 
17.43, 0.056533, , 
17.46, 0.056946, , 
17.49, 0.057250, , 
17.52, 0.057717, , 
17.55, 0.058398, , 
17.58, 0.059004, , 
17.61, 0.059426, , 
17.64, 0.059940, , 
17.67, 0.060613, , 
17.70, 0.061231, , 
17.73, 0.061704, , 
17.76, 0.062313, , 
17.79, 0.063153, , 
17.82, 0.063813, , 
17.85, 0.064539, , 
17.88, 0.065133, , 
17.91, 0.065868, , 
17.94, 0.066538, , 
17.97, 0.067210, , 
18.00, 0.067924, , 
18.03, 0.068777, , 
18.06, 0.069408, , 
18.09, 0.070109, , 
18.12, 0.070839, , 
18.15, 0.071562, , 
18.18, 0.072114, , 
18.21, 0.072824, , 
18.24, 0.073560, , 
18.27, 0.074188, , 
18.30, 0.074702, , 
18.33, 0.075169, , 
18.36, 0.075787, , 
18.39, 0.076526, , 
18.42, 0.077088, , 
18.45, 0.077455, , 
18.48, 0.078004, , 
18.51, 0.078547, , 
18.54, 0.078857, , 
18.57, 0.079171, , 
18.60, 0.079644, , 
18.63, 0.079923, , 
18.66, 0.080142, , 
18.69, 0.080361, , 
18.72, 0.080650, , 
18.75, 0.080849, , 
18.78, 0.080945, , 
18.81, 0.081138, , 
18.84, 0.081328, , 
18.87, 0.081303, , 
18.90, 0.081205, , 
18.94, 0.081116, , 
18.96, 0.081078, , 
18.99, 0.080951, , 
19.02, 0.080646, , 
19.05, 0.080491, , 
19.08, 0.080488, , 
19.11, 0.080263, , 
19.14, 0.080018, , 
19.17, 0.079746, , 
19.19, 0.079733, 6, 0.585
19.20, 0.079708, , 
19.23, 0.079222, , 
19.26, 0.078772, , 
19.29, 0.078442, , 
19.32, 0.078179, , 
19.35, 0.077792, , 
19.38, 0.077370, , 
19.41, 0.076913, , 
19.44, 0.076539, , 
19.47, 0.076060, , 
19.50, 0.075597, , 
19.53, 0.075254, , 
19.56, 0.074927, , 
19.59, 0.074391, , 
19.62, 0.073833, , 
19.65, 0.073427, , 
19.68, 0.073031, , 
19.71, 0.072450, , 
19.74, 0.072009, , 
19.77, 0.071806, , 
19.80, 0.071502, , 
19.84, 0.071055, , 
19.86, 0.070582, , 
19.89, 0.070258, , 
19.92, 0.069948, , 
19.95, 0.069345, , 
19.98, 0.068872, , 
20.01, 0.068466, , 
20.04, 0.068111, , 
20.07, 0.067600, , 
20.10, 0.067086, , 
20.13, 0.066718, , 
20.16, 0.066122, , 
20.19, 0.065681, , 
20.22, 0.065361, , 
20.25, 0.065015, , 
20.28, 0.064558, , 
20.31, 0.064111, , 
20.34, 0.063784, , 
20.37, 0.063629, , 
20.40, 0.063061, , 
20.43, 0.062474, , 
20.46, 0.062173, , 
20.49, 0.061929, , 
20.52, 0.061507, , 
20.55, 0.061114, , 
20.58, 0.060835, , 
20.61, 0.060590, , 
20.64, 0.060245, , 
20.67, 0.059740, , 
20.70, 0.059433, , 
20.73, 0.059163, , 
20.76, 0.058760, , 
20.79, 0.058383, , 
20.82, 0.058192, , 
20.85, 0.057831, , 
20.88, 0.057533, , 
20.91, 0.057279, , 
20.94, 0.057111, , 
20.97, 0.056889, , 
21.00, 0.056479, , 
21.03, 0.056124, , 
21.06, 0.055959, , 
21.09, 0.055753, , 
21.12, 0.055528, , 
21.15, 0.055265, , 
21.18, 0.055077, , 
21.21, 0.054840, , 
21.24, 0.054494, , 
21.27, 0.054399, , 
21.30, 0.054180, , 
21.33, 0.053923, , 
21.36, 0.053612, , 
21.39, 0.053431, , 
21.42, 0.053355, , 
21.45, 0.053181, , 
21.48, 0.052949, , 
21.51, 0.052819, , 
21.54, 0.052651, , 
21.57, 0.052603, , 
21.60, 0.052565, , 
21.63, 0.052518, , 
21.66, 0.052461, , 
21.69, 0.052283, , 
21.72, 0.052194, , 
21.75, 0.052239, , 
21.78, 0.052340, , 
21.81, 0.052188, , 
21.84, 0.052064, , 
21.87, 0.052178, , 
21.90, 0.052381, , 
21.93, 0.052413, , 
21.96, 0.052483, , 
21.99, 0.052746, , 
22.02, 0.053089, , 
22.05, 0.053219, , 
22.08, 0.053396, , 
22.11, 0.053847, , 
22.14, 0.054326, , 
22.17, 0.054773, , 
22.20, 0.055493, , 
22.23, 0.056204, , 
22.26, 0.057009, , 
22.29, 0.057669, , 
22.32, 0.058671, , 
22.35, 0.059940, , 
22.38, 0.061158, , 
22.39, 0.061574, 7, 0.586
22.41, 0.062665, , 
22.44, 0.064168, , 
22.47, 0.065951, , 
22.50, 0.068127, , 
22.53, 0.069773, , 
22.56, 0.072031, , 
22.59, 0.074975, , 
22.62, 0.077586, , 
22.65, 0.080837, , 
22.68, 0.084056, , 
22.71, 0.087507, , 
22.74, 0.091193, , 
22.77, 0.094996, , 
22.80, 0.099840, , 
22.83, 0.104290, , 
22.86, 0.108889, , 
22.89, 0.114504, , 
22.92, 0.119785, , 
22.95, 0.125257, , 
22.98, 0.130788, , 
23.01, 0.136615, , 
23.04, 0.143831, , 
23.07, 0.150201, , 
23.10, 0.157572, , 
23.13, 0.164183, , 
23.16, 0.169860, , 
23.19, 0.178022, , 
23.22, 0.184936, , 
23.25, 0.193038, , 
23.28, 0.200213, , 
23.31, 0.207467, , 
23.35, 0.215596, , 
23.37, 0.221296, , 
23.40, 0.229445, , 
23.43, 0.236468, , 
23.46, 0.243132, , 
23.49, 0.250748, , 
23.52, 0.257231, , 
23.55, 0.263404, , 
23.58, 0.269269, , 
23.61, 0.275051, , 
23.64, 0.281522, , 
23.67, 0.286698, , 
23.70, 0.292446, , 
23.73, 0.297147, , 
23.77, 0.301546, , 
23.79, 0.305717, , 
23.82, 0.309476, , 
23.85, 0.313685, , 
23.88, 0.317025, , 
23.91, 0.319991, , 
23.94, 0.322963, , 
23.97, 0.324857, , 
24.00, 0.327283, , 
24.03, 0.328907, , 
24.06, 0.330303, , 
24.09, 0.331645, , 
24.12, 0.332485, , 
24.15, 0.333164, , 
24.18, 0.333342, , 
24.21, 0.333469, , 
24.24, 0.333345, , 
24.27, 0.332837, , 
24.30, 0.331959, , 
24.33, 0.331093, , 
24.36, 0.329954, , 
24.39, 0.328578, , 
24.42, 0.326928, , 
24.45, 0.324885, , 
24.48, 0.323043, , 
24.51, 0.320930, , 
24.54, 0.318348, , 
24.57, 0.316074, , 
24.60, 0.313641, , 
24.63, 0.310948, , 
24.66, 0.308160, , 
24.69, 0.305384, , 
24.72, 0.302060, , 
24.75, 0.298949, , 
24.78, 0.295815, , 
24.81, 0.292224, , 
24.84, 0.289096, , 
24.87, 0.285160, , 
24.90, 0.281842, , 
24.93, 0.279130, , 
24.96, 0.275165, , 
24.99, 0.271638, , 
25.02, 0.267616, , 
25.05, 0.264194, , 
25.08, 0.260704, , 
25.11, 0.257133, , 
25.14, 0.253593, , 
25.17, 0.249787, , 
25.20, 0.246393, , 
25.23, 0.242875, , 
25.26, 0.239015, , 
25.29, 0.235862, , 
25.32, 0.232538, , 
25.35, 0.229128, , 
25.38, 0.225791, , 
25.41, 0.222216, , 
25.44, 0.218987, , 
25.47, 0.215815, , 
25.50, 0.212390, , 
25.53, 0.210046, , 
25.56, 0.206547, , 
25.59, 0.203581, 8, 0.585
25.59, 0.203108, , 
25.62, 0.200393, , 
25.65, 0.197710, , 
25.68, 0.194979, , 
25.71, 0.192276, , 
25.74, 0.189694, , 
25.77, 0.186754, , 
25.80, 0.184172, , 
25.83, 0.181663, , 
25.86, 0.178926, , 
25.89, 0.177003, , 
25.92, 0.174241, , 
25.95, 0.171874, , 
25.98, 0.169727, , 
26.01, 0.167190, , 
26.04, 0.165026, , 
26.07, 0.162822, , 
26.10, 0.160452, , 
26.13, 0.158746, , 
26.16, 0.156265, , 
26.19, 0.154327, , 
26.22, 0.152199, , 
26.25, 0.150343, , 
26.28, 0.148523, , 
26.31, 0.146762, , 
26.34, 0.145065, , 
26.37, 0.143016, , 
26.40, 0.141205, , 
26.43, 0.139479, , 
26.46, 0.137576, , 
26.49, 0.135879, , 
26.52, 0.134151, , 
26.55, 0.132542, , 
26.58, 0.131042, , 
26.61, 0.129171, , 
26.64, 0.127563, , 
26.67, 0.125808, , 
26.70, 0.124403, , 
26.73, 0.123128, , 
26.76, 0.121387, , 
26.79, 0.120045, , 
26.82, 0.118383, , 
26.85, 0.116873, , 
26.88, 0.115458, , 
26.91, 0.114044, , 
26.94, 0.112861, , 
26.97, 0.111462, , 
27.00, 0.109952, , 
27.03, 0.108617, , 
27.06, 0.107471, , 
27.09, 0.106399, , 
27.12, 0.104864, , 
27.15, 0.103821, , 
27.18, 0.102517, , 
27.21, 0.101331, , 
27.24, 0.100236, , 
27.27, 0.099079, , 
27.30, 0.098197, , 
27.33, 0.096896, , 
27.36, 0.095945, , 
27.39, 0.094844, , 
27.42, 0.093886, , 
27.45, 0.092852, , 
27.48, 0.091716, , 
27.51, 0.090933, , 
27.54, 0.090054, , 
27.57, 0.088827, , 
27.60, 0.087847, , 
27.63, 0.086898, , 
27.66, 0.085988, , 
27.69, 0.085084, , 
27.72, 0.084323, , 
27.75, 0.083641, , 
27.78, 0.082676, , 
27.81, 0.081823, , 
27.84, 0.081043, , 
27.87, 0.080177, , 
27.90, 0.079409, , 
27.93, 0.078680, , 
27.96, 0.077769, , 
27.99, 0.077116, , 
28.02, 0.076241, , 
28.05, 0.075565, , 
28.08, 0.074896, , 
28.11, 0.074233, , 
28.14, 0.073468, , 
28.17, 0.072739, , 
28.20, 0.072181, , 
28.23, 0.071708, , 
28.26, 0.071026, , 
28.29, 0.070322, , 
28.32, 0.069859, , 
28.35, 0.069415, , 
28.38, 0.068809, , 
28.41, 0.068206, , 
28.44, 0.067705, , 
28.47, 0.067182, , 
28.50, 0.066614, , 
28.53, 0.066056, , 
28.56, 0.065672, , 
28.59, 0.065148, , 
28.62, 0.064663, , 
28.65, 0.064209, , 
28.68, 0.063816, , 
28.71, 0.063375, , 
28.74, 0.062807, , 
28.77, 0.062395, , 
28.79, 0.062249, 9, 0.585
28.80, 0.062062, , 
28.83, 0.061605, , 
28.86, 0.061098, , 
28.89, 0.060597, , 
28.92, 0.060267, , 
28.95, 0.059873, , 
28.98, 0.059252, , 
29.01, 0.058906, , 
29.04, 0.058624, , 
29.07, 0.058167, , 
29.10, 0.057818, , 
29.13, 0.057536, , 
29.16, 0.057336, , 
29.19, 0.057003, , 
29.22, 0.056464, , 
29.25, 0.056073, , 
29.28, 0.055880, , 
29.32, 0.055531, , 
29.34, 0.055150, , 
29.37, 0.054903, , 
29.40, 0.054649, , 
29.43, 0.054326, , 
29.46, 0.053923, , 
29.49, 0.053698, , 
29.52, 0.053390, , 
29.55, 0.053095, , 
29.58, 0.052740, , 
29.61, 0.052515, , 
29.64, 0.052201, , 
29.67, 0.051826, , 
29.70, 0.051598, , 
29.73, 0.051366, , 
29.76, 0.050938, , 
29.79, 0.050567, , 
29.82, 0.050383, , 
29.85, 0.050231, , 
29.88, 0.049866, , 
29.91, 0.049533, , 
29.94, 0.049266, , 
29.97, 0.049098, , 
30.00, 0.048914, , 
30.03, 0.048654, , 
30.06, 0.048559, , 
30.09, 0.048331, , 
30.12, 0.048071, , 
30.15, 0.047744, , 
30.18, 0.047528, , 
30.21, 0.047538, , 
30.24, 0.047265, , 
30.27, 0.047040, , 
30.30, 0.046922, , 
30.33, 0.046777, , 
30.36, 0.046443, , 
30.39, 0.046174, , 
30.43, 0.046202, , 
30.45, 0.046120, , 
30.48, 0.045850, , 
30.51, 0.045578, , 
30.54, 0.045460, , 
30.57, 0.045362, , 
30.60, 0.045254, , 
30.63, 0.044988, , 
30.66, 0.044838, , 
30.69, 0.044807, , 
30.72, 0.044629, , 
30.76, 0.044563, , 
30.78, 0.044490, , 
30.81, 0.044366, , 
30.84, 0.044201, , 
30.87, 0.044045, , 
30.90, 0.043969, , 
30.93, 0.043887, , 
30.96, 0.043693, , 
30.99, 0.043481, , 
31.02, 0.043551, , 
31.05, 0.043614, , 
31.08, 0.043503, , 
31.11, 0.043532, , 
31.14, 0.043586, , 
31.17, 0.043557, , 
31.20, 0.043462, , 
31.23, 0.043573, , 
31.26, 0.043684, , 
31.29, 0.043547, , 
31.32, 0.043481, , 
31.35, 0.043547, , 
31.38, 0.043617, , 
31.41, 0.043601, , 
31.44, 0.043522, , 
31.47, 0.043630, , 
31.50, 0.043617, , 
31.53, 0.043551, , 
31.56, 0.043497, , 
31.59, 0.043671, , 
31.62, 0.043925, , 
31.65, 0.043922, , 
31.68, 0.043881, , 
31.71, 0.043988, , 
31.74, 0.044147, , 
31.77, 0.044255, , 
31.80, 0.044296, , 
31.83, 0.044512, , 
31.86, 0.044734, , 
31.89, 0.044778, , 
31.92, 0.044867, , 
31.95, 0.045095, , 
31.98, 0.045283, , 
31.99, 0.045330, 10, 0.586
32.01, 0.045425, , 
32.04, 0.045647, , 
32.07, 0.045898, , 
32.10, 0.046164, , 
32.13, 0.046298, , 
32.16, 0.046650, , 
32.19, 0.047014, , 
32.22, 0.047325, , 
32.25, 0.047528, , 
32.28, 0.047795, , 
32.31, 0.048239, , 
32.34, 0.048429, , 
32.37, 0.048689, , 
32.40, 0.049073, , 
32.43, 0.049460, , 
32.46, 0.049666, , 
32.49, 0.049850, , 
32.52, 0.050218, , 
32.55, 0.050662, , 
32.58, 0.050935, , 
32.61, 0.051144, , 
32.64, 0.051588, , 
32.67, 0.051861, , 
32.70, 0.052105, , 
32.73, 0.052378, , 
32.76, 0.052638, , 
32.79, 0.053098, , 
32.82, 0.053355, , 
32.85, 0.053498, , 
32.88, 0.053891, , 
32.91, 0.054313, , 
32.94, 0.054510, , 
32.97, 0.054649, , 
33.00, 0.054890, , 
33.03, 0.055284, , 
33.06, 0.055401, , 
33.09, 0.055626, , 
33.12, 0.055924, , 
33.15, 0.056121, , 
33.18, 0.056242, , 
33.21, 0.056295, , 
33.24, 0.056584, , 
33.27, 0.056860, , 
33.30, 0.056857, , 
33.34, 0.056873, , 
33.36, 0.056968, , 
33.39, 0.057031, , 
33.42, 0.056924, , 
33.45, 0.056844, , 
33.48, 0.056981, , 
33.51, 0.057016, , 
33.54, 0.056962, , 
33.57, 0.057009, , 
33.60, 0.057038, , 
33.63, 0.056895, , 
33.66, 0.056663, , 
33.69, 0.056432, , 
33.72, 0.056343, , 
33.75, 0.056150, , 
33.78, 0.055899, , 
33.81, 0.055728, , 
33.84, 0.055468, , 
33.87, 0.055173, , 
33.90, 0.054859, , 
33.93, 0.054624, , 
33.96, 0.054411, , 
33.99, 0.054034, , 
34.02, 0.053647, , 
34.05, 0.053361, , 
34.08, 0.053085, , 
34.11, 0.052730, , 
34.14, 0.052254, , 
34.18, 0.052004, , 
34.20, 0.051795, , 
34.23, 0.051350, , 
34.26, 0.050929, , 
34.29, 0.050551, , 
34.32, 0.050266, , 
34.35, 0.049847, , 
34.38, 0.049504, , 
34.41, 0.049247, , 
34.44, 0.048841, , 
34.47, 0.048350, , 
34.50, 0.047972, , 
34.53, 0.047715, , 
34.56, 0.047516, , 
34.59, 0.047103, , 
34.62, 0.046773, , 
34.65, 0.046516, , 
34.68, 0.046183, , 
34.71, 0.045819, , 
34.74, 0.045422, , 
34.77, 0.045311, , 
34.80, 0.045143, , 
34.83, 0.044699, , 
34.86, 0.044363, , 
34.89, 0.044150, , 
34.92, 0.043912, , 
34.95, 0.043605, , 
34.98, 0.043478, , 
35.01, 0.043319, , 
35.04, 0.042948, , 
35.07, 0.042739, , 
35.10, 0.042460, , 
35.13, 0.042276, , 
35.16, 0.042066, , 
35.19, 0.041774, 11, 0.586
35.20, 0.041739, , 
35.22, 0.041638, , 
35.25, 0.041372, , 
35.28, 0.041134, , 
35.31, 0.040937, , 
35.34, 0.040902, , 
35.37, 0.040807, , 
35.40, 0.040607, , 
35.43, 0.040376, , 
35.46, 0.040299, , 
35.49, 0.040182, , 
35.52, 0.039938, , 
35.55, 0.039709, , 
35.58, 0.039643, , 
35.61, 0.039583, , 
35.64, 0.039373, , 
35.67, 0.039110, , 
35.70, 0.039085, , 
35.73, 0.039015, , 
35.76, 0.038761, , 
35.79, 0.038558, , 
35.82, 0.038514, , 
35.85, 0.038466, , 
35.88, 0.038257, , 
35.91, 0.038041, , 
35.94, 0.038063, , 
35.97, 0.037984, , 
36.00, 0.037743, , 
36.03, 0.037686, , 
36.06, 0.037610, , 
36.09, 0.037502, , 
36.12, 0.037375, , 
36.15, 0.037289, , 
36.18, 0.037264, , 
36.21, 0.037080, , 
36.24, 0.036956, , 
36.27, 0.036937, , 
36.30, 0.036972, , 
36.33, 0.036918, , 
36.36, 0.036709, , 
36.39, 0.036566, , 
36.42, 0.036538, , 
36.45, 0.036515, , 
36.48, 0.036369, , 
36.51, 0.036293, , 
36.54, 0.036223, , 
36.57, 0.036103, , 
36.60, 0.036020, , 
36.63, 0.036049, , 
36.66, 0.035992, , 
36.69, 0.035840, , 
36.72, 0.035789, , 
36.75, 0.035697, , 
36.78, 0.035643, , 
36.81, 0.035507, , 
36.84, 0.035348, , 
36.87, 0.035424, , 
36.90, 0.035500, , 
36.93, 0.035367, , 
36.96, 0.035107, , 
36.99, 0.035044, , 
37.02, 0.034993, , 
37.05, 0.034885, , 
37.08, 0.034825, , 
37.11, 0.034863, , 
37.14, 0.034971, , 
37.17, 0.034841, , 
37.20, 0.034634, , 
37.23, 0.034580, , 
37.26, 0.034593, , 
37.29, 0.034412, , 
37.32, 0.034355, , 
37.35, 0.034447, , 
37.38, 0.034460, , 
37.41, 0.034355, , 
37.44, 0.034308, , 
37.47, 0.034409, , 
37.50, 0.034501, , 
37.53, 0.034533, , 
37.56, 0.034710, , 
37.59, 0.034847, , 
37.62, 0.034809, , 
37.65, 0.034777, , 
37.68, 0.034891, , 
37.71, 0.034974, , 
37.74, 0.034926, , 
37.77, 0.034774, , 
37.80, 0.034879, , 
37.83, 0.034961, , 
37.86, 0.035044, , 
37.89, 0.035126, , 
37.92, 0.035186, , 
37.95, 0.035307, , 
37.98, 0.035307, , 
38.02, 0.035339, , 
38.04, 0.035402, , 
38.07, 0.035418, , 
38.10, 0.035297, , 
38.13, 0.035548, , 
38.16, 0.035745, , 
38.19, 0.035856, , 
38.22, 0.035887, , 
38.25, 0.035906, , 
38.28, 0.036125, , 
38.31, 0.036430, , 
38.34, 0.036503, , 
38.37, 0.036620, , 
38.39, 0.036763, 12, 0.585
38.40, 0.036899, , 
38.43, 0.037254, , 
38.46, 0.037346, , 
38.49, 0.037495, , 
38.52, 0.037825, , 
38.55, 0.038108, , 
38.58, 0.038250, , 
38.61, 0.038466, , 
38.64, 0.038802, , 
38.67, 0.039081, , 
38.70, 0.039234, , 
38.73, 0.039453, , 
38.76, 0.039925, , 
38.79, 0.040230, , 
38.82, 0.040477, , 
38.85, 0.040845, , 
38.88, 0.041267, , 
38.91, 0.041575, , 
38.94, 0.041892, , 
38.97, 0.042266, , 
39.00, 0.042846, , 
39.03, 0.043297, , 
39.06, 0.043719, , 
39.09, 0.043947, , 
39.12, 0.044610, , 
39.15, 0.045111, , 
39.18, 0.045482, , 
39.21, 0.045984, , 
39.24, 0.046504, , 
39.27, 0.047005, , 
39.30, 0.047401, , 
39.33, 0.047874, , 
39.36, 0.048388, , 
39.39, 0.048829, , 
39.42, 0.049203, , 
39.45, 0.049698, , 
39.48, 0.050256, , 
39.51, 0.050703, , 
39.54, 0.051040, , 
39.57, 0.051490, , 
39.60, 0.052045, , 
39.63, 0.052416, , 
39.66, 0.052714, , 
39.69, 0.053079, , 
39.72, 0.053530, , 
39.75, 0.053840, , 
39.78, 0.054034, , 
39.81, 0.054434, , 
39.84, 0.054808, , 
39.87, 0.055074, , 
39.90, 0.055306, , 
39.93, 0.055604, , 
39.96, 0.055855, , 
39.99, 0.055867, , 
40.02, 0.055851, , 
40.05, 0.056013, , 
40.08, 0.056232, , 
40.11, 0.056276, , 
40.14, 0.056321, , 
40.17, 0.056324, , 
40.20, 0.056162, , 
40.23, 0.055994, , 
40.26, 0.056029, , 
40.29, 0.055794, , 
40.32, 0.055766, , 
40.35, 0.055493, , 
40.38, 0.055284, , 
40.41, 0.055093, , 
40.44, 0.054874, , 
40.47, 0.054519, , 
40.50, 0.054250, , 
40.53, 0.053901, , 
40.56, 0.053653, , 
40.59, 0.053254, , 
40.62, 0.052927, , 
40.65, 0.052610, , 
40.68, 0.052102, , 
40.71, 0.051655, , 
40.74, 0.051354, , 
40.77, 0.051100, , 
40.80, 0.050688, , 
40.83, 0.050275, , 
40.86, 0.049891, , 
40.89, 0.049492, , 
40.92, 0.048981, , 
40.95, 0.048394, , 
40.98, 0.047966, , 
41.01, 0.047779, , 
41.04, 0.047420, , 
41.07, 0.046964, , 
41.10, 0.046621, , 
41.13, 0.046256, , 
41.16, 0.045777, , 
41.19, 0.045311, , 
41.22, 0.045143, , 
41.25, 0.044810, , 
41.28, 0.044296, , 
41.31, 0.044007, , 
41.34, 0.043757, , 
41.37, 0.043519, , 
41.40, 0.043138, , 
41.43, 0.042780, , 
41.46, 0.042621, , 
41.49, 0.042279, , 
41.52, 0.041990, , 
41.55, 0.041755, , 
41.58, 0.041597, 13, 0.585
41.59, 0.041578, , 
41.61, 0.041324, , 
41.64, 0.040927, , 
41.67, 0.040731, , 
41.70, 0.040607, , 
41.73, 0.040353, , 
41.76, 0.040039, , 
41.79, 0.039874, , 
41.82, 0.039617, , 
41.85, 0.039389, , 
41.88, 0.039097, , 
41.91, 0.038818, , 
41.94, 0.038752, , 
41.97, 0.038542, , 
42.00, 0.038333, , 
42.03, 0.038174, , 
42.06, 0.037968, , 
42.09, 0.037752, , 
42.12, 0.037511, , 
42.15, 0.037400, , 
42.18, 0.037289, , 
42.21, 0.037048, , 
42.24, 0.036905, , 
42.27, 0.036839, , 
42.30, 0.036741, , 
42.33, 0.036480, , 
42.36, 0.036468, , 
42.39, 0.036423, , 
42.42, 0.036176, , 
42.46, 0.035922, , 
42.48, 0.035833, , 
42.51, 0.035808, , 
42.54, 0.035684, , 
42.57, 0.035469, , 
42.60, 0.035421, , 
42.63, 0.035465, , 
42.66, 0.035243, , 
42.69, 0.035031, , 
42.72, 0.034891, , 
42.75, 0.034907, , 
42.78, 0.034901, , 
42.81, 0.034818, , 
42.84, 0.034825, , 
42.87, 0.034707, , 
42.90, 0.034584, , 
42.93, 0.034428, , 
42.96, 0.034415, , 
42.99, 0.034444, , 
43.02, 0.034304, , 
43.05, 0.034149, , 
43.08, 0.034092, , 
43.11, 0.033990, , 
43.14, 0.033892, , 
43.17, 0.033781, , 
43.20, 0.033879, , 
43.23, 0.033937, , 
43.26, 0.033797, , 
43.29, 0.033762, , 
43.32, 0.033768, , 
43.35, 0.033832, , 
43.38, 0.033781, , 
43.41, 0.033708, , 
43.44, 0.033756, , 
43.47, 0.033902, , 
43.50, 0.033784, , 
43.53, 0.033664, , 
43.56, 0.033699, , 
43.59, 0.033826, , 
43.62, 0.033676, , 
43.65, 0.033714, , 
43.68, 0.033845, , 
43.71, 0.033968, , 
43.74, 0.033876, , 
43.77, 0.034016, , 
43.80, 0.034184, , 
43.83, 0.034349, , 
43.86, 0.034362, , 
43.89, 0.034324, , 
43.92, 0.034574, , 
43.95, 0.034790, , 
43.98, 0.034856, , 
44.01, 0.034983, , 
44.04, 0.035319, , 
44.07, 0.035583, , 
44.10, 0.035738, , 
44.13, 0.035948, , 
44.16, 0.036328, , 
44.19, 0.036680, , 
44.22, 0.036909, , 
44.25, 0.037270, , 
44.28, 0.037768, , 
44.31, 0.038219, , 
44.34, 0.038596, , 
44.37, 0.039132, , 
44.40, 0.039659, , 
44.43, 0.040119, , 
44.46, 0.040607, , 
44.49, 0.041035, , 
44.52, 0.041733, , 
44.55, 0.042237, , 
44.58, 0.042748, , 
44.61, 0.043560, , 
44.64, 0.044103, , 
44.67, 0.044845, , 
44.70, 0.045432, , 
44.73, 0.046313, , 
44.76, 0.047018, , 
44.79, 0.047509, 14, 0.587
44.79, 0.047608, , 
44.82, 0.048188, , 
44.85, 0.048994, , 
44.88, 0.049822, , 
44.91, 0.050450, , 
44.94, 0.051008, , 
44.97, 0.051798, , 
45.00, 0.052416, , 
45.03, 0.053051, , 
45.06, 0.053587, , 
45.09, 0.054240, , 
45.12, 0.054982, , 
45.15, 0.055461, , 
45.19, 0.056010, , 
45.21, 0.056549, , 
45.24, 0.056949, , 
45.27, 0.057307, , 
45.30, 0.057732, , 
45.33, 0.058164, , 
45.36, 0.058433, , 
45.39, 0.058693, , 
45.42, 0.058893, , 
45.45, 0.059217, , 
45.48, 0.059331, , 
45.51, 0.059366, , 
45.54, 0.059363, , 
45.57, 0.059477, , 
45.60, 0.059550, , 
45.63, 0.059464, , 
45.66, 0.059404, , 
45.69, 0.059360, , 
45.72, 0.059258, , 
45.75, 0.058928, , 
45.78, 0.058747, , 
45.81, 0.058640, , 
45.84, 0.058310, , 
45.87, 0.057878, , 
45.90, 0.057659, , 
45.93, 0.057358, , 
45.97, 0.056984, , 
45.99, 0.056549, , 
46.02, 0.056134, , 
46.05, 0.055778, , 
46.08, 0.055258, , 
46.11, 0.054767, , 
46.14, 0.054440, , 
46.17, 0.054085, , 
46.20, 0.053476, , 
46.23, 0.053003, , 
46.26, 0.052530, , 
46.29, 0.052204, , 
46.32, 0.051684, , 
46.35, 0.051230, , 
46.38, 0.050878, , 
46.41, 0.050316, , 
46.44, 0.049888, , 
46.47, 0.049387, , 
46.50, 0.049022, , 
46.53, 0.048648, , 
46.56, 0.048033, , 
46.59, 0.047522, , 
46.62, 0.047148, , 
46.65, 0.046637, , 
46.68, 0.046148, , 
46.71, 0.045714, , 
46.74, 0.045260, , 
46.77, 0.044807, , 
46.80, 0.044309, , 
46.83, 0.043931, , 
46.86, 0.043706, , 
46.89, 0.043379, , 
46.92, 0.042881, , 
46.95, 0.042552, , 
46.98, 0.042380, , 
47.01, 0.042012, , 
47.04, 0.041581, , 
47.07, 0.041302, , 
47.10, 0.041124, , 
47.13, 0.040848, , 
47.16, 0.040452, , 
47.19, 0.040385, , 
47.22, 0.040204, , 
47.25, 0.039868, , 
47.28, 0.039551, , 
47.31, 0.039370, , 
47.35, 0.039335, , 
47.37, 0.039100, , 
47.40, 0.038793, , 
47.43, 0.038625, , 
47.46, 0.038469, , 
47.49, 0.038269, , 
47.52, 0.037927, , 
47.55, 0.037730, , 
47.58, 0.037740, , 
47.61, 0.037654, , 
47.64, 0.037397, , 
47.67, 0.037254, , 
47.70, 0.037232, , 
47.73, 0.036982, , 
47.76, 0.036813, , 
47.79, 0.036772, , 
47.82, 0.036677, , 
47.85, 0.036518, , 
47.88, 0.036442, , 
47.91, 0.036452, , 
47.94, 0.036566, , 
47.97, 0.036490, , 
47.98, 0.036423, 15, 0.585
48.00, 0.036487, , 
48.03, 0.036557, , 
48.06, 0.036518, , 
48.09, 0.036426, , 
48.12, 0.036414, , 
48.15, 0.036461, , 
48.18, 0.036506, , 
48.21, 0.036417, , 
48.24, 0.036373, , 
48.27, 0.036544, , 
48.30, 0.036826, , 
48.33, 0.036829, , 
48.36, 0.036864, , 
48.39, 0.036994, , 
48.42, 0.037261, , 
48.45, 0.037302, , 
48.48, 0.037476, , 
48.51, 0.037771, , 
48.54, 0.038054, , 
48.57, 0.038209, , 
48.60, 0.038491, , 
48.63, 0.038767, , 
48.66, 0.038958, , 
48.69, 0.039316, , 
48.72, 0.039636, , 
48.75, 0.040154, , 
48.78, 0.040480, , 
48.81, 0.040769, , 
48.84, 0.041134, , 
48.87, 0.041527, , 
48.91, 0.041889, , 
48.93, 0.042212, , 
48.96, 0.042777, , 
48.99, 0.043186, , 
49.02, 0.043814, , 
49.05, 0.044280, , 
49.08, 0.044880, , 
49.11, 0.045612, , 
49.14, 0.046104, , 
49.17, 0.046447, , 
49.20, 0.047011, , 
49.23, 0.047655, , 
49.26, 0.048236, , 
49.29, 0.048648, , 
49.32, 0.049254, , 
49.35, 0.049796, , 
49.38, 0.050212, , 
49.41, 0.050681, , 
49.44, 0.051201, , 
49.47, 0.051737, , 
49.50, 0.052096, , 
49.53, 0.052445, , 
49.56, 0.052930, , 
49.59, 0.053320, , 
49.62, 0.053666, , 
49.65, 0.053913, , 
49.68, 0.054304, , 
49.71, 0.054703, , 
49.74, 0.054862, , 
49.77, 0.055138, , 
49.80, 0.055464, , 
49.83, 0.055661, , 
49.86, 0.055759, , 
49.89, 0.055858, , 
49.92, 0.056032, , 
49.95, 0.055991, , 
49.98, 0.055937, , 
50.01, 0.055991, , 
50.04, 0.056029, , 
50.07, 0.056023, , 
50.10, 0.055902, , 
50.14, 0.055867, , 
50.16, 0.055839, , 
50.19, 0.055598, , 
50.22, 0.055353, , 
50.25, 0.055141, , 
50.28, 0.055011, , 
50.31, 0.054703, , 
50.34, 0.054453, , 
50.37, 0.054265, , 
50.40, 0.054104, , 
50.43, 0.053729, , 
50.46, 0.053247, , 
50.49, 0.052987, , 
50.52, 0.052771, , 
50.55, 0.052423, , 
50.58, 0.051998, , 
50.61, 0.051553, , 
50.64, 0.051246, , 
50.67, 0.050903, , 
50.70, 0.050450, , 
50.73, 0.050228, , 
50.76, 0.049841, , 
50.79, 0.049378, , 
50.82, 0.048848, , 
50.85, 0.048407, , 
50.88, 0.048102, , 
50.91, 0.047658, , 
50.94, 0.047325, , 
50.97, 0.046980, , 
51.00, 0.046688, , 
51.03, 0.046263, , 
51.06, 0.045793, , 
51.09, 0.045539, , 
51.12, 0.045270, , 
51.15, 0.044746, , 
51.18, 0.044309, , 
51.19, 0.044264, 16, 0.586
51.21, 0.044049, , 
51.24, 0.043827, , 
51.27, 0.043513, , 
51.30, 0.043119, , 
51.33, 0.042923, , 
51.36, 0.042723, , 
51.39, 0.042364, , 
51.42, 0.042187, , 
51.45, 0.041835, , 
51.48, 0.041720, , 
51.51, 0.041425, , 
51.54, 0.041134, , 
51.57, 0.041051, , 
51.61, 0.040785, , 
51.63, 0.040582, , 
51.66, 0.040499, , 
51.69, 0.040391, , 
51.72, 0.040115, , 
51.75, 0.039897, , 
51.78, 0.039919, , 
51.81, 0.039979, , 
51.84, 0.039970, , 
51.87, 0.039827, , 
51.90, 0.039941, , 
51.93, 0.040017, , 
51.96, 0.039976, , 
51.99, 0.039808, , 
52.02, 0.039805, , 
52.05, 0.039928, , 
52.08, 0.039881, , 
52.11, 0.039868, , 
52.14, 0.039903, , 
52.17, 0.040138, , 
52.20, 0.040277, , 
52.23, 0.040265, , 
52.26, 0.040455, , 
52.29, 0.040712, , 
52.32, 0.040858, , 
52.35, 0.040997, , 
52.38, 0.041333, , 
52.41, 0.041720, , 
52.44, 0.041946, , 
52.47, 0.042155, , 
52.50, 0.042380, , 
52.53, 0.042888, , 
52.56, 0.043097, , 
52.59, 0.043297, , 
52.62, 0.043817, , 
52.65, 0.044277, , 
52.68, 0.044528, , 
52.71, 0.044921, , 
52.74, 0.045511, , 
52.77, 0.045999, , 
52.80, 0.046348, , 
52.83, 0.046754, , 
52.86, 0.047294, , 
52.89, 0.047779, , 
52.92, 0.048109, , 
52.95, 0.048347, , 
52.98, 0.048841, , 
53.01, 0.049317, , 
53.04, 0.049711, , 
53.07, 0.050110, , 
53.10, 0.050523, , 
53.13, 0.051033, , 
53.16, 0.051179, , 
53.19, 0.051557, , 
53.22, 0.051940, , 
53.25, 0.052318, , 
53.28, 0.052515, , 
53.31, 0.052664, , 
53.34, 0.053054, , 
53.37, 0.053292, , 
53.40, 0.053428, , 
53.43, 0.053672, , 
53.46, 0.053939, , 
53.49, 0.054081, , 
53.52, 0.054047, , 
53.55, 0.054002, , 
53.58, 0.054116, , 
53.61, 0.054126, , 
53.64, 0.054062, , 
53.67, 0.054009, , 
53.70, 0.054139, , 
53.73, 0.054170, , 
53.76, 0.054075, , 
53.80, 0.054078, , 
53.82, 0.054123, , 
53.85, 0.053977, , 
53.88, 0.053736, , 
53.91, 0.053545, , 
53.94, 0.053419, , 
53.97, 0.053143, , 
54.00, 0.052882, , 
54.03, 0.052676, , 
54.06, 0.052543, , 
54.09, 0.052302, , 
54.12, 0.051921, , 
54.15, 0.051795, , 
54.18, 0.051658, , 
54.21, 0.051461, , 
54.24, 0.051068, , 
54.27, 0.050799, , 
54.30, 0.050589, , 
54.33, 0.050266, , 
54.36, 0.049888, , 
54.38, 0.049692, 17, 0.585
54.39, 0.049625, , 
54.42, 0.049416, , 
54.45, 0.049114, , 
54.48, 0.048841, , 
54.51, 0.048559, , 
54.54, 0.048340, , 
54.57, 0.047966, , 
54.60, 0.047649, , 
54.63, 0.047503, , 
54.66, 0.047259, , 
54.69, 0.047024, , 
54.72, 0.046675, , 
54.75, 0.046523, , 
54.78, 0.046329, , 
54.82, 0.046031, , 
54.84, 0.045860, , 
54.87, 0.045730, , 
54.90, 0.045619, , 
54.93, 0.045362, , 
54.96, 0.045178, , 
54.99, 0.045191, , 
55.02, 0.045111, , 
55.05, 0.044810, , 
55.08, 0.044737, , 
55.11, 0.044753, , 
55.14, 0.044667, , 
55.17, 0.044566, , 
55.20, 0.044575, , 
55.23, 0.044664, , 
55.26, 0.044731, , 
55.29, 0.044756, , 
55.32, 0.044807, , 
55.35, 0.045064, , 
55.38, 0.045289, , 
55.41, 0.045378, , 
55.44, 0.045441, , 
55.47, 0.045657, , 
55.50, 0.045892, , 
55.53, 0.046009, , 
55.56, 0.046244, , 
55.59, 0.046558, , 
55.62, 0.046796, , 
55.65, 0.047008, , 
55.68, 0.047230, , 
55.71, 0.047585, , 
55.74, 0.048020, , 
55.77, 0.048312, , 
55.80, 0.048740, , 
55.83, 0.049089, , 
55.86, 0.049308, , 
55.89, 0.049574, , 
55.92, 0.049866, , 
55.95, 0.050224, , 
55.98, 0.050491, , 
56.01, 0.050722, , 
56.04, 0.051074, , 
56.07, 0.051360, , 
56.10, 0.051620, , 
56.13, 0.051944, , 
56.16, 0.052131, , 
56.19, 0.052518, , 
56.22, 0.052714, , 
56.25, 0.052838, , 
56.29, 0.053028, , 
56.31, 0.053257, , 
56.34, 0.053273, , 
56.37, 0.053365, , 
56.40, 0.053590, , 
56.43, 0.053714, , 
56.46, 0.053745, , 
56.49, 0.053828, , 
56.52, 0.053904, , 
56.55, 0.054066, , 
56.58, 0.054005, , 
56.61, 0.054002, , 
56.64, 0.054069, , 
56.67, 0.054062, , 
56.70, 0.053882, , 
56.73, 0.053675, , 
56.76, 0.053542, , 
56.79, 0.053653, , 
56.82, 0.053612, , 
56.85, 0.053479, , 
56.88, 0.053412, , 
56.91, 0.053266, , 
56.94, 0.053003, , 
56.97, 0.052844, , 
57.00, 0.052762, , 
57.03, 0.052632, , 
57.06, 0.052397, , 
57.09, 0.052201, , 
57.12, 0.052051, , 
57.15, 0.051877, , 
57.18, 0.051557, , 
57.21, 0.051366, , 
57.24, 0.051252, , 
57.27, 0.051014, , 
57.30, 0.050726, , 
57.33, 0.050567, , 
57.36, 0.050431, , 
57.39, 0.050145, , 
57.42, 0.049961, , 
57.45, 0.049853, , 
57.48, 0.049764, , 
57.51, 0.049536, , 
57.54, 0.049260, , 
57.57, 0.049171, , 
57.59, 0.049187, 18, 0.587
57.60, 0.049187, , 
57.63, 0.049209, , 
57.66, 0.049032, , 
57.69, 0.048857, , 
57.72, 0.048835, , 
57.75, 0.048702, , 
57.78, 0.048565, , 
57.81, 0.048623, , 
57.84, 0.048835, , 
57.87, 0.048880, , 
57.90, 0.048889, , 
57.93, 0.048946, , 
57.97, 0.049187, , 
57.99, 0.049308, , 
58.02, 0.049358, , 
58.05, 0.049460, , 
58.08, 0.049676, , 
58.11, 0.049764, , 
58.14, 0.049914, , 
58.17, 0.050091, , 
58.20, 0.050383, , 
58.23, 0.050564, , 
58.26, 0.050681, , 
58.29, 0.050979, , 
58.32, 0.051297, , 
58.35, 0.051465, , 
58.38, 0.051652, , 
58.41, 0.051877, , 
58.44, 0.052026, , 
58.47, 0.052162, , 
58.50, 0.052321, , 
58.53, 0.052607, , 
58.56, 0.052762, , 
58.59, 0.052889, , 
58.62, 0.052990, , 
58.65, 0.053143, , 
58.69, 0.053387, , 
58.71, 0.053444, , 
58.74, 0.053444, , 
58.77, 0.053530, , 
58.80, 0.053628, , 
58.83, 0.053574, , 
58.86, 0.053609, , 
58.89, 0.053663, , 
58.92, 0.053618, , 
58.95, 0.053564, , 
58.98, 0.053511, , 
59.01, 0.053593, , 
59.04, 0.053641, , 
59.07, 0.053558, , 
59.10, 0.053530, , 
59.13, 0.053530, , 
59.16, 0.053428, , 
59.19, 0.053184, , 
59.22, 0.053155, , 
59.25, 0.053155, , 
59.28, 0.053016, , 
59.31, 0.052825, , 
59.34, 0.052718, , 
59.37, 0.052632, , 
59.40, 0.052470, , 
59.43, 0.052296, , 
59.46, 0.052159, , 
59.49, 0.052115, , 
59.52, 0.052023, , 
59.55, 0.051791, , 
59.58, 0.051680, , 
59.61, 0.051706, , 
59.64, 0.051642, , 
59.67, 0.051506, , 
59.70, 0.051560, , 
59.73, 0.051569, , 
59.76, 0.051389, , 
59.79, 0.051205, , 
59.82, 0.051141, , 
59.85, 0.051258, , 
59.88, 0.051357, , 
59.91, 0.051379, , 
59.94, 0.051490, , 
59.97, 0.051668, , 
60.00, 0.051655, , 
60.03, 0.051601, , 
60.06, 0.051668, , 
60.09, 0.051842, , 
60.12, 0.051998, , 
60.15, 0.052023, , 
60.18, 0.052175, , 
60.21, 0.052378, , 
60.24, 0.052524, , 
60.27, 0.052549, , 
60.30, 0.052613, , 
60.33, 0.052733, , 
60.36, 0.052857, , 
60.39, 0.052968, , 
60.42, 0.053089, , 
60.45, 0.053250, , 
60.48, 0.053266, , 
60.51, 0.053384, , 
60.54, 0.053501, , 
60.57, 0.053606, , 
60.60, 0.053596, , 
60.63, 0.053669, , 
60.66, 0.053904, , 
60.69, 0.054056, , 
60.72, 0.054024, , 
60.75, 0.054066, , 
60.78, 0.054069, 19, 0.584
60.79, 0.054085, , 
60.81, 0.054123, , 
60.85, 0.054047, , 
60.87, 0.053990, , 
60.90, 0.054072, , 
60.93, 0.054101, , 
60.96, 0.053986, , 
60.99, 0.053904, , 
61.02, 0.053958, , 
61.05, 0.053961, , 
61.08, 0.053767, , 
61.11, 0.053612, , 
61.14, 0.053571, , 
61.17, 0.053485, , 
61.20, 0.053323, , 
61.23, 0.053241, , 
61.26, 0.053257, , 
61.29, 0.053139, , 
61.32, 0.052955, , 
61.35, 0.052816, , 
61.38, 0.052752, , 
61.41, 0.052670, , 
61.44, 0.052575, , 
61.47, 0.052502, , 
61.50, 0.052572, , 
61.53, 0.052537, , 
61.56, 0.052372, , 
61.59, 0.052283, , 
61.62, 0.052213, , 
61.65, 0.052070, , 
61.68, 0.051906, , 
61.71, 0.052001, , 
61.74, 0.052090, , 
61.77, 0.052194, , 
61.81, 0.052235, , 
61.83, 0.052327, , 
61.86, 0.052473, , 
61.89, 0.052518, , 
61.92, 0.052461, , 
61.95, 0.052515, , 
61.98, 0.052578, , 
62.01, 0.052562, , 
62.04, 0.052394, , 
62.07, 0.052476, , 
62.10, 0.052705, , 
62.13, 0.052844, , 
62.16, 0.052882, , 
62.19, 0.052994, , 
62.22, 0.053022, , 
62.25, 0.052955, , 
62.28, 0.052959, , 
62.31, 0.052984, , 
62.34, 0.052981, , 
62.37, 0.053038, , 
62.40, 0.053066, , 
62.43, 0.053095, , 
62.46, 0.053016, , 
62.49, 0.052917, , 
62.52, 0.052917, , 
62.55, 0.052990, , 
62.58, 0.053095, , 
62.61, 0.053041, , 
62.64, 0.052898, , 
62.67, 0.052940, , 
62.70, 0.052984, , 
62.73, 0.052791, , 
62.76, 0.052603, , 
62.79, 0.052540, , 
62.82, 0.052654, , 
62.85, 0.052404, , 
62.88, 0.052140, , 
62.91, 0.052153, , 
62.94, 0.052061, , 
62.97, 0.051871, , 
63.01, 0.051709, , 
63.03, 0.051671, , 
63.06, 0.051601, , 
63.09, 0.051468, , 
63.12, 0.051471, , 
63.15, 0.051500, , 
63.18, 0.051436, , 
63.21, 0.051211, , 
63.24, 0.051024, , 
63.27, 0.051008, , 
63.30, 0.051011, , 
63.33, 0.050862, , 
63.36, 0.050976, , 
63.39, 0.051046, , 
63.42, 0.050998, , 
63.45, 0.050970, , 
63.48, 0.051005, , 
63.51, 0.051103, , 
63.54, 0.051027, , 
63.57, 0.050967, , 
63.60, 0.050935, , 
63.63, 0.050976, , 
63.66, 0.051065, , 
63.69, 0.050967, , 
63.72, 0.050878, , 
63.75, 0.050973, , 
63.78, 0.051040, , 
63.81, 0.050998, , 
63.84, 0.051113, , 
63.87, 0.051151, , 
63.90, 0.051103, , 
63.93, 0.051036, , 
63.96, 0.051097, , 
63.99, 0.051132, 20, 0.587
64.00, 0.051119, , 
64.02, 0.051074, , 
64.05, 0.051046, , 
64.08, 0.051128, , 
64.11, 0.051176, , 
64.14, 0.051049, , 
64.17, 0.051109, , 
64.20, 0.051135, , 
64.23, 0.051014, , 
64.26, 0.050811, , 
64.29, 0.050672, , 
64.32, 0.050748, , 
64.35, 0.050618, , 
64.38, 0.050542, , 
64.41, 0.050513, , 
64.44, 0.050459, , 
64.47, 0.050348, , 
64.50, 0.050072, , 
64.53, 0.050047, , 
64.56, 0.050129, , 
64.59, 0.049933, , 
64.62, 0.049761, , 
64.65, 0.049720, , 
64.68, 0.049704, , 
64.71, 0.049650, , 
64.74, 0.049558, , 
64.77, 0.049362, , 
64.80, 0.049393, , 
64.83, 0.049301, , 
64.86, 0.049111, , 
64.89, 0.049016, , 
64.92, 0.049073, , 
64.95, 0.049127, , 
64.98, 0.049060, , 
65.01, 0.049022, , 
65.04, 0.049076, , 
65.07, 0.049022, , 
65.10, 0.048946, , 
65.13, 0.049029, , 
65.16, 0.049079, , 
65.19, 0.049041, , 
65.22, 0.049016, , 
65.25, 0.049035, , 
65.28, 0.049048, , 
65.31, 0.048902, , 
65.34, 0.048734, , 
65.37, 0.048626, , 
65.40, 0.048645, , 
65.43, 0.048600, , 
65.46, 0.048442, , 
65.49, 0.048508, , 
65.52, 0.048575, , 
65.55, 0.048464, , 
65.58, 0.048264, , 
65.61, 0.048169, , 
65.64, 0.048144, , 
65.67, 0.048020, , 
65.70, 0.047906, , 
65.73, 0.047845, , 
65.76, 0.047826, , 
65.79, 0.047592, , 
65.82, 0.047474, , 
65.85, 0.047516, , 
65.88, 0.047535, , 
65.91, 0.047420, , 
65.94, 0.047186, , 
65.97, 0.047116, , 
66.00, 0.047217, , 
66.03, 0.047059, , 
66.06, 0.046808, , 
66.09, 0.046815, , 
66.12, 0.046704, , 
66.15, 0.046554, , 
66.18, 0.046462, , 
66.21, 0.046494, , 
66.24, 0.046507, , 
66.27, 0.046431, , 
66.30, 0.046399, , 
66.33, 0.046421, , 
66.36, 0.046355, , 
66.39, 0.046110, , 
66.42, 0.045974, , 
66.45, 0.046003, , 
66.48, 0.045961, , 
66.51, 0.045920, , 
66.54, 0.045863, , 
66.57, 0.045926, , 
66.60, 0.045850, , 
66.63, 0.045673, , 
66.66, 0.045660, , 
66.70, 0.045638, , 
66.72, 0.045517, , 
66.75, 0.045333, , 
66.78, 0.045283, , 
66.81, 0.045254, , 
66.84, 0.045038, , 
66.87, 0.044908, , 
66.90, 0.044943, , 
66.93, 0.044981, , 
66.96, 0.044978, , 
66.99, 0.044838, , 
67.02, 0.044712, , 
67.05, 0.044705, , 
67.08, 0.044572, , 
67.11, 0.044420, , 
67.14, 0.044407, , 
67.17, 0.044531, , 
67.19, 0.044496, 21, 0.584
67.20, 0.044360, , 
67.23, 0.044144, , 
67.26, 0.044128, , 
67.29, 0.044182, , 
67.32, 0.044033, , 
67.35, 0.043915, , 
67.38, 0.043938, , 
67.41, 0.043817, , 
67.44, 0.043627, , 
67.47, 0.043440, , 
67.50, 0.043430, , 
67.53, 0.043398, , 
67.56, 0.043341, , 
67.59, 0.043275, , 
67.62, 0.043249, , 
67.65, 0.043138, , 
67.68, 0.042926, , 
67.71, 0.042856, , 
67.74, 0.042897, , 
67.77, 0.042872, , 
67.80, 0.042637, , 
67.83, 0.042472, , 
67.86, 0.042479, , 
67.89, 0.042371, , 
67.92, 0.042215, , 
67.95, 0.042041, , 
67.98, 0.041996, , 
68.01, 0.041825, , 
68.04, 0.041568, , 
68.07, 0.041527, , 
68.10, 0.041521, , 
68.13, 0.041457, , 
68.16, 0.041365, , 
68.19, 0.041397, , 
68.22, 0.041321, , 
68.25, 0.041229, , 
68.28, 0.040934, , 
68.31, 0.040851, , 
68.34, 0.040874, , 
68.38, 0.040845, , 
68.40, 0.040794, , 
68.43, 0.040639, , 
68.46, 0.040569, , 
68.49, 0.040442, , 
68.52, 0.040233, , 
68.55, 0.040271, , 
68.58, 0.040420, , 
68.61, 0.040414, , 
68.64, 0.040211, , 
68.67, 0.040166, , 
68.70, 0.040036, , 
68.73, 0.039855, , 
68.76, 0.039789, , 
68.79, 0.039786, , 
68.82, 0.039846, , 
68.85, 0.039630, , 
68.88, 0.039478, , 
68.91, 0.039424, , 
68.94, 0.039411, , 
68.97, 0.039351, , 
69.00, 0.039224, , 
69.03, 0.039148, , 
69.06, 0.039062, , 
69.09, 0.038824, , 
69.12, 0.038809, , 
69.15, 0.038850, , 
69.18, 0.038866, , 
69.21, 0.038761, , 
69.24, 0.038447, , 
69.27, 0.038441, , 
69.30, 0.038441, , 
69.33, 0.038333, , 
69.36, 0.038352, , 
69.39, 0.038263, , 
69.42, 0.038120, , 
69.45, 0.037920, , 
69.48, 0.037914, , 
69.51, 0.037962, , 
69.54, 0.037838, , 
69.57, 0.037622, , 
69.60, 0.037388, , 
69.63, 0.037467, , 
69.66, 0.037429, , 
69.69, 0.037200, , 
69.72, 0.036956, , 
69.75, 0.036915, , 
69.78, 0.036886, , 
69.81, 0.036760, , 
69.84, 0.036810, , 
69.87, 0.036820, , 
69.90, 0.036801, , 
69.93, 0.036645, , 
69.96, 0.036493, , 
69.99, 0.036449, , 
70.02, 0.036376, , 
70.05, 0.036243, , 
70.08, 0.036319, , 
70.11, 0.036315, , 
70.14, 0.036059, , 
70.17, 0.035862, , 
70.20, 0.035783, , 
70.23, 0.035821, , 
70.26, 0.035783, , 
70.29, 0.035783, , 
70.32, 0.035599, , 
70.35, 0.035706, , 
70.38, 0.035538, , 
70.39, 0.035465, 22, 0.587
70.41, 0.035440, , 
70.44, 0.035396, , 
70.47, 0.035383, , 
70.50, 0.035300, , 
70.53, 0.035059, , 
70.56, 0.034967, , 
70.59, 0.034974, , 
70.62, 0.034806, , 
70.65, 0.034672, , 
70.68, 0.034660, , 
70.71, 0.034552, , 
70.74, 0.034377, , 
70.77, 0.034317, , 
70.80, 0.034387, , 
70.83, 0.034355, , 
70.86, 0.034162, , 
70.89, 0.034101, , 
70.92, 0.034095, , 
70.95, 0.034054, , 
70.98, 0.033854, , 
71.01, 0.033711, , 
71.04, 0.033775, , 
71.07, 0.033778, , 
71.10, 0.033721, , 
71.13, 0.033727, , 
71.16, 0.033699, , 
71.19, 0.033632, , 
71.22, 0.033416, , 
71.25, 0.033274, , 
71.28, 0.033255, , 
71.31, 0.033283, , 
71.34, 0.033251, , 
71.37, 0.033188, , 
71.40, 0.033245, , 
71.43, 0.033099, , 
71.46, 0.032871, , 
71.49, 0.032788, , 
71.52, 0.032814, , 
71.55, 0.032839, , 
71.58, 0.032753, , 
71.61, 0.032734, , 
71.64, 0.032677, , 
71.67, 0.032366, , 
71.70, 0.032217, , 
71.73, 0.032268, , 
71.76, 0.032341, , 
71.79, 0.032281, , 
71.82, 0.032201, , 
71.85, 0.032198, , 
71.88, 0.032182, , 
71.91, 0.032043, , 
71.94, 0.031906, , 
71.97, 0.031913, , 
72.00, 0.031837, , 
72.03, 0.031707, , 
72.06, 0.031694, , 
72.09, 0.031770, , 
72.12, 0.031742, , 
72.15, 0.031694, , 
72.18, 0.031485, , 
72.21, 0.031355, , 
72.24, 0.031285, , 
72.27, 0.031171, , 
72.30, 0.031177, , 
72.33, 0.031212, , 
72.36, 0.031285, , 
72.39, 0.031196, , 
72.42, 0.031037, , 
72.45, 0.030949, , 
72.48, 0.030872, , 
72.51, 0.030714, , 
72.54, 0.030695, , 
72.57, 0.030733, , 
72.60, 0.030723, , 
72.63, 0.030422, , 
72.66, 0.030343, , 
72.69, 0.030333, , 
72.72, 0.030292, , 
72.75, 0.030152, , 
72.78, 0.030067, , 
72.81, 0.030000, , 
72.84, 0.029883, , 
72.87, 0.029702, , 
72.90, 0.029807, , 
72.93, 0.029769, , 
72.96, 0.029800, , 
72.99, 0.029642, , 
73.02, 0.029496, , 
73.05, 0.029470, , 
73.08, 0.029306, , 
73.11, 0.029201, , 
73.14, 0.029210, , 
73.17, 0.029220, , 
73.20, 0.029128, , 
73.23, 0.029083, , 
73.26, 0.029166, , 
73.29, 0.029233, , 
73.32, 0.029194, , 
73.35, 0.029103, , 
73.38, 0.029042, , 
73.41, 0.028906, , 
73.44, 0.028757, , 
73.47, 0.028696, , 
73.50, 0.028700, , 
73.53, 0.028700, , 
73.56, 0.028671, , 
73.59, 0.028639, 23, 0.585
73.59, 0.028639, , 
73.62, 0.028636, , 
73.65, 0.028605, , 
73.68, 0.028376, , 
73.71, 0.028297, , 
73.74, 0.028300, , 
73.77, 0.028211, , 
73.80, 0.028110, , 
73.84, 0.028164, , 
73.86, 0.028252, , 
73.89, 0.028284, , 
73.92, 0.028183, , 
73.96, 0.028167, , 
73.98, 0.028170, , 
74.01, 0.028119, , 
74.04, 0.027961, , 
74.07, 0.027945, , 
74.10, 0.027929, , 
74.13, 0.027831, , 
74.16, 0.027688, , 
74.19, 0.027612, , 
74.22, 0.027669, , 
74.25, 0.027761, , 
74.28, 0.027650, , 
74.31, 0.027517, , 
74.34, 0.027551, , 
74.37, 0.027348, , 
74.40, 0.027196, , 
74.43, 0.027171, , 
74.46, 0.027231, , 
74.49, 0.027285, , 
74.52, 0.027117, , 
74.55, 0.027095, , 
74.58, 0.027028, , 
74.61, 0.026828, , 
74.64, 0.026692, , 
74.67, 0.026676, , 
74.70, 0.026828, , 
74.73, 0.026812, , 
74.76, 0.026698, , 
74.79, 0.026705, , 
74.82, 0.026632, , 
74.85, 0.026517, , 
74.88, 0.026359, , 
74.91, 0.026292, , 
74.94, 0.026219, , 
74.97, 0.026172, , 
75.00, 0.026207, , 
75.03, 0.026238, , 
75.06, 0.026295, , 
75.09, 0.026168, , 
75.12, 0.026200, , 
75.15, 0.026200, , 
75.18, 0.026203, , 
75.21, 0.026019, , 
75.24, 0.025810, , 
75.27, 0.025823, , 
75.30, 0.025829, , 
75.33, 0.025699, , 
75.36, 0.025734, , 
75.39, 0.025883, , 
75.42, 0.025965, , 
75.45, 0.025734, , 
75.48, 0.025559, , 
75.51, 0.025525, , 
75.54, 0.025448, , 
75.57, 0.025303, , 
75.60, 0.025309, , 
75.63, 0.025287, , 
75.66, 0.025312, , 
75.69, 0.025287, , 
75.72, 0.025207, , 
75.75, 0.025214, , 
75.78, 0.025122, , 
75.81, 0.024912, , 
75.84, 0.024868, , 
75.87, 0.024931, , 
75.90, 0.024897, , 
75.93, 0.024773, , 
75.96, 0.024808, , 
75.99, 0.024877, , 
76.02, 0.024849, , 
76.05, 0.024792, , 
76.08, 0.024779, , 
76.11, 0.024820, , 
76.14, 0.024805, , 
76.17, 0.024773, , 
76.20, 0.024852, , 
76.23, 0.024785, , 
76.26, 0.024617, , 
76.29, 0.024383, , 
76.32, 0.024326, , 
76.35, 0.024357, , 
76.38, 0.024367, , 
76.41, 0.024303, , 
76.44, 0.024319, , 
76.47, 0.024272, , 
76.50, 0.024119, , 
76.53, 0.023885, , 
76.56, 0.023894, , 
76.59, 0.023996, , 
76.62, 0.023888, , 
76.65, 0.023862, , 
76.68, 0.023894, , 
76.71, 0.023869, , 
76.74, 0.023761, , 
76.77, 0.023653, , 
76.78, 0.023628, 24, 0.585
76.80, 0.023631, , 
76.83, 0.023533, , 
76.86, 0.023425, , 
76.89, 0.023377, , 
76.92, 0.023469, , 
76.95, 0.023561, , 
76.98, 0.023495, , 
77.01, 0.023409, , 
77.04, 0.023498, , 
77.07, 0.023409, , 
77.10, 0.023215, , 
77.13, 0.023098, , 
77.16, 0.023047, , 
77.19, 0.023012, , 
77.22, 0.022876, , 
77.25, 0.022841, , 
77.28, 0.022905, , 
77.31, 0.022917, , 
77.34, 0.022819, , 
77.37, 0.022835, , 
77.40, 0.022981, , 
77.43, 0.022825, , 
77.46, 0.022797, , 
77.49, 0.022787, , 
77.52, 0.022898, , 
77.55, 0.022882, , 
77.58, 0.022644, , 
77.61, 0.022502, , 
77.64, 0.022511, , 
77.67, 0.022441, , 
77.70, 0.022334, , 
77.73, 0.022394, , 
77.76, 0.022435, , 
77.79, 0.022372, , 
77.82, 0.022292, , 
77.85, 0.022337, , 
77.88, 0.022429, , 
77.91, 0.022403, , 
77.94, 0.022324, , 
77.97, 0.022413, , 
78.00, 0.022280, , 
78.03, 0.022112, , 
78.06, 0.022032, , 
78.09, 0.022023, , 
78.12, 0.021934, , 
78.15, 0.021861, , 
78.18, 0.021877, , 
78.22, 0.021966, , 
78.24, 0.021956, , 
78.27, 0.021883, , 
78.30, 0.021836, , 
78.33, 0.021950, , 
78.36, 0.021956, , 
78.39, 0.021886, , 
78.42, 0.021902, , 
78.45, 0.021943, , 
78.48, 0.021890, , 
78.51, 0.021842, , 
78.54, 0.021801, , 
78.57, 0.021785, , 
78.60, 0.021832, , 
78.63, 0.021810, , 
78.66, 0.021870, , 
78.69, 0.021836, , 
78.72, 0.021699, , 
78.75, 0.021522, , 
78.78, 0.021392, , 
78.81, 0.021414, , 
78.84, 0.021493, , 
78.87, 0.021341, , 
78.90, 0.021223, , 
78.93, 0.021401, , 
78.96, 0.021395, , 
78.99, 0.021357, , 
79.02, 0.021265, , 
79.05, 0.021306, , 
79.08, 0.021185, , 
79.11, 0.020941, , 
79.14, 0.020789, , 
79.17, 0.020830, , 
79.20, 0.020862, , 
79.23, 0.020792, , 
79.26, 0.020770, , 
79.29, 0.020875, , 
79.32, 0.020827, , 
79.35, 0.020760, , 
79.38, 0.020776, , 
79.41, 0.020871, , 
79.44, 0.020928, , 
79.47, 0.020786, , 
79.50, 0.020795, , 
79.53, 0.020763, , 
79.56, 0.020545, , 
79.59, 0.020338, , 
79.62, 0.020335, , 
79.65, 0.020357, , 
79.68, 0.020262, , 
79.71, 0.020253, , 
79.74, 0.020351, , 
79.77, 0.020430, , 
79.80, 0.020319, , 
79.83, 0.020288, , 
79.86, 0.020415, , 
79.89, 0.020430, , 
79.92, 0.020380, , 
79.95, 0.020167, , 
79.98, 0.020085, , 
79.99, 0.020088, 25, 0.587
80.01, 0.019961, , 
80.04, 0.019869, , 
80.07, 0.019888, , 
80.10, 0.019894, , 
80.13, 0.019879, , 
80.16, 0.019882, , 
80.19, 0.019818, , 
80.22, 0.019907, , 
80.25, 0.019917, , 
80.28, 0.019806, , 
80.31, 0.019733, , 
80.34, 0.019825, , 
80.38, 0.019879, , 
80.40, 0.019806, , 
80.43, 0.019761, , 
80.46, 0.019875, , 
80.49, 0.019875, , 
80.52, 0.019840, , 
80.55, 0.019806, , 
80.58, 0.019888, , 
80.61, 0.019913, , 
80.64, 0.019837, , 
80.67, 0.019796, , 
80.70, 0.019809, , 
80.73, 0.019656, , 
80.76, 0.019488, , 
80.79, 0.019273, , 
80.82, 0.019327, , 
80.85, 0.019333, , 
80.88, 0.019304, , 
80.91, 0.019285, , 
80.94, 0.019355, , 
80.97, 0.019339, , 
81.00, 0.019235, , 
81.03, 0.019298, , 
81.06, 0.019387, , 
81.09, 0.019292, , 
81.12, 0.019197, , 
81.15, 0.019273, , 
81.18, 0.019317, , 
81.21, 0.019073, , 
81.24, 0.018952, , 
81.27, 0.018816, , 
81.30, 0.018902, , 
81.33, 0.018902, , 
81.36, 0.018733, , 
81.39, 0.018727, , 
81.42, 0.018832, , 
81.45, 0.018737, , 
81.48, 0.018724, , 
81.52, 0.018803, , 
81.54, 0.018787, , 
81.57, 0.018778, , 
81.60, 0.018559, , 
81.63, 0.018527, , 
81.66, 0.018502, , 
81.69, 0.018467, , 
81.72, 0.018362, , 
81.75, 0.018324, , 
81.78, 0.018429, , 
81.81, 0.018315, , 
81.84, 0.018280, , 
81.87, 0.018343, , 
81.90, 0.018372, , 
81.93, 0.018305, , 
81.96, 0.018277, , 
81.99, 0.018353, , 
82.02, 0.018366, , 
82.05, 0.018283, , 
82.08, 0.018220, , 
82.11, 0.018293, , 
82.14, 0.018362, , 
82.17, 0.018270, , 
82.20, 0.018277, , 
82.23, 0.018327, , 
82.26, 0.018429, , 
82.29, 0.018299, , 
82.33, 0.018239, , 
82.35, 0.018337, , 
82.38, 0.018331, , 
82.41, 0.018223, , 
82.44, 0.018264, , 
82.47, 0.018366, , 
82.50, 0.018353, , 
82.53, 0.018277, , 
82.56, 0.018213, , 
82.59, 0.018331, , 
82.62, 0.018254, , 
82.65, 0.018245, , 
82.68, 0.018185, , 
82.71, 0.018296, , 
82.74, 0.018197, , 
82.77, 0.018147, , 
82.80, 0.018232, , 
82.83, 0.018254, , 
82.86, 0.018274, , 
82.90, 0.018194, , 
82.92, 0.018289, , 
82.95, 0.018321, , 
82.98, 0.018229, , 
83.01, 0.018188, , 
83.04, 0.018229, , 
83.07, 0.018277, , 
83.10, 0.018302, , 
83.13, 0.018150, , 
83.16, 0.018293, , 
83.18, 0.018353, 26, 0.585
83.19, 0.018343, , 
83.22, 0.018197, , 
83.25, 0.018182, , 
83.28, 0.018251, , 
83.31, 0.018261, , 
83.34, 0.018299, , 
83.37, 0.018185, , 
83.40, 0.018194, , 
83.43, 0.018286, , 
83.46, 0.018274, , 
83.49, 0.018172, , 
83.52, 0.018226, , 
83.55, 0.018277, , 
83.58, 0.018248, , 
83.61, 0.018201, , 
83.64, 0.018223, , 
83.67, 0.018337, , 
83.70, 0.018248, , 
83.73, 0.018140, , 
83.76, 0.018267, , 
83.79, 0.018229, , 
83.82, 0.018166, , 
83.85, 0.018197, , 
83.88, 0.018277, , 
83.91, 0.018274, , 
83.94, 0.018156, , 
83.97, 0.018137, , 
84.00, 0.018185, , 
84.03, 0.018283, , 
84.06, 0.018131, , 
84.09, 0.018074, , 
84.12, 0.018175, , 
84.15, 0.018235, , 
84.18, 0.018109, , 
84.21, 0.018121, , 
84.24, 0.018210, , 
84.27, 0.018254, , 
84.30, 0.018137, , 
84.33, 0.018216, , 
84.36, 0.018369, , 
84.39, 0.018283, , 
84.42, 0.018207, , 
84.45, 0.018185, , 
84.48, 0.018248, , 
84.51, 0.018258, , 
84.54, 0.018131, , 
84.57, 0.018143, , 
84.60, 0.018299, , 
84.63, 0.018229, , 
84.67, 0.018137, , 
84.69, 0.018055, , 
84.72, 0.018235, , 
84.75, 0.018153, , 
84.78, 0.018080, , 
84.81, 0.018140, , 
84.84, 0.018128, , 
84.87, 0.018201, , 
84.90, 0.018150, , 
84.93, 0.018197, , 
84.96, 0.018331, , 
84.99, 0.018343, , 
85.02, 0.018115, , 
85.05, 0.018194, , 
85.08, 0.018264, , 
85.11, 0.018115, , 
85.14, 0.018102, , 
85.17, 0.018172, , 
85.20, 0.018346, , 
85.23, 0.018286, , 
85.26, 0.018191, , 
85.29, 0.018207, , 
85.33, 0.018213, , 
85.35, 0.018185, , 
85.38, 0.018191, , 
85.41, 0.018226, , 
85.44, 0.018201, , 
85.47, 0.018150, , 
85.50, 0.018124, , 
85.53, 0.018156, , 
85.56, 0.018175, , 
85.59, 0.018156, , 
85.62, 0.018182, , 
85.65, 0.018210, , 
85.68, 0.018293, , 
85.71, 0.018305, , 
85.74, 0.018251, , 
85.77, 0.018197, , 
85.80, 0.018201, , 
85.83, 0.018115, , 
85.86, 0.018124, , 
85.89, 0.018137, , 
85.92, 0.018175, , 
85.95, 0.018191, , 
85.98, 0.018102, , 
86.01, 0.018232, , 
86.04, 0.018286, , 
86.07, 0.018137, , 
86.10, 0.018048, , 
86.13, 0.018137, , 
86.16, 0.018226, , 
86.19, 0.018121, , 
86.22, 0.018112, , 
86.25, 0.018229, , 
86.28, 0.018251, , 
86.31, 0.018178, , 
86.34, 0.018112, , 
86.37, 0.018232, , 
86.38, 0.018213, 27, 0.585
86.40, 0.018188, , 
86.43, 0.018147, , 
86.46, 0.018182, , 
86.49, 0.018267, , 
86.52, 0.018299, , 
86.55, 0.018201, , 
86.58, 0.018156, , 
86.61, 0.018159, , 
86.64, 0.018159, , 
86.67, 0.018074, , 
86.70, 0.018131, , 
86.73, 0.018153, , 
86.76, 0.018102, , 
86.79, 0.018112, , 
86.82, 0.018153, , 
86.85, 0.018204, , 
86.88, 0.018150, , 
86.91, 0.018128, , 
86.94, 0.018105, , 
86.97, 0.018159, , 
87.00, 0.018137, , 
87.03, 0.018071, , 
87.06, 0.017956, , 
87.09, 0.018032, , 
87.12, 0.018048, , 
87.15, 0.018191, , 
87.18, 0.018267, , 
87.21, 0.018251, , 
87.24, 0.018251, , 
87.27, 0.018096, , 
87.30, 0.018147, , 
87.33, 0.018296, , 
87.36, 0.018258, , 
87.39, 0.018090, , 
87.42, 0.018121, , 
87.45, 0.018185, , 
87.48, 0.018143, , 
87.51, 0.018207, , 
87.54, 0.018131, , 
87.57, 0.018093, , 
87.60, 0.018020, , 
87.63, 0.018090, , 
87.66, 0.018172, , 
87.69, 0.018210, , 
87.72, 0.018153, , 
87.75, 0.018096, , 
87.78, 0.018169, , 
87.82, 0.018264, , 
87.84, 0.018197, , 
87.87, 0.018169, , 
87.90, 0.018140, , 
87.93, 0.018204, , 
87.96, 0.018182, , 
87.99, 0.018124, , 
88.02, 0.018162, , 
88.05, 0.018153, , 
88.08, 0.018169, , 
88.11, 0.018131, , 
88.14, 0.018172, , 
88.17, 0.018235, , 
88.20, 0.018166, , 
88.24, 0.018159, , 
88.26, 0.018220, , 
88.29, 0.018150, , 
88.32, 0.018086, , 
88.35, 0.018188, , 
88.38, 0.018267, , 
88.41, 0.018172, , 
88.44, 0.018074, , 
88.47, 0.018083, , 
88.50, 0.018178, , 
88.53, 0.018178, , 
88.56, 0.018115, , 
88.59, 0.018112, , 
88.62, 0.018254, , 
88.65, 0.018308, , 
88.68, 0.018385, , 
88.71, 0.018572, , 
88.74, 0.018695, , 
88.77, 0.018664, , 
88.80, 0.018683, , 
88.83, 0.018863, , 
88.86, 0.019057, , 
88.89, 0.019089, , 
88.92, 0.019066, , 
88.95, 0.019187, , 
88.98, 0.019197, , 
89.01, 0.019133, , 
89.04, 0.019016, , 
89.07, 0.018984, , 
89.10, 0.018946, , 
89.13, 0.018746, , 
89.16, 0.018686, , 
89.19, 0.018721, , 
89.22, 0.018756, , 
89.25, 0.018721, , 
89.28, 0.018537, , 
89.31, 0.018616, , 
89.34, 0.018562, , 
89.37, 0.018419, , 
89.40, 0.018302, , 
89.43, 0.018128, , 
89.46, 0.018213, , 
89.49, 0.018143, , 
89.52, 0.018131, , 
89.55, 0.018232, , 
89.58, 0.018232, , 
89.61, 0.018147, , 
89.64, 0.018159, , 
89.67, 0.018210, , 
89.70, 0.018216, , 
89.73, 0.018128, , 
89.77, 0.018109, , 
89.79, 0.018131, , 
89.82, 0.018074, , 
89.85, 0.018013, , 
89.88, 0.018216, , 
89.91, 0.018248, , 
89.94, 0.018248, , 
89.97, 0.018143, , 
90.00, 0.018109, , 
90.03, 0.018194, , 
90.06, 0.018185, , 
90.09, 0.018124, , 
90.12, 0.018121, , 
90.15, 0.018178, , 
90.18, 0.018156, , 
90.21, 0.018102, , 
90.24, 0.018121, , 
90.27, 0.018270, , 
90.30, 0.018197, , 
90.33, 0.018109, , 
90.36, 0.018150, , 
90.39, 0.018147, , 
90.42, 0.018093, , 
90.45, 0.018077, , 
90.48, 0.018032, , 
90.51, 0.018156, , 
90.54, 0.018124, , 
90.58, 0.018159, , 
90.60, 0.018159, , 
90.63, 0.018242, , 
90.66, 0.018074, , 
90.69, 0.018017, , 
90.72, 0.018185, , 
90.75, 0.018220, , 
90.78, 0.018131, , 
90.81, 0.018007, , 
90.84, 0.018061, , 
90.87, 0.018175, , 
90.90, 0.018036, , 
90.93, 0.018036, , 
90.96, 0.018096, , 
90.99, 0.018375, , 
91.02, 0.018277, , 
91.05, 0.018086, , 
91.08, 0.018191, , 
91.11, 0.018188, , 
91.14, 0.018153, , 
91.17, 0.018131, , 
91.20, 0.018248, , 
91.23, 0.018178, , 
91.26, 0.018166, , 
91.29, 0.018143, , 
91.33, 0.018201, , 
91.35, 0.018293, , 
91.38, 0.018204, , 
91.41, 0.018150, , 
91.44, 0.018159, , 
91.47, 0.018182, , 
91.50, 0.018051, , 
91.53, 0.018077, , 
91.56, 0.018105, , 
91.59, 0.018251, , 
91.62, 0.018083, , 
91.65, 0.018055, , 
91.68, 0.018159, , 
91.71, 0.018140, , 
91.74, 0.018109, , 
91.77, 0.018080, , 
91.80, 0.018188, , 
91.83, 0.018296, , 
91.86, 0.018264, , 
91.89, 0.018118, , 
91.92, 0.018239, , 
91.95, 0.018299, , 
91.98, 0.018337, , 
92.01, 0.018515, , 
92.04, 0.018695, , 
92.07, 0.018718, , 
92.10, 0.018607, , 
92.13, 0.018626, , 
92.16, 0.018740, , 
92.19, 0.018702, , 
92.22, 0.018657, , 
92.25, 0.018730, , 
92.28, 0.018752, , 
92.31, 0.018641, , 
92.34, 0.018588, , 
92.37, 0.018692, , 
92.40, 0.018749, , 
92.43, 0.018664, , 
92.46, 0.018603, , 
92.49, 0.018689, , 
92.52, 0.018756, , 
92.55, 0.018664, , 
92.58, 0.018743, , 
92.61, 0.018768, , 
92.64, 0.018746, , 
92.67, 0.018695, , 
92.70, 0.018651, , 
92.73, 0.018740, , 
92.76, 0.018733, , 
92.79, 0.018641, , 
92.82, 0.018702, , 
92.85, 0.018781, , 
92.88, 0.018765, , 
92.91, 0.018613, , 
92.94, 0.018632, , 
92.97, 0.018800, , 
93.00, 0.018879, , 
93.03, 0.018699, , 
93.06, 0.018651, , 
93.09, 0.018664, , 
93.12, 0.018733, , 
93.15, 0.018680, , 
93.19, 0.018683, , 
93.21, 0.018756, , 
93.24, 0.018756, , 
93.27, 0.018645, , 
93.30, 0.018651, , 
93.33, 0.018775, , 
93.36, 0.018810, , 
93.39, 0.018702, , 
93.42, 0.018572, , 
93.45, 0.018689, , 
93.48, 0.018778, , 
93.51, 0.018727, , 
93.55, 0.018654, , 
93.57, 0.018781, , 
93.60, 0.018762, , 
93.63, 0.018699, , 
93.66, 0.018651, , 
93.69, 0.018740, , 
93.72, 0.018772, , 
93.75, 0.018730, , 
93.78, 0.018765, , 
93.81, 0.018870, , 
93.84, 0.018825, , 
93.87, 0.018714, , 
93.90, 0.018772, , 
93.93, 0.018822, , 
93.96, 0.018806, , 
93.99, 0.018705, , 
94.02, 0.018613, , 
94.05, 0.018708, , 
94.08, 0.018803, , 
94.11, 0.018721, , 
94.15, 0.018762, , 
94.17, 0.018851, , 
94.20, 0.018825, , 
94.23, 0.018645, , 
94.26, 0.018673, , 
94.29, 0.018708, , 
94.32, 0.018822, , 
94.35, 0.018772, , 
94.38, 0.018838, , 
94.41, 0.018870, , 
94.44, 0.018756, , 
94.47, 0.018711, , 
94.50, 0.018762, , 
94.53, 0.018784, , 
94.56, 0.018733, , 
94.59, 0.018702, , 
94.62, 0.018730, , 
94.65, 0.018759, , 
94.68, 0.018791, , 
94.71, 0.018711, , 
94.74, 0.018724, , 
94.77, 0.018724, , 
94.80, 0.018667, , 
94.83, 0.018632, , 
94.86, 0.018743, , 
94.89, 0.018772, , 
94.92, 0.018784, , 
94.95, 0.018680, , 
94.98, 0.018699, , 
95.01, 0.018759, , 
95.04, 0.018752, , 
95.07, 0.018632, , 
95.10, 0.018632, , 
95.13, 0.018762, , 
95.16, 0.018632, , 
95.19, 0.018600, , 
95.22, 0.018524, , 
95.25, 0.018756, , 
95.28, 0.018705, , 
95.31, 0.018689, , 
95.34, 0.018702, , 
95.37, 0.018746, , 
95.40, 0.018667, , 
95.43, 0.018600, , 
95.46, 0.018660, , 
95.49, 0.018657, , 
95.53, 0.018588, , 
95.55, 0.018581, , 
95.58, 0.018619, , 
95.61, 0.018692, , 
95.64, 0.018616, , 
95.67, 0.018524, , 
95.70, 0.018594, , 
95.74, 0.018670, , 
95.76, 0.018565, , 
95.79, 0.018543, , 
95.82, 0.018673, , 
95.85, 0.018591, , 
95.88, 0.018559, , 
95.91, 0.018607, , 
95.94, 0.018686, , 
95.97, 0.018689, , 
96.00, 0.018597, , 
