Gradient Profiler Text Data File: 20231116_MV_A_30C.csv
Date: 2023-11-16
Time: 17:27:55

User: jared
Experiment name: 20231116_BY4742_30
UV Unit: EM-1
Rotor Manufacturer: Beckman
Rotor Model: SW28.1
Speed: 28 rpm
Gradient: sucrose 10.0% to 50.0% w/v
Time: 4
w2t:  x 10^0
Sample Volume: 18 ml
Number of Tubes: 6
Volume per mm: 0.183 ml/mm

Absorbance Units Full Scale (AUFS): 2.00
Event Mark-triggered gradient; (with distance; auto start and stop)
Delay: No Delay
UV Wavelength: 254 nm
Samples / sec: 10 Hz
EM1 Speed: 0.30 mm/sec
Distance: 3.20 mm
Number: 30
Dead Volume: 0.000000 ml; Distance due to Dead Volume: 0.00 mm
Total Distance: 96.00 mm

Data Columns:
Distance(mm), Absorbance, Fraction Number, Fraction Volume(ml)
0.00, 0.083346, 0, 0.000
0.03, 0.083365, , 
0.06, 0.083381, , 
0.09, 0.083409, , 
0.12, 0.083435, , 
0.15, 0.083419, , 
0.18, 0.083397, , 
0.21, 0.083473, , 
0.24, 0.083647, , 
0.27, 0.083898, , 
0.30, 0.084136, , 
0.33, 0.084415, , 
0.36, 0.084637, , 
0.39, 0.084890, , 
0.43, 0.085046, , 
0.45, 0.085170, , 
0.48, 0.085401, , 
0.51, 0.085699, , 
0.54, 0.086952, , 
0.57, 0.090679, , 
0.60, 0.100760, , 
0.63, 0.124124, , 
0.66, 0.167161, , 
0.69, 0.242139, , 
0.72, 0.322218, , 
0.75, 0.411362, , 
0.78, 0.521961, , 
0.81, 0.619656, , 
0.84, 0.719268, , 
0.87, 0.820101, , 
0.90, 0.921790, , 
0.93, 1.041365, , 
0.96, 1.144114, , 
0.99, 1.264146, , 
1.02, 1.366742, , 
1.05, 1.452036, , 
1.08, 1.570200, , 
1.11, 1.667902, , 
1.14, 1.771792, , 
1.17, 1.843973, , 
1.20, 1.896481, , 
1.23, 1.935727, , 
1.26, 1.953208, , 
1.29, 1.968538, , 
1.32, 1.976461, , 
1.35, 1.981666, , 
1.38, 1.985650, , 
1.41, 1.987994, , 
1.45, 1.990148, , 
1.47, 1.991572, , 
1.50, 1.993415, , 
1.53, 1.996114, , 
1.56, 1.998969, , 
1.59, 2.002576, , 
1.62, 2.005617, , 
1.65, 2.008196, , 
1.68, 2.011622, , 
1.71, 2.014255, , 
1.74, 2.016992, , 
1.77, 2.019089, , 
1.80, 2.021116, , 
1.83, 2.023326, , 
1.86, 2.024827, , 
1.89, 2.026930, , 
1.92, 2.028636, , 
1.95, 2.030076, , 
1.98, 2.031259, , 
2.01, 2.031776, , 
2.04, 2.031983, , 
2.07, 2.032002, , 
2.10, 2.032078, , 
2.13, 2.032116, , 
2.16, 2.032148, , 
2.19, 2.032163, , 
2.22, 2.032182, , 
2.25, 2.032230, , 
2.28, 2.032246, , 
2.31, 2.032274, , 
2.34, 2.032297, , 
2.37, 2.032281, , 
2.40, 2.032300, , 
2.43, 2.032347, , 
2.47, 2.032404, , 
2.49, 2.032604, , 
2.52, 2.032852, , 
2.55, 2.033178, , 
2.58, 2.033483, , 
2.61, 2.033661, , 
2.64, 2.033734, , 
2.67, 2.033534, , 
2.70, 2.033090, , 
2.73, 2.032246, , 
2.76, 2.031342, , 
2.79, 2.029965, , 
2.82, 2.028522, , 
2.85, 2.026771, , 
2.88, 2.024640, , 
2.91, 2.022077, , 
2.94, 2.019076, , 
2.97, 2.015098, , 
3.00, 2.011343, , 
3.03, 2.006404, , 
3.06, 2.001599, , 
3.09, 1.997228, , 
3.12, 1.990510, , 
3.15, 1.984169, , 
3.18, 1.976249, , 
3.19, 1.975069, 1, 0.583
3.21, 1.969143, , 
3.24, 1.961838, , 
3.27, 1.952770, , 
3.30, 1.945941, , 
3.33, 1.935921, , 
3.36, 1.926963, , 
3.39, 1.917939, , 
3.42, 1.907053, , 
3.45, 1.897413, , 
3.49, 1.885814, , 
3.51, 1.877186, , 
3.54, 1.866636, , 
3.57, 1.854047, , 
3.60, 1.842938, , 
3.63, 1.829794, , 
3.66, 1.818454, , 
3.69, 1.808866, , 
3.72, 1.795366, , 
3.75, 1.783607, , 
3.78, 1.769752, , 
3.81, 1.757674, , 
3.84, 1.745313, , 
3.87, 1.730795, , 
3.90, 1.720248, , 
3.93, 1.705445, , 
3.96, 1.692884, , 
3.99, 1.680313, , 
4.02, 1.665504, , 
4.05, 1.652457, , 
4.08, 1.636953, , 
4.11, 1.625766, , 
4.14, 1.612266, , 
4.17, 1.596641, , 
4.20, 1.583141, , 
4.23, 1.567307, , 
4.26, 1.553661, , 
4.29, 1.539984, , 
4.32, 1.526582, , 
4.35, 1.513267, , 
4.38, 1.497822, , 
4.41, 1.484586, , 
4.44, 1.471216, , 
4.47, 1.455569, , 
4.50, 1.442066, , 
4.53, 1.428868, , 
4.56, 1.416082, , 
4.59, 1.403587, , 
4.62, 1.389326, , 
4.65, 1.377216, , 
4.68, 1.363095, , 
4.72, 1.351076, , 
4.74, 1.341221, , 
4.77, 1.327762, , 
4.80, 1.316239, , 
4.83, 1.302917, , 
4.86, 1.291593, , 
4.89, 1.280399, , 
4.92, 1.269364, , 
4.95, 1.258551, , 
4.98, 1.245904, , 
5.01, 1.234967, , 
5.04, 1.223926, , 
5.07, 1.210769, , 
5.10, 1.199486, , 
5.13, 1.188289, , 
5.16, 1.177276, , 
5.19, 1.166374, , 
5.22, 1.153645, , 
5.25, 1.142778, , 
5.28, 1.129941, , 
5.31, 1.119059, , 
5.34, 1.110063, , 
5.37, 1.097626, , 
5.40, 1.087111, , 
5.43, 1.074655, , 
5.46, 1.063819, , 
5.49, 1.053022, , 
5.53, 1.040607, , 
5.55, 1.031897, , 
5.58, 1.019958, , 
5.61, 1.009760, , 
5.64, 0.999458, , 
5.67, 0.987353, , 
5.70, 0.977083, , 
5.73, 0.966936, , 
5.76, 0.956973, , 
5.79, 0.947149, , 
5.82, 0.935749, , 
5.85, 0.926132, , 
5.88, 0.914935, , 
5.91, 0.905432, , 
5.94, 0.897581, , 
5.97, 0.886752, , 
6.00, 0.877646, , 
6.03, 0.866966, , 
6.06, 0.857809, , 
6.09, 0.848689, , 
6.12, 0.839586, , 
6.15, 0.829163, , 
6.18, 0.820392, , 
6.21, 0.810252, , 
6.24, 0.803039, , 
6.27, 0.794306, , 
6.30, 0.784175, , 
6.33, 0.775471, , 
6.36, 0.765312, , 
6.39, 0.758023, 2, 0.585
6.39, 0.756554, , 
6.42, 0.747657, , 
6.45, 0.738867, , 
6.48, 0.730138, , 
6.51, 0.720112, , 
6.54, 0.711706, , 
6.57, 0.703478, , 
6.60, 0.694187, , 
6.63, 0.686369, , 
6.66, 0.678686, , 
6.69, 0.671127, , 
6.72, 0.663591, , 
6.75, 0.654916, , 
6.78, 0.647576, , 
6.81, 0.639342, , 
6.84, 0.632642, , 
6.87, 0.627231, , 
6.90, 0.619828, , 
6.93, 0.613516, , 
6.96, 0.606188, , 
6.99, 0.599971, , 
7.02, 0.593808, , 
7.06, 0.586592, , 
7.08, 0.581539, , 
7.11, 0.574409, , 
7.14, 0.568258, , 
7.17, 0.562187, , 
7.20, 0.555130, , 
7.23, 0.549319, , 
7.26, 0.543593, , 
7.29, 0.537859, , 
7.32, 0.532038, , 
7.35, 0.525038, , 
7.38, 0.519065, , 
7.41, 0.512090, , 
7.44, 0.506161, , 
7.47, 0.501296, , 
7.50, 0.494619, , 
7.53, 0.489020, , 
7.56, 0.482565, , 
7.59, 0.477132, , 
7.62, 0.471816, , 
7.65, 0.465729, , 
7.68, 0.461482, , 
7.71, 0.455461, , 
7.74, 0.450402, , 
7.77, 0.445441, , 
7.80, 0.439728, , 
7.83, 0.435018, , 
7.86, 0.429759, , 
7.89, 0.426184, , 
7.92, 0.421969, , 
7.95, 0.417040, , 
7.98, 0.412948, , 
8.01, 0.408155, , 
8.04, 0.404076, , 
8.07, 0.399952, , 
8.10, 0.395734, , 
8.13, 0.391658, , 
8.16, 0.386928, , 
8.19, 0.382894, , 
8.22, 0.380911, , 
8.26, 0.377270, , 
8.29, 0.371729, , 
8.32, 0.367982, , 
8.34, 0.366203, , 
8.37, 0.359954, , 
8.40, 0.354397, , 
8.43, 0.350543, , 
8.46, 0.346042, , 
8.49, 0.342921, , 
8.52, 0.339191, , 
8.55, 0.334925, , 
8.58, 0.331337, , 
8.61, 0.327172, , 
8.64, 0.323690, , 
8.67, 0.320254, , 
8.70, 0.316870, , 
8.74, 0.313000, , 
8.76, 0.309692, , 
8.79, 0.306533, , 
8.82, 0.303440, , 
8.85, 0.300433, , 
8.88, 0.297001, , 
8.91, 0.294114, , 
8.94, 0.291307, , 
8.97, 0.288154, , 
9.00, 0.285477, , 
9.03, 0.282841, , 
9.06, 0.280199, , 
9.09, 0.277513, , 
9.12, 0.274509, , 
9.15, 0.272003, , 
9.18, 0.269072, , 
9.21, 0.266579, , 
9.24, 0.264121, , 
9.27, 0.261729, , 
9.30, 0.259315, , 
9.33, 0.256879, , 
9.36, 0.253951, , 
9.39, 0.251325, , 
9.42, 0.248677, , 
9.45, 0.245514, , 
9.48, 0.242767, , 
9.51, 0.240052, , 
9.54, 0.237372, , 
9.57, 0.234761, , 
9.59, 0.232576, 3, 0.587
9.60, 0.231713, , 
9.63, 0.229118, , 
9.66, 0.226146, , 
9.69, 0.223644, , 
9.72, 0.221642, , 
9.75, 0.218860, , 
9.78, 0.216557, , 
9.81, 0.213944, , 
9.84, 0.211796, , 
9.87, 0.209751, , 
9.90, 0.207445, , 
9.93, 0.205808, , 
9.96, 0.203530, , 
9.99, 0.201599, , 
10.02, 0.199803, , 
10.05, 0.197846, , 
10.08, 0.196219, , 
10.11, 0.194360, , 
10.14, 0.193225, , 
10.17, 0.191483, , 
10.20, 0.189561, , 
10.23, 0.187874, , 
10.26, 0.185999, , 
10.29, 0.184385, , 
10.33, 0.182732, , 
10.35, 0.181146, , 
10.38, 0.179560, , 
10.41, 0.177698, , 
10.44, 0.176007, , 
10.47, 0.174266, , 
10.50, 0.172328, , 
10.53, 0.171002, , 
10.56, 0.169109, , 
10.59, 0.167465, , 
10.62, 0.165800, , 
10.65, 0.163964, , 
10.68, 0.162466, , 
10.71, 0.160960, , 
10.74, 0.159463, , 
10.77, 0.157991, , 
10.80, 0.156421, , 
10.83, 0.155089, , 
10.86, 0.153595, , 
10.89, 0.152418, , 
10.92, 0.151336, , 
10.95, 0.150029, , 
10.98, 0.148872, , 
11.01, 0.147749, , 
11.04, 0.146458, , 
11.07, 0.145414, , 
11.10, 0.144294, , 
11.13, 0.143390, , 
11.16, 0.142639, , 
11.19, 0.141595, , 
11.22, 0.140713, , 
11.25, 0.139705, , 
11.28, 0.138810, , 
11.31, 0.137903, , 
11.35, 0.136856, , 
11.37, 0.136139, , 
11.40, 0.135124, , 
11.43, 0.134205, , 
11.46, 0.133307, , 
11.49, 0.132301, , 
11.52, 0.131410, , 
11.55, 0.130576, , 
11.58, 0.129815, , 
11.61, 0.129060, , 
11.64, 0.128130, , 
11.67, 0.127315, , 
11.70, 0.126452, , 
11.73, 0.125704, , 
11.76, 0.125060, , 
11.79, 0.124207, , 
11.82, 0.123531, , 
11.85, 0.122706, , 
11.88, 0.122056, , 
11.91, 0.121352, , 
11.94, 0.120591, , 
11.97, 0.120067, , 
12.00, 0.119309, , 
12.03, 0.118643, , 
12.06, 0.118021, , 
12.09, 0.117244, , 
12.12, 0.116626, , 
12.15, 0.115956, , 
12.18, 0.115535, , 
12.21, 0.115052, , 
12.24, 0.114443, , 
12.27, 0.113863, , 
12.30, 0.113314, , 
12.33, 0.112626, , 
12.36, 0.111868, , 
12.39, 0.111176, , 
12.42, 0.110466, , 
12.45, 0.109774, , 
12.48, 0.108937, , 
12.51, 0.108185, , 
12.54, 0.107465, , 
12.57, 0.106672, , 
12.60, 0.105962, , 
12.63, 0.105270, , 
12.66, 0.104506, , 
12.69, 0.103862, , 
12.72, 0.103193, , 
12.75, 0.102539, , 
12.78, 0.101870, , 
12.79, 0.101657, 4, 0.585
12.81, 0.101147, , 
12.84, 0.100500, , 
12.87, 0.099735, , 
12.90, 0.099158, , 
12.93, 0.098717, , 
12.96, 0.098159, , 
12.99, 0.097699, , 
13.02, 0.097147, , 
13.05, 0.096706, , 
13.08, 0.096300, , 
13.11, 0.095732, , 
13.14, 0.095358, , 
13.17, 0.094876, , 
13.20, 0.094448, , 
13.23, 0.094080, , 
13.26, 0.093727, , 
13.29, 0.093407, , 
13.33, 0.092938, , 
13.35, 0.092605, , 
13.38, 0.092240, , 
13.41, 0.091707, , 
13.44, 0.091272, , 
13.47, 0.090746, , 
13.50, 0.090292, , 
13.54, 0.089877, , 
13.56, 0.089455, , 
13.59, 0.089020, , 
13.62, 0.088506, , 
13.65, 0.088075, , 
13.68, 0.087698, , 
13.71, 0.087317, , 
13.74, 0.087066, , 
13.77, 0.086622, , 
13.80, 0.086267, , 
13.83, 0.085963, , 
13.86, 0.085658, , 
13.89, 0.085427, , 
13.92, 0.085119, , 
13.95, 0.084957, , 
13.98, 0.084745, , 
14.01, 0.084488, , 
14.04, 0.084335, , 
14.07, 0.084107, , 
14.10, 0.083967, , 
14.13, 0.083891, , 
14.16, 0.083742, , 
14.19, 0.083641, , 
14.22, 0.083622, , 
14.25, 0.083590, , 
14.28, 0.083568, , 
14.31, 0.083546, , 
14.34, 0.083482, , 
14.37, 0.083368, , 
14.40, 0.083314, , 
14.43, 0.083355, , 
14.46, 0.083441, , 
14.49, 0.083530, , 
14.52, 0.083523, , 
14.56, 0.083527, , 
14.58, 0.083546, , 
14.61, 0.083568, , 
14.64, 0.083685, , 
14.67, 0.083822, , 
14.70, 0.083948, , 
14.73, 0.084104, , 
14.76, 0.084234, , 
14.79, 0.084380, , 
14.82, 0.084634, , 
14.85, 0.084871, , 
14.88, 0.085119, , 
14.91, 0.085420, , 
14.94, 0.085696, , 
14.97, 0.085997, , 
15.00, 0.086302, , 
15.03, 0.086667, , 
15.06, 0.087066, , 
15.09, 0.087444, , 
15.12, 0.087767, , 
15.15, 0.088132, , 
15.18, 0.088443, , 
15.21, 0.088840, , 
15.24, 0.089287, , 
15.27, 0.089759, , 
15.30, 0.090181, , 
15.33, 0.090518, , 
15.36, 0.090838, , 
15.39, 0.091136, , 
15.42, 0.091567, , 
15.45, 0.091977, , 
15.48, 0.092332, , 
15.51, 0.092671, , 
15.54, 0.092947, , 
15.58, 0.093214, , 
15.60, 0.093433, , 
15.63, 0.093718, , 
15.66, 0.094067, , 
15.69, 0.094365, , 
15.72, 0.094593, , 
15.75, 0.094844, , 
15.78, 0.095053, , 
15.81, 0.095225, , 
15.84, 0.095374, , 
15.87, 0.095593, , 
15.90, 0.095751, , 
15.94, 0.095935, , 
15.96, 0.096078, , 
15.99, 0.096202, 5, 0.586
16.00, 0.096221, , 
16.02, 0.096354, , 
16.05, 0.096433, , 
16.08, 0.096446, , 
16.11, 0.096459, , 
16.14, 0.096462, , 
16.17, 0.096373, , 
16.20, 0.096268, , 
16.23, 0.096145, , 
16.26, 0.096040, , 
16.29, 0.095897, , 
16.32, 0.095643, , 
16.35, 0.095469, , 
16.38, 0.095256, , 
16.41, 0.095031, , 
16.44, 0.094733, , 
16.47, 0.094428, , 
16.50, 0.094165, , 
16.53, 0.093791, , 
16.56, 0.093464, , 
16.59, 0.093125, , 
16.62, 0.092671, , 
16.65, 0.092367, , 
16.68, 0.091986, , 
16.71, 0.091644, , 
16.74, 0.091276, , 
16.77, 0.090863, , 
16.80, 0.090441, , 
16.83, 0.089905, , 
16.86, 0.089414, , 
16.89, 0.088827, , 
16.92, 0.088177, , 
16.96, 0.087688, , 
16.98, 0.087216, , 
17.01, 0.086756, , 
17.04, 0.086365, , 
17.07, 0.085779, , 
17.10, 0.085350, , 
17.13, 0.084833, , 
17.16, 0.084412, , 
17.19, 0.083888, , 
17.22, 0.083184, , 
17.25, 0.082705, , 
17.28, 0.082137, , 
17.31, 0.081684, , 
17.34, 0.081236, , 
17.37, 0.080631, , 
17.40, 0.080075, , 
17.43, 0.079473, , 
17.46, 0.079013, , 
17.49, 0.078572, , 
17.52, 0.077979, , 
17.55, 0.077532, , 
17.58, 0.077084, , 
17.61, 0.076653, , 
17.64, 0.076253, , 
17.67, 0.075714, , 
17.70, 0.075273, , 
17.73, 0.074763, , 
17.76, 0.074287, , 
17.79, 0.073925, , 
17.82, 0.073243, , 
17.85, 0.072780, , 
17.88, 0.072352, , 
17.91, 0.071993, , 
17.94, 0.071629, , 
17.98, 0.071146, , 
18.00, 0.070747, , 
18.03, 0.070246, , 
18.06, 0.069856, , 
18.09, 0.069421, , 
18.12, 0.068945, , 
18.15, 0.068450, , 
18.18, 0.068063, , 
18.21, 0.067730, , 
18.24, 0.067385, , 
18.27, 0.067017, , 
18.30, 0.066646, , 
18.33, 0.066186, , 
18.36, 0.065792, , 
18.39, 0.065516, , 
18.42, 0.065171, , 
18.45, 0.064793, , 
18.48, 0.064400, , 
18.51, 0.064083, , 
18.54, 0.063807, , 
18.57, 0.063458, , 
18.60, 0.063175, , 
18.63, 0.062842, , 
18.66, 0.062541, , 
18.69, 0.062233, , 
18.72, 0.061916, , 
18.75, 0.061653, , 
18.78, 0.061409, , 
18.81, 0.061199, , 
18.84, 0.060984, , 
18.87, 0.060743, , 
18.90, 0.060530, , 
18.93, 0.060340, , 
18.96, 0.060181, , 
18.99, 0.060013, , 
19.02, 0.059839, , 
19.05, 0.059610, , 
19.08, 0.059407, , 
19.11, 0.059258, , 
19.14, 0.059106, , 
19.17, 0.058919, , 
19.18, 0.058896, 6, 0.584
19.21, 0.058773, , 
19.23, 0.058611, , 
19.26, 0.058471, , 
19.29, 0.058345, , 
19.32, 0.058132, , 
19.35, 0.057948, , 
19.38, 0.057847, , 
19.41, 0.057789, , 
19.44, 0.057669, , 
19.47, 0.057529, , 
19.50, 0.057412, , 
19.53, 0.057238, , 
19.56, 0.057082, , 
19.59, 0.056930, , 
19.62, 0.056813, , 
19.65, 0.056721, , 
19.68, 0.056587, , 
19.71, 0.056483, , 
19.74, 0.056368, , 
19.77, 0.056254, , 
19.80, 0.056204, , 
19.83, 0.056146, , 
19.86, 0.056035, , 
19.89, 0.055883, , 
19.92, 0.055772, , 
19.95, 0.055740, , 
19.98, 0.055674, , 
20.01, 0.055560, , 
20.04, 0.055449, , 
20.07, 0.055325, , 
20.10, 0.055280, , 
20.13, 0.055223, , 
20.16, 0.055144, , 
20.19, 0.055024, , 
20.22, 0.054909, , 
20.25, 0.054811, , 
20.28, 0.054684, , 
20.31, 0.054579, , 
20.34, 0.054478, , 
20.37, 0.054342, , 
20.40, 0.054294, , 
20.43, 0.054199, , 
20.46, 0.054034, , 
20.49, 0.053926, , 
20.52, 0.053802, , 
20.55, 0.053755, , 
20.58, 0.053714, , 
20.61, 0.053571, , 
20.64, 0.053463, , 
20.67, 0.053371, , 
20.70, 0.053330, , 
20.73, 0.053269, , 
20.76, 0.053155, , 
20.79, 0.053028, , 
20.82, 0.052924, , 
20.85, 0.052863, , 
20.88, 0.052803, , 
20.91, 0.052759, , 
20.94, 0.052610, , 
20.97, 0.052435, , 
21.00, 0.052350, , 
21.04, 0.052321, , 
21.06, 0.052305, , 
21.09, 0.052191, , 
21.12, 0.052001, , 
21.15, 0.051915, , 
21.18, 0.051861, , 
21.21, 0.051814, , 
21.24, 0.051775, , 
21.27, 0.051769, , 
21.30, 0.051785, , 
21.33, 0.051763, , 
21.36, 0.051753, , 
21.39, 0.051769, , 
21.42, 0.051772, , 
21.45, 0.051760, , 
21.48, 0.051763, , 
21.51, 0.051785, , 
21.54, 0.051842, , 
21.57, 0.051982, , 
21.60, 0.052102, , 
21.63, 0.052235, , 
21.66, 0.052410, , 
21.69, 0.052549, , 
21.72, 0.052762, , 
21.75, 0.052994, , 
21.78, 0.053212, , 
21.81, 0.053466, , 
21.84, 0.053679, , 
21.87, 0.053983, , 
21.90, 0.054335, , 
21.93, 0.054703, , 
21.96, 0.055201, , 
21.99, 0.055614, , 
22.02, 0.056089, , 
22.05, 0.056549, , 
22.08, 0.056914, , 
22.11, 0.057406, , 
22.14, 0.057847, , 
22.17, 0.058411, , 
22.20, 0.058976, , 
22.23, 0.059607, , 
22.26, 0.060362, , 
22.29, 0.060857, , 
22.32, 0.061494, , 
22.35, 0.062164, , 
22.38, 0.062855, , 
22.38, 0.062982, 7, 0.586
22.41, 0.063677, , 
22.44, 0.064355, , 
22.47, 0.065167, , 
22.50, 0.065827, , 
22.53, 0.066515, , 
22.56, 0.067378, , 
22.59, 0.068209, , 
22.62, 0.069107, , 
22.65, 0.069941, , 
22.68, 0.070671, , 
22.71, 0.071429, , 
22.74, 0.072190, , 
22.77, 0.073078, , 
22.80, 0.073906, , 
22.83, 0.074645, , 
22.86, 0.075530, , 
22.89, 0.076123, , 
22.92, 0.076881, , 
22.95, 0.077630, , 
22.98, 0.078287, , 
23.01, 0.079057, , 
23.04, 0.079701, , 
23.07, 0.080443, , 
23.10, 0.081024, , 
23.13, 0.081557, , 
23.16, 0.082159, , 
23.19, 0.082743, , 
23.22, 0.083406, , 
23.25, 0.083974, , 
23.28, 0.084475, , 
23.31, 0.084973, , 
23.34, 0.085366, , 
23.37, 0.085696, , 
23.40, 0.086026, , 
23.43, 0.086378, , 
23.46, 0.086692, , 
23.49, 0.086940, , 
23.52, 0.087165, , 
23.55, 0.087441, , 
23.58, 0.087656, , 
23.61, 0.087834, , 
23.64, 0.087974, , 
23.67, 0.088164, , 
23.71, 0.088307, , 
23.73, 0.088392, , 
23.76, 0.088427, , 
23.79, 0.088475, , 
23.82, 0.088487, , 
23.85, 0.088459, , 
23.88, 0.088459, , 
23.92, 0.088472, , 
23.94, 0.088402, , 
23.97, 0.088253, , 
24.00, 0.088145, , 
24.03, 0.088075, , 
24.06, 0.087983, , 
24.09, 0.087818, , 
24.12, 0.087685, , 
24.15, 0.087599, , 
24.18, 0.087453, , 
24.21, 0.087235, , 
24.24, 0.086997, , 
24.27, 0.086781, , 
24.30, 0.086591, , 
24.33, 0.086381, , 
24.36, 0.086128, , 
24.39, 0.085883, , 
24.42, 0.085503, , 
24.45, 0.085176, , 
24.48, 0.084852, , 
24.51, 0.084554, , 
24.54, 0.084231, , 
24.57, 0.083736, , 
24.60, 0.083371, , 
24.63, 0.082937, , 
24.66, 0.082537, , 
24.69, 0.082220, , 
24.73, 0.081855, , 
24.75, 0.081541, , 
24.78, 0.080970, , 
24.81, 0.080339, , 
24.84, 0.079844, , 
24.87, 0.079279, , 
24.90, 0.078816, , 
24.94, 0.078369, , 
24.96, 0.077881, , 
24.99, 0.077455, , 
25.02, 0.076923, , 
25.05, 0.076402, , 
25.08, 0.075898, , 
25.11, 0.075213, , 
25.14, 0.074686, , 
25.17, 0.074192, , 
25.20, 0.073722, , 
25.23, 0.073237, , 
25.26, 0.072510, , 
25.29, 0.071978, , 
25.32, 0.071476, , 
25.35, 0.070915, , 
25.38, 0.070566, , 
25.41, 0.069928, , 
25.44, 0.069358, , 
25.47, 0.068837, , 
25.50, 0.068247, , 
25.53, 0.067784, , 
25.56, 0.067204, , 
25.59, 0.066899, 8, 0.586
25.59, 0.066833, , 
25.62, 0.066398, , 
25.65, 0.065900, , 
25.68, 0.065497, , 
25.71, 0.065034, , 
25.74, 0.064533, , 
25.77, 0.064098, , 
25.80, 0.063553, , 
25.83, 0.063245, , 
25.86, 0.062779, , 
25.89, 0.062281, , 
25.92, 0.061957, , 
25.95, 0.061608, , 
25.98, 0.061285, , 
26.01, 0.060946, , 
26.04, 0.060562, , 
26.07, 0.060295, , 
26.10, 0.059988, , 
26.13, 0.059721, , 
26.16, 0.059505, , 
26.19, 0.059236, , 
26.23, 0.059036, , 
26.25, 0.058782, , 
26.28, 0.058567, , 
26.31, 0.058405, , 
26.34, 0.058243, , 
26.37, 0.058050, , 
26.40, 0.057869, , 
26.43, 0.057777, , 
26.46, 0.057682, , 
26.49, 0.057599, , 
26.52, 0.057555, , 
26.55, 0.057434, , 
26.58, 0.057301, , 
26.61, 0.057199, , 
26.64, 0.057171, , 
26.67, 0.057174, , 
26.70, 0.057215, , 
26.73, 0.057368, , 
26.76, 0.057488, , 
26.79, 0.057567, , 
26.82, 0.057675, , 
26.85, 0.057770, , 
26.88, 0.057951, , 
26.91, 0.058050, , 
26.94, 0.058170, , 
26.97, 0.058367, , 
27.00, 0.058621, , 
27.03, 0.059020, , 
27.06, 0.059353, , 
27.10, 0.059670, , 
27.12, 0.059921, , 
27.15, 0.060286, , 
27.18, 0.060752, , 
27.21, 0.061342, , 
27.24, 0.061726, , 
27.27, 0.062351, , 
27.30, 0.063080, , 
27.33, 0.063797, , 
27.36, 0.064711, , 
27.39, 0.065554, , 
27.42, 0.066357, , 
27.45, 0.067375, , 
27.48, 0.068444, , 
27.51, 0.069817, , 
27.54, 0.071058, , 
27.57, 0.072282, , 
27.60, 0.074131, , 
27.64, 0.075771, , 
27.66, 0.077582, , 
27.69, 0.079536, , 
27.72, 0.081636, , 
27.75, 0.084139, , 
27.78, 0.086771, , 
27.81, 0.089950, , 
27.84, 0.092364, , 
27.87, 0.095399, , 
27.90, 0.098923, , 
27.93, 0.102485, , 
27.96, 0.106732, , 
27.99, 0.110653, , 
28.02, 0.114729, , 
28.05, 0.118624, , 
28.08, 0.123353, , 
28.11, 0.128815, , 
28.14, 0.133757, , 
28.17, 0.138899, , 
28.20, 0.144824, , 
28.23, 0.150651, , 
28.26, 0.156313, , 
28.29, 0.161956, , 
28.32, 0.167770, , 
28.35, 0.174317, , 
28.38, 0.180594, , 
28.41, 0.186589, , 
28.44, 0.193662, , 
28.47, 0.199756, , 
28.50, 0.205354, , 
28.53, 0.211822, , 
28.56, 0.217744, , 
28.59, 0.224560, , 
28.62, 0.230343, , 
28.65, 0.235989, , 
28.68, 0.242044, , 
28.71, 0.246815, , 
28.74, 0.252806, , 
28.77, 0.257656, , 
28.79, 0.260013, 9, 0.585
28.80, 0.262325, , 
28.83, 0.267239, , 
28.86, 0.271714, , 
28.89, 0.276345, , 
28.92, 0.279425, , 
28.95, 0.282927, , 
28.98, 0.286505, , 
29.01, 0.289674, , 
29.04, 0.292741, , 
29.07, 0.295050, , 
29.10, 0.297068, , 
29.13, 0.298679, , 
29.16, 0.300328, , 
29.19, 0.301803, , 
29.22, 0.302758, , 
29.25, 0.303437, , 
29.28, 0.303894, , 
29.31, 0.304166, , 
29.34, 0.304227, , 
29.37, 0.304065, , 
29.40, 0.303684, , 
29.43, 0.303021, , 
29.46, 0.302241, , 
29.49, 0.301134, , 
29.52, 0.300201, , 
29.55, 0.298949, , 
29.58, 0.297264, , 
29.61, 0.295589, , 
29.64, 0.293401, , 
29.67, 0.291479, , 
29.70, 0.289493, , 
29.73, 0.287523, , 
29.76, 0.285100, , 
29.79, 0.282404, , 
29.82, 0.279920, , 
29.85, 0.277373, , 
29.88, 0.274382, , 
29.91, 0.271797, , 
29.94, 0.269088, , 
29.97, 0.266322, , 
30.00, 0.263534, , 
30.03, 0.260184, , 
30.06, 0.257304, , 
30.09, 0.253983, , 
30.12, 0.251078, , 
30.15, 0.248651, , 
30.18, 0.245267, , 
30.21, 0.242593, , 
30.24, 0.238945, , 
30.27, 0.236027, , 
30.30, 0.233134, , 
30.33, 0.229816, , 
30.36, 0.227412, , 
30.39, 0.224107, , 
30.42, 0.221328, , 
30.45, 0.218543, , 
30.48, 0.215298, , 
30.51, 0.212545, , 
30.55, 0.209389, , 
30.57, 0.207146, , 
30.60, 0.204491, , 
30.63, 0.201399, , 
30.66, 0.198839, , 
30.69, 0.195943, , 
30.72, 0.193447, , 
30.75, 0.191395, , 
30.78, 0.188511, , 
30.81, 0.186072, , 
30.84, 0.183293, , 
30.87, 0.180892, , 
30.90, 0.178532, , 
30.93, 0.175811, , 
30.96, 0.173895, , 
30.99, 0.171202, , 
31.02, 0.168871, , 
31.05, 0.166552, , 
31.08, 0.163960, , 
31.11, 0.161807, , 
31.14, 0.159390, , 
31.17, 0.157690, , 
31.20, 0.155679, , 
31.23, 0.153357, , 
31.26, 0.151374, , 
31.29, 0.149052, , 
31.32, 0.147133, , 
31.35, 0.145268, , 
31.38, 0.143448, , 
31.41, 0.141627, , 
31.44, 0.139689, , 
31.47, 0.137824, , 
31.50, 0.136057, , 
31.53, 0.134049, , 
31.56, 0.132425, , 
31.59, 0.131004, , 
31.62, 0.129317, , 
31.65, 0.127766, , 
31.68, 0.126018, , 
31.71, 0.124584, , 
31.74, 0.122916, , 
31.77, 0.121574, , 
31.80, 0.120248, , 
31.83, 0.118576, , 
31.86, 0.117209, , 
31.89, 0.115649, , 
31.92, 0.114459, , 
31.95, 0.113181, , 
31.98, 0.111976, , 
31.99, 0.111763, 10, 0.586
32.01, 0.110748, , 
32.04, 0.109400, , 
32.07, 0.108328, , 
32.10, 0.107129, , 
32.13, 0.105841, , 
32.16, 0.104737, , 
32.19, 0.103633, , 
32.22, 0.102631, , 
32.25, 0.101483, , 
32.28, 0.100297, , 
32.31, 0.099272, , 
32.34, 0.098060, , 
32.37, 0.097137, , 
32.40, 0.096309, , 
32.43, 0.095282, , 
32.46, 0.094394, , 
32.49, 0.093420, , 
32.52, 0.092725, , 
32.55, 0.091916, , 
32.58, 0.090977, , 
32.61, 0.090308, , 
32.64, 0.089560, , 
32.67, 0.088703, , 
32.70, 0.087866, , 
32.73, 0.087089, , 
32.76, 0.086508, , 
32.79, 0.085741, , 
32.82, 0.084929, , 
32.85, 0.084272, , 
32.88, 0.083495, , 
32.92, 0.082661, , 
32.94, 0.082074, , 
32.97, 0.081439, , 
33.00, 0.080694, , 
33.03, 0.080107, , 
33.06, 0.079276, , 
33.09, 0.078635, , 
33.13, 0.078071, , 
33.15, 0.077462, , 
33.18, 0.076907, , 
33.21, 0.076133, , 
33.24, 0.075489, , 
33.27, 0.074908, , 
33.30, 0.074242, , 
33.33, 0.073827, , 
33.36, 0.073116, , 
33.39, 0.072529, , 
33.42, 0.072009, , 
33.45, 0.071410, , 
33.48, 0.071035, , 
33.51, 0.070506, , 
33.55, 0.069970, , 
33.57, 0.069551, , 
33.60, 0.069116, , 
33.63, 0.068666, , 
33.66, 0.068317, , 
33.69, 0.067781, , 
33.72, 0.067277, , 
33.75, 0.066852, , 
33.78, 0.066341, , 
33.81, 0.065903, , 
33.84, 0.065504, , 
33.87, 0.065031, , 
33.90, 0.064577, , 
33.93, 0.064070, , 
33.96, 0.063705, , 
33.99, 0.063229, , 
34.02, 0.062773, , 
34.05, 0.062224, , 
34.08, 0.061811, , 
34.11, 0.061396, , 
34.14, 0.060892, , 
34.17, 0.060606, , 
34.20, 0.060235, , 
34.23, 0.059912, , 
34.26, 0.059537, , 
34.29, 0.059150, , 
34.32, 0.058931, , 
34.35, 0.058608, , 
34.38, 0.058243, , 
34.41, 0.057891, , 
34.44, 0.057564, , 
34.47, 0.057314, , 
34.50, 0.056930, , 
34.53, 0.056622, , 
34.56, 0.056343, , 
34.59, 0.056102, , 
34.62, 0.055855, , 
34.65, 0.055544, , 
34.68, 0.055239, , 
34.71, 0.054947, , 
34.74, 0.054735, , 
34.77, 0.054516, , 
34.80, 0.054253, , 
34.83, 0.054028, , 
34.86, 0.053726, , 
34.89, 0.053514, , 
34.92, 0.053295, , 
34.95, 0.053000, , 
34.98, 0.052743, , 
35.01, 0.052426, , 
35.04, 0.052197, , 
35.07, 0.051985, , 
35.10, 0.051722, , 
35.13, 0.051471, , 
35.17, 0.051217, , 
35.19, 0.051052, 11, 0.586
35.20, 0.051021, , 
35.22, 0.050837, , 
35.25, 0.050570, , 
35.28, 0.050386, , 
35.31, 0.050117, , 
35.34, 0.049961, , 
35.37, 0.049831, , 
35.40, 0.049603, , 
35.43, 0.049489, , 
35.46, 0.049324, , 
35.49, 0.049155, , 
35.52, 0.049019, , 
35.55, 0.048876, , 
35.58, 0.048724, , 
35.61, 0.048515, , 
35.64, 0.048404, , 
35.67, 0.048271, , 
35.70, 0.048071, , 
35.73, 0.047937, , 
35.76, 0.047795, , 
35.79, 0.047633, , 
35.82, 0.047458, , 
35.85, 0.047325, , 
35.88, 0.047151, , 
35.91, 0.047030, , 
35.94, 0.046875, , 
35.97, 0.046710, , 
36.00, 0.046529, , 
36.03, 0.046405, , 
36.06, 0.046310, , 
36.09, 0.046215, , 
36.12, 0.046041, , 
36.15, 0.045866, , 
36.18, 0.045809, , 
36.21, 0.045711, , 
36.24, 0.045565, , 
36.27, 0.045432, , 
36.30, 0.045311, , 
36.33, 0.045244, , 
36.36, 0.045248, , 
36.39, 0.045229, , 
36.42, 0.045191, , 
36.45, 0.045102, , 
36.48, 0.044984, , 
36.51, 0.044867, , 
36.54, 0.044778, , 
36.57, 0.044721, , 
36.60, 0.044715, , 
36.63, 0.044718, , 
36.66, 0.044674, , 
36.69, 0.044667, , 
36.72, 0.044543, , 
36.75, 0.044432, , 
36.78, 0.044318, , 
36.81, 0.044223, , 
36.84, 0.044204, , 
36.87, 0.044179, , 
36.90, 0.044157, , 
36.93, 0.044147, , 
36.96, 0.044163, , 
36.99, 0.044172, , 
37.02, 0.044166, , 
37.05, 0.044166, , 
37.08, 0.044185, , 
37.11, 0.044188, , 
37.14, 0.044214, , 
37.17, 0.044344, , 
37.20, 0.044471, , 
37.23, 0.044543, , 
37.26, 0.044578, , 
37.29, 0.044680, , 
37.32, 0.044835, , 
37.35, 0.044965, , 
37.38, 0.045121, , 
37.41, 0.045349, , 
37.44, 0.045501, , 
37.47, 0.045673, , 
37.50, 0.045834, , 
37.53, 0.046066, , 
37.57, 0.046374, , 
37.59, 0.046602, , 
37.62, 0.046903, , 
37.65, 0.047189, , 
37.68, 0.047554, , 
37.71, 0.048004, , 
37.74, 0.048404, , 
37.77, 0.048832, , 
37.80, 0.049266, , 
37.83, 0.049704, , 
37.86, 0.050202, , 
37.89, 0.050694, , 
37.92, 0.051252, , 
37.95, 0.051918, , 
37.99, 0.052556, , 
38.01, 0.053193, , 
38.04, 0.053866, , 
38.07, 0.054630, , 
38.10, 0.055547, , 
38.13, 0.056384, , 
38.16, 0.057415, , 
38.19, 0.058186, , 
38.22, 0.059153, , 
38.25, 0.060340, , 
38.28, 0.061409, , 
38.31, 0.062658, , 
38.34, 0.063781, , 
38.37, 0.064939, , 
38.38, 0.065332, 12, 0.583
38.40, 0.066100, , 
38.43, 0.067258, , 
38.46, 0.068647, , 
38.49, 0.069875, , 
38.52, 0.071064, , 
38.55, 0.072406, , 
38.58, 0.073605, , 
38.61, 0.074820, , 
38.64, 0.076088, , 
38.67, 0.077379, , 
38.70, 0.078635, , 
38.73, 0.080060, , 
38.76, 0.081243, , 
38.79, 0.082638, , 
38.82, 0.083803, , 
38.85, 0.084951, , 
38.88, 0.086070, , 
38.91, 0.087104, , 
38.94, 0.088278, , 
38.97, 0.089357, , 
39.00, 0.090540, , 
39.03, 0.091447, , 
39.06, 0.092234, , 
39.09, 0.093023, , 
39.12, 0.093823, , 
39.15, 0.094641, , 
39.18, 0.095266, , 
39.21, 0.095805, , 
39.24, 0.096382, , 
39.27, 0.096830, , 
39.30, 0.097204, , 
39.33, 0.097708, , 
39.36, 0.098032, , 
39.39, 0.098343, , 
39.42, 0.098536, , 
39.45, 0.098707, , 
39.48, 0.098765, , 
39.51, 0.098758, , 
39.54, 0.098780, , 
39.57, 0.098815, , 
39.60, 0.098720, , 
39.63, 0.098555, , 
39.66, 0.098289, , 
39.69, 0.098064, , 
39.72, 0.097807, , 
39.75, 0.097404, , 
39.78, 0.096998, , 
39.81, 0.096608, , 
39.84, 0.096186, , 
39.87, 0.095748, , 
39.90, 0.095231, , 
39.93, 0.094809, , 
39.96, 0.094200, , 
39.99, 0.093623, , 
40.02, 0.093071, , 
40.05, 0.092532, , 
40.08, 0.091916, , 
40.11, 0.091206, , 
40.14, 0.090578, , 
40.17, 0.089937, , 
40.20, 0.089138, , 
40.23, 0.088592, , 
40.26, 0.087825, , 
40.29, 0.087200, , 
40.32, 0.086613, , 
40.35, 0.085944, , 
40.38, 0.085335, , 
40.41, 0.084719, , 
40.44, 0.083955, , 
40.47, 0.083305, , 
40.50, 0.082667, , 
40.53, 0.082052, , 
40.56, 0.081408, , 
40.59, 0.080615, , 
40.62, 0.080018, , 
40.65, 0.079454, , 
40.68, 0.078740, , 
40.72, 0.078137, , 
40.74, 0.077573, , 
40.77, 0.077005, , 
40.80, 0.076421, , 
40.83, 0.075787, , 
40.86, 0.075292, , 
40.89, 0.074629, , 
40.92, 0.074144, , 
40.95, 0.073605, , 
40.98, 0.073040, , 
41.01, 0.072583, , 
41.04, 0.072041, , 
41.07, 0.071581, , 
41.10, 0.071143, , 
41.13, 0.070664, , 
41.16, 0.070293, , 
41.19, 0.069856, , 
41.22, 0.069377, , 
41.25, 0.068971, , 
41.28, 0.068473, , 
41.31, 0.068016, , 
41.34, 0.067597, , 
41.37, 0.067178, , 
41.40, 0.066718, , 
41.43, 0.066205, , 
41.46, 0.065821, , 
41.49, 0.065393, , 
41.52, 0.064901, , 
41.55, 0.064476, , 
41.58, 0.064070, 13, 0.586
41.59, 0.064016, , 
41.61, 0.063756, , 
41.64, 0.063436, , 
41.67, 0.063036, , 
41.70, 0.062681, , 
41.73, 0.062230, , 
41.76, 0.061777, , 
41.79, 0.061434, , 
41.82, 0.061088, , 
41.85, 0.060803, , 
41.88, 0.060397, , 
41.91, 0.060029, , 
41.94, 0.059705, , 
41.97, 0.059433, , 
42.00, 0.059074, , 
42.03, 0.058766, , 
42.06, 0.058484, , 
42.09, 0.058307, , 
42.12, 0.058062, , 
42.15, 0.057745, , 
42.18, 0.057399, , 
42.21, 0.057142, , 
42.24, 0.056809, , 
42.27, 0.056483, , 
42.30, 0.056204, , 
42.33, 0.055886, , 
42.36, 0.055601, , 
42.39, 0.055258, , 
42.42, 0.055017, , 
42.45, 0.054767, , 
42.48, 0.054487, , 
42.51, 0.054208, , 
42.54, 0.053891, , 
42.57, 0.053672, , 
42.60, 0.053355, , 
42.63, 0.052959, , 
42.66, 0.052689, , 
42.69, 0.052381, , 
42.72, 0.052137, , 
42.75, 0.051883, , 
42.78, 0.051671, , 
42.81, 0.051439, , 
42.84, 0.051198, , 
42.87, 0.050932, , 
42.90, 0.050722, , 
42.93, 0.050500, , 
42.96, 0.050342, , 
42.99, 0.050142, , 
43.02, 0.049958, , 
43.05, 0.049863, , 
43.08, 0.049663, , 
43.11, 0.049473, , 
43.14, 0.049314, , 
43.17, 0.049076, , 
43.20, 0.048895, , 
43.23, 0.048721, , 
43.26, 0.048556, , 
43.29, 0.048423, , 
43.32, 0.048274, , 
43.35, 0.048194, , 
43.38, 0.048093, , 
43.41, 0.047966, , 
43.44, 0.047842, , 
43.47, 0.047687, , 
43.50, 0.047528, , 
43.53, 0.047373, , 
43.56, 0.047300, , 
43.59, 0.047202, , 
43.62, 0.047043, , 
43.65, 0.046938, , 
43.68, 0.046837, , 
43.71, 0.046773, , 
43.74, 0.046751, , 
43.77, 0.046634, , 
43.80, 0.046475, , 
43.83, 0.046367, , 
43.86, 0.046326, , 
43.89, 0.046313, , 
43.92, 0.046272, , 
43.95, 0.046259, , 
43.98, 0.046269, , 
44.01, 0.046256, , 
44.04, 0.046231, , 
44.07, 0.046253, , 
44.10, 0.046259, , 
44.13, 0.046256, , 
44.16, 0.046237, , 
44.19, 0.046247, , 
44.22, 0.046351, , 
44.25, 0.046434, , 
44.28, 0.046564, , 
44.31, 0.046631, , 
44.34, 0.046659, , 
44.37, 0.046751, , 
44.40, 0.046875, , 
44.43, 0.047024, , 
44.46, 0.047271, , 
44.50, 0.047458, , 
44.52, 0.047563, , 
44.55, 0.047709, , 
44.58, 0.047868, , 
44.61, 0.048172, , 
44.64, 0.048435, , 
44.67, 0.048718, , 
44.70, 0.049048, , 
44.73, 0.049352, , 
44.76, 0.049657, , 
44.78, 0.049898, 14, 0.586
44.79, 0.050021, , 
44.82, 0.050446, , 
44.85, 0.050960, , 
44.88, 0.051461, , 
44.91, 0.052143, , 
44.94, 0.052648, , 
44.97, 0.053298, , 
45.00, 0.054031, , 
45.03, 0.054744, , 
45.06, 0.055499, , 
45.09, 0.056454, , 
45.12, 0.057295, , 
45.15, 0.058135, , 
45.18, 0.059020, , 
45.21, 0.060146, , 
45.24, 0.061133, , 
45.27, 0.062160, , 
45.30, 0.063528, , 
45.33, 0.064749, , 
45.36, 0.065761, , 
45.39, 0.067251, , 
45.42, 0.068536, , 
45.45, 0.070074, , 
45.48, 0.071394, , 
45.51, 0.072821, , 
45.54, 0.074483, , 
45.57, 0.075679, , 
45.60, 0.077370, , 
45.63, 0.078534, , 
45.66, 0.080348, , 
45.69, 0.082191, , 
45.72, 0.083796, , 
45.75, 0.085604, , 
45.78, 0.086908, , 
45.81, 0.088437, , 
45.84, 0.090121, , 
45.87, 0.091609, , 
45.90, 0.093318, , 
45.93, 0.094743, , 
45.96, 0.096110, , 
45.99, 0.097442, , 
46.02, 0.098774, , 
46.05, 0.100236, , 
46.08, 0.101385, , 
46.11, 0.102387, , 
46.14, 0.103713, , 
46.17, 0.104560, , 
46.20, 0.105565, , 
46.23, 0.106396, , 
46.26, 0.107192, , 
46.29, 0.108061, , 
46.32, 0.108680, , 
46.35, 0.109318, , 
46.38, 0.109755, , 
46.41, 0.110180, , 
46.44, 0.110548, , 
46.47, 0.110827, , 
46.50, 0.111091, , 
46.53, 0.111227, , 
46.56, 0.111259, , 
46.59, 0.111316, , 
46.62, 0.111259, , 
46.65, 0.111113, , 
46.68, 0.110945, , 
46.71, 0.110656, , 
46.74, 0.110326, , 
46.77, 0.110076, , 
46.80, 0.109733, , 
46.83, 0.109267, , 
46.86, 0.108743, , 
46.89, 0.108172, , 
46.92, 0.107659, , 
46.95, 0.107018, , 
46.99, 0.106444, , 
47.01, 0.105898, , 
47.04, 0.105083, , 
47.07, 0.104360, , 
47.10, 0.103560, , 
47.13, 0.102840, , 
47.16, 0.102092, , 
47.19, 0.101248, , 
47.22, 0.100652, , 
47.25, 0.099764, , 
47.28, 0.098914, , 
47.31, 0.098095, , 
47.34, 0.097232, , 
47.37, 0.096497, , 
47.40, 0.095593, , 
47.43, 0.094920, , 
47.46, 0.094099, , 
47.49, 0.093090, , 
47.52, 0.092262, , 
47.55, 0.091399, , 
47.58, 0.090673, , 
47.61, 0.089886, , 
47.64, 0.089077, , 
47.67, 0.088332, , 
47.70, 0.087501, , 
47.73, 0.086743, , 
47.76, 0.085997, , 
47.79, 0.085182, , 
47.82, 0.084453, , 
47.85, 0.083704, , 
47.88, 0.082978, , 
47.91, 0.082277, , 
47.94, 0.081522, , 
47.97, 0.080881, , 
47.98, 0.080656, 15, 0.585
48.00, 0.080228, , 
48.03, 0.079533, , 
48.06, 0.079057, , 
48.09, 0.078347, , 
48.12, 0.077735, , 
48.15, 0.077043, , 
48.18, 0.076447, , 
48.21, 0.075876, , 
48.24, 0.075308, , 
48.27, 0.074709, , 
48.30, 0.074131, , 
48.33, 0.073478, , 
48.36, 0.072891, , 
48.40, 0.072393, , 
48.42, 0.071984, , 
48.45, 0.071321, , 
48.48, 0.070744, , 
48.51, 0.070170, , 
48.54, 0.069741, , 
48.57, 0.069269, , 
48.60, 0.068910, , 
48.63, 0.068327, , 
48.66, 0.068009, , 
48.69, 0.067683, , 
48.72, 0.067366, , 
48.75, 0.066956, , 
48.78, 0.066515, , 
48.81, 0.066186, , 
48.84, 0.065865, , 
48.87, 0.065516, , 
48.90, 0.065209, , 
48.93, 0.064917, , 
48.96, 0.064593, , 
48.99, 0.064276, , 
49.02, 0.063968, , 
49.05, 0.063727, , 
49.08, 0.063432, , 
49.11, 0.063233, , 
49.14, 0.062950, , 
49.17, 0.062598, , 
49.20, 0.062332, , 
49.23, 0.062046, , 
49.26, 0.061821, , 
49.29, 0.061608, , 
49.32, 0.061431, , 
49.35, 0.061307, , 
49.38, 0.061098, , 
49.41, 0.060936, , 
49.44, 0.060765, , 
49.47, 0.060581, , 
49.50, 0.060435, , 
49.53, 0.060321, , 
49.56, 0.060238, , 
49.59, 0.060200, , 
49.62, 0.060194, , 
49.65, 0.060175, , 
49.68, 0.060115, , 
49.71, 0.060029, , 
49.74, 0.059946, , 
49.77, 0.059937, , 
49.80, 0.059997, , 
49.83, 0.060061, , 
49.86, 0.060124, , 
49.89, 0.060168, , 
49.92, 0.060235, , 
49.95, 0.060352, , 
49.98, 0.060530, , 
50.01, 0.060638, , 
50.04, 0.060784, , 
50.07, 0.061022, , 
50.10, 0.061231, , 
50.13, 0.061466, , 
50.16, 0.061662, , 
50.19, 0.061951, , 
50.22, 0.062376, , 
50.25, 0.062700, , 
50.28, 0.063033, , 
50.31, 0.063363, , 
50.35, 0.063781, , 
50.37, 0.064273, , 
50.40, 0.064806, , 
50.43, 0.065456, , 
50.46, 0.066056, , 
50.49, 0.066620, , 
50.52, 0.067394, , 
50.55, 0.067990, , 
50.58, 0.068825, , 
50.61, 0.069503, , 
50.64, 0.070239, , 
50.67, 0.071172, , 
50.70, 0.072019, , 
50.73, 0.072913, , 
50.76, 0.073884, , 
50.79, 0.075054, , 
50.82, 0.076041, , 
50.85, 0.077049, , 
50.88, 0.078255, , 
50.91, 0.079340, , 
50.94, 0.080421, , 
50.97, 0.081493, , 
51.00, 0.082581, , 
51.03, 0.083853, , 
51.06, 0.085011, , 
51.09, 0.086346, , 
51.12, 0.087292, , 
51.15, 0.088427, , 
51.18, 0.089712, 16, 0.586
51.19, 0.089902, , 
51.21, 0.090832, , 
51.24, 0.091904, , 
51.27, 0.093188, , 
51.30, 0.094048, , 
51.33, 0.095463, , 
51.36, 0.096446, , 
51.39, 0.097324, , 
51.42, 0.098546, , 
51.45, 0.099485, , 
51.48, 0.100544, , 
51.51, 0.101201, , 
51.54, 0.102070, , 
51.57, 0.102742, , 
51.60, 0.103519, , 
51.63, 0.104170, , 
51.66, 0.104750, , 
51.70, 0.105353, , 
51.72, 0.105755, , 
51.75, 0.106314, , 
51.78, 0.106726, , 
51.81, 0.107012, , 
51.84, 0.107341, , 
51.87, 0.107538, , 
51.90, 0.107687, , 
51.93, 0.107763, , 
51.96, 0.107805, , 
51.99, 0.107824, , 
52.02, 0.107814, , 
52.05, 0.107766, , 
52.08, 0.107621, , 
52.11, 0.107443, , 
52.14, 0.107224, , 
52.17, 0.106939, , 
52.20, 0.106682, , 
52.23, 0.106358, , 
52.26, 0.106019, , 
52.29, 0.105533, , 
52.33, 0.105045, , 
52.35, 0.104610, , 
52.38, 0.103970, , 
52.41, 0.103516, , 
52.44, 0.102780, , 
52.47, 0.102127, , 
52.50, 0.101556, , 
52.53, 0.100934, , 
52.56, 0.100249, , 
52.59, 0.099719, , 
52.62, 0.098860, , 
52.65, 0.098124, , 
52.68, 0.097410, , 
52.71, 0.096643, , 
52.74, 0.095954, , 
52.77, 0.095104, , 
52.80, 0.094387, , 
52.83, 0.093804, , 
52.86, 0.093004, , 
52.89, 0.092319, , 
52.92, 0.091494, , 
52.95, 0.090749, , 
52.98, 0.090035, , 
53.01, 0.089214, , 
53.04, 0.088652, , 
53.07, 0.087907, , 
53.10, 0.087193, , 
53.13, 0.086476, , 
53.16, 0.085661, , 
53.19, 0.084998, , 
53.22, 0.084259, , 
53.25, 0.083761, , 
53.28, 0.083181, , 
53.31, 0.082489, , 
53.34, 0.081842, , 
53.37, 0.081195, , 
53.40, 0.080535, , 
53.43, 0.080031, , 
53.46, 0.079482, , 
53.49, 0.078816, , 
53.53, 0.078239, , 
53.55, 0.077719, , 
53.58, 0.077233, , 
53.61, 0.076764, , 
53.64, 0.076247, , 
53.67, 0.075835, , 
53.70, 0.075289, , 
53.73, 0.074924, , 
53.76, 0.074499, , 
53.79, 0.074001, , 
53.82, 0.073630, , 
53.85, 0.073240, , 
53.88, 0.072942, , 
53.91, 0.072602, , 
53.94, 0.072339, , 
53.97, 0.072082, , 
54.00, 0.071809, , 
54.03, 0.071568, , 
54.06, 0.071327, , 
54.09, 0.071127, , 
54.12, 0.070963, , 
54.15, 0.070769, , 
54.18, 0.070671, , 
54.21, 0.070557, , 
54.24, 0.070414, , 
54.27, 0.070262, , 
54.31, 0.070214, , 
54.33, 0.070274, , 
54.36, 0.070379, , 
54.38, 0.070442, 17, 0.585
54.39, 0.070468, , 
54.42, 0.070518, , 
54.45, 0.070579, , 
54.48, 0.070683, , 
54.51, 0.070820, , 
54.54, 0.070985, , 
54.57, 0.071172, , 
54.60, 0.071435, , 
54.63, 0.071673, , 
54.66, 0.071987, , 
54.69, 0.072399, , 
54.72, 0.072666, , 
54.75, 0.072986, , 
54.78, 0.073310, , 
54.81, 0.073741, , 
54.84, 0.074153, , 
54.87, 0.074579, , 
54.90, 0.075054, , 
54.93, 0.075476, , 
54.96, 0.076066, , 
54.99, 0.076688, , 
55.02, 0.077227, , 
55.05, 0.077830, , 
55.08, 0.078559, , 
55.11, 0.079187, , 
55.14, 0.079942, , 
55.17, 0.080593, , 
55.20, 0.081141, , 
55.23, 0.081915, , 
55.26, 0.082623, , 
55.29, 0.083527, , 
55.32, 0.084310, , 
55.35, 0.085021, , 
55.38, 0.085893, , 
55.41, 0.086527, , 
55.44, 0.087463, , 
55.47, 0.088186, , 
55.50, 0.088916, , 
55.53, 0.089851, , 
55.56, 0.090648, , 
55.60, 0.091498, , 
55.62, 0.092094, , 
55.65, 0.092823, , 
55.68, 0.093620, , 
55.71, 0.094267, , 
55.74, 0.095066, , 
55.77, 0.095732, , 
55.80, 0.096344, , 
55.83, 0.096893, , 
55.86, 0.097470, , 
55.89, 0.097861, , 
55.92, 0.098292, , 
55.95, 0.098806, , 
55.98, 0.099152, , 
56.01, 0.099795, , 
56.04, 0.100186, , 
56.07, 0.100468, , 
56.10, 0.100829, , 
56.13, 0.101150, , 
56.16, 0.101410, , 
56.19, 0.101600, , 
56.22, 0.101784, , 
56.25, 0.101984, , 
56.28, 0.102117, , 
56.31, 0.102200, , 
56.34, 0.102212, , 
56.37, 0.102193, , 
56.40, 0.102111, , 
56.43, 0.101997, , 
56.46, 0.101835, , 
56.49, 0.101705, , 
56.52, 0.101543, , 
56.55, 0.101350, , 
56.58, 0.101147, , 
56.61, 0.100861, , 
56.64, 0.100573, , 
56.67, 0.100236, , 
56.70, 0.099776, , 
56.73, 0.099443, , 
56.76, 0.099136, , 
56.79, 0.098818, , 
56.82, 0.098466, , 
56.85, 0.098041, , 
56.88, 0.097604, , 
56.91, 0.096995, , 
56.94, 0.096430, , 
56.97, 0.095995, , 
57.00, 0.095402, , 
57.03, 0.094914, , 
57.06, 0.094463, , 
57.09, 0.093956, , 
57.12, 0.093455, , 
57.15, 0.092814, , 
57.18, 0.092332, , 
57.21, 0.091732, , 
57.24, 0.091250, , 
57.27, 0.090793, , 
57.30, 0.090267, , 
57.33, 0.089747, , 
57.36, 0.089176, , 
57.39, 0.088602, , 
57.42, 0.088100, , 
57.45, 0.087539, , 
57.48, 0.087070, , 
57.51, 0.086629, , 
57.54, 0.086166, , 
57.57, 0.085788, , 
57.58, 0.085639, 18, 0.586
57.60, 0.085243, , 
57.63, 0.084833, , 
57.66, 0.084415, , 
57.69, 0.083920, , 
57.72, 0.083479, , 
57.75, 0.082921, , 
57.78, 0.082559, , 
57.81, 0.082137, , 
57.84, 0.081623, , 
57.87, 0.081309, , 
57.90, 0.080973, , 
57.93, 0.080646, , 
57.96, 0.080345, , 
58.00, 0.080037, , 
58.02, 0.079831, , 
58.05, 0.079657, , 
58.08, 0.079558, , 
58.11, 0.079492, , 
58.14, 0.079336, , 
58.17, 0.079178, , 
58.21, 0.079070, , 
58.23, 0.079029, , 
58.26, 0.078997, , 
58.29, 0.079007, , 
58.32, 0.078988, , 
58.35, 0.079105, , 
58.38, 0.079257, , 
58.41, 0.079336, , 
58.44, 0.079460, , 
58.47, 0.079657, , 
58.50, 0.079911, , 
58.53, 0.080066, , 
58.56, 0.080282, , 
58.59, 0.080551, , 
58.62, 0.080710, , 
58.65, 0.080976, , 
58.68, 0.081278, , 
58.71, 0.081636, , 
58.74, 0.082137, , 
58.77, 0.082543, , 
58.80, 0.083044, , 
58.83, 0.083409, , 
58.86, 0.083917, , 
58.89, 0.084354, , 
58.92, 0.084865, , 
58.95, 0.085262, , 
58.98, 0.085785, , 
59.01, 0.086451, , 
59.04, 0.087063, , 
59.07, 0.087799, , 
59.10, 0.088361, , 
59.13, 0.088925, , 
59.16, 0.089547, , 
59.19, 0.090184, , 
59.22, 0.090924, , 
59.25, 0.091520, , 
59.28, 0.092103, , 
59.31, 0.092827, , 
59.34, 0.093391, , 
59.37, 0.093943, , 
59.40, 0.094559, , 
59.43, 0.095158, , 
59.46, 0.095792, , 
59.49, 0.096287, , 
59.52, 0.096868, , 
59.55, 0.097363, , 
59.58, 0.097730, , 
59.61, 0.098213, , 
59.64, 0.098676, , 
59.67, 0.099190, , 
59.70, 0.099599, , 
59.73, 0.099910, , 
59.77, 0.100278, , 
59.79, 0.100554, , 
59.82, 0.100890, , 
59.85, 0.101086, , 
59.88, 0.101280, , 
59.91, 0.101505, , 
59.94, 0.101626, , 
59.97, 0.101721, , 
60.00, 0.101803, , 
60.03, 0.101962, , 
60.06, 0.102089, , 
60.09, 0.102070, , 
60.12, 0.102000, , 
60.15, 0.101908, , 
60.18, 0.101854, , 
60.21, 0.101822, , 
60.24, 0.101762, , 
60.27, 0.101635, , 
60.30, 0.101445, , 
60.33, 0.101258, , 
60.36, 0.101039, , 
60.39, 0.100845, , 
60.42, 0.100601, , 
60.45, 0.100341, , 
60.48, 0.100030, , 
60.51, 0.099630, , 
60.54, 0.099320, , 
60.57, 0.098993, , 
60.60, 0.098723, , 
60.63, 0.098362, , 
60.66, 0.097911, , 
60.69, 0.097521, , 
60.72, 0.097213, , 
60.75, 0.096865, , 
60.78, 0.096570, 19, 0.585
60.78, 0.096506, , 
60.81, 0.096132, , 
60.84, 0.095770, , 
60.87, 0.095272, , 
60.90, 0.094825, , 
60.93, 0.094463, , 
60.96, 0.094108, , 
61.00, 0.093781, , 
61.02, 0.093477, , 
61.05, 0.093055, , 
61.08, 0.092754, , 
61.11, 0.092462, , 
61.14, 0.092097, , 
61.17, 0.091774, , 
61.20, 0.091466, , 
61.23, 0.091165, , 
61.26, 0.090911, , 
61.29, 0.090603, , 
61.32, 0.090378, , 
61.35, 0.090162, , 
61.38, 0.090007, , 
61.41, 0.089836, , 
61.44, 0.089667, , 
61.48, 0.089534, , 
61.50, 0.089477, , 
61.53, 0.089490, , 
61.56, 0.089458, , 
61.59, 0.089420, , 
61.62, 0.089445, , 
61.65, 0.089537, , 
61.68, 0.089642, , 
61.71, 0.089810, , 
61.74, 0.090051, , 
61.77, 0.090264, , 
61.80, 0.090505, , 
61.83, 0.090689, , 
61.86, 0.090920, , 
61.89, 0.091250, , 
61.92, 0.091618, , 
61.95, 0.092053, , 
61.98, 0.092354, , 
62.01, 0.092674, , 
62.04, 0.093052, , 
62.07, 0.093423, , 
62.10, 0.093823, , 
62.13, 0.094270, , 
62.16, 0.094822, , 
62.19, 0.095367, , 
62.22, 0.096002, , 
62.25, 0.096503, , 
62.28, 0.097039, , 
62.31, 0.097483, , 
62.34, 0.097867, , 
62.37, 0.098393, , 
62.40, 0.098866, , 
62.43, 0.099500, , 
62.46, 0.100059, , 
62.49, 0.100592, , 
62.52, 0.101153, , 
62.55, 0.101515, , 
62.58, 0.102044, , 
62.61, 0.102482, , 
62.64, 0.102847, , 
62.67, 0.103199, , 
62.70, 0.103548, , 
62.73, 0.103995, , 
62.76, 0.104242, , 
62.79, 0.104506, , 
62.82, 0.104839, , 
62.85, 0.105093, , 
62.88, 0.105353, , 
62.91, 0.105527, , 
62.94, 0.105708, , 
62.97, 0.105866, , 
63.00, 0.106025, , 
63.03, 0.106174, , 
63.06, 0.106266, , 
63.09, 0.106292, , 
63.12, 0.106200, , 
63.16, 0.106123, , 
63.18, 0.106031, , 
63.21, 0.105943, , 
63.24, 0.105841, , 
63.27, 0.105717, , 
63.30, 0.105578, , 
63.33, 0.105426, , 
63.37, 0.105277, , 
63.39, 0.105150, , 
63.42, 0.104934, , 
63.45, 0.104706, , 
63.48, 0.104452, , 
63.51, 0.104201, , 
63.54, 0.103928, , 
63.57, 0.103643, , 
63.60, 0.103361, , 
63.63, 0.103047, , 
63.66, 0.102714, , 
63.69, 0.102447, , 
63.72, 0.102181, , 
63.75, 0.101971, , 
63.78, 0.101778, , 
63.81, 0.101524, , 
63.84, 0.101293, , 
63.87, 0.101099, , 
63.90, 0.100979, , 
63.93, 0.100795, , 
63.96, 0.100598, , 
63.98, 0.100528, 20, 0.586
63.99, 0.100481, , 
64.02, 0.100325, , 
64.05, 0.100170, , 
64.08, 0.100062, , 
64.11, 0.099960, , 
64.14, 0.099919, , 
64.17, 0.099887, , 
64.20, 0.099884, , 
64.23, 0.099878, , 
64.26, 0.099872, , 
64.29, 0.099884, , 
64.32, 0.099906, , 
64.35, 0.099995, , 
64.38, 0.100135, , 
64.41, 0.100217, , 
64.44, 0.100335, , 
64.47, 0.100547, , 
64.50, 0.100728, , 
64.53, 0.100950, , 
64.56, 0.101210, , 
64.59, 0.101432, , 
64.62, 0.101670, , 
64.65, 0.101873, , 
64.68, 0.102178, , 
64.71, 0.102603, , 
64.74, 0.102993, , 
64.77, 0.103462, , 
64.80, 0.103814, , 
64.83, 0.104150, , 
64.86, 0.104452, , 
64.89, 0.104772, , 
64.92, 0.105251, , 
64.95, 0.105644, , 
64.98, 0.105984, , 
65.01, 0.106257, , 
65.04, 0.106659, , 
65.07, 0.107046, , 
65.10, 0.107411, , 
65.13, 0.107687, , 
65.16, 0.107957, , 
65.19, 0.108309, , 
65.22, 0.108477, , 
65.25, 0.108702, , 
65.28, 0.108927, , 
65.31, 0.109070, , 
65.35, 0.109175, , 
65.37, 0.109241, , 
65.40, 0.109276, , 
65.43, 0.109295, , 
65.46, 0.109279, , 
65.49, 0.109270, , 
65.52, 0.109305, , 
65.55, 0.109283, , 
65.58, 0.109292, , 
65.61, 0.109216, , 
65.64, 0.109096, , 
65.67, 0.108985, , 
65.70, 0.108848, , 
65.73, 0.108696, , 
65.76, 0.108534, , 
65.79, 0.108442, , 
65.82, 0.108264, , 
65.85, 0.108049, , 
65.88, 0.107862, , 
65.91, 0.107684, , 
65.94, 0.107459, , 
65.97, 0.107234, , 
66.00, 0.106993, , 
66.03, 0.106770, , 
66.06, 0.106548, , 
66.09, 0.106437, , 
66.12, 0.106282, , 
66.15, 0.106079, , 
66.18, 0.105952, , 
66.21, 0.105787, , 
66.24, 0.105657, , 
66.27, 0.105524, , 
66.30, 0.105359, , 
66.33, 0.105200, , 
66.36, 0.105051, , 
66.39, 0.104953, , 
66.42, 0.104877, , 
66.45, 0.104871, , 
66.48, 0.104864, , 
66.51, 0.104858, , 
66.54, 0.104861, , 
66.57, 0.104845, , 
66.60, 0.104848, , 
66.63, 0.104820, , 
66.66, 0.104820, , 
66.69, 0.104896, , 
66.72, 0.105016, , 
66.75, 0.105153, , 
66.78, 0.105378, , 
66.81, 0.105556, , 
66.84, 0.105736, , 
66.87, 0.105870, , 
66.90, 0.106054, , 
66.93, 0.106279, , 
66.96, 0.106485, , 
66.99, 0.106701, , 
67.02, 0.106904, , 
67.05, 0.107145, , 
67.08, 0.107386, , 
67.11, 0.107554, , 
67.14, 0.107735, , 
67.17, 0.107919, , 
67.18, 0.107954, 21, 0.586
67.20, 0.108071, , 
67.23, 0.108192, , 
67.26, 0.108268, , 
67.29, 0.108318, , 
67.32, 0.108309, , 
67.35, 0.108318, , 
67.38, 0.108312, , 
67.41, 0.108306, , 
67.44, 0.108296, , 
67.47, 0.108296, , 
67.50, 0.108312, , 
67.53, 0.108325, , 
67.56, 0.108315, , 
67.59, 0.108277, , 
67.62, 0.108226, , 
67.65, 0.108096, , 
67.68, 0.107935, , 
67.71, 0.107801, , 
67.74, 0.107636, , 
67.77, 0.107468, , 
67.80, 0.107351, , 
67.83, 0.107192, , 
67.86, 0.107002, , 
67.89, 0.106767, , 
67.92, 0.106580, , 
67.95, 0.106352, , 
67.98, 0.106111, , 
68.02, 0.105886, , 
68.04, 0.105670, , 
68.07, 0.105441, , 
68.10, 0.105229, , 
68.13, 0.104982, , 
68.16, 0.104728, , 
68.19, 0.104537, , 
68.22, 0.104414, , 
68.25, 0.104271, , 
68.28, 0.104068, , 
68.31, 0.103944, , 
68.34, 0.103894, , 
68.37, 0.103776, , 
68.40, 0.103646, , 
68.44, 0.103449, , 
68.46, 0.103389, , 
68.49, 0.103338, , 
68.52, 0.103313, , 
68.55, 0.103316, , 
68.58, 0.103326, , 
68.61, 0.103335, , 
68.64, 0.103323, , 
68.67, 0.103304, , 
68.70, 0.103294, , 
68.73, 0.103304, , 
68.76, 0.103310, , 
68.79, 0.103291, , 
68.82, 0.103316, , 
68.85, 0.103329, , 
68.88, 0.103313, , 
68.91, 0.103288, , 
68.94, 0.103304, , 
68.97, 0.103310, , 
69.00, 0.103272, , 
69.03, 0.103288, , 
69.06, 0.103294, , 
69.09, 0.103329, , 
69.12, 0.103316, , 
69.15, 0.103278, , 
69.18, 0.103154, , 
69.21, 0.103009, , 
69.25, 0.102901, , 
69.27, 0.102850, , 
69.30, 0.102733, , 
69.33, 0.102545, , 
69.36, 0.102409, , 
69.39, 0.102276, , 
69.42, 0.102146, , 
69.46, 0.102000, , 
69.48, 0.101870, , 
69.51, 0.101689, , 
69.54, 0.101502, , 
69.57, 0.101372, , 
69.60, 0.101220, , 
69.63, 0.101055, , 
69.66, 0.100963, , 
69.69, 0.100795, , 
69.72, 0.100607, , 
69.75, 0.100487, , 
69.78, 0.100309, , 
69.81, 0.100122, , 
69.84, 0.099995, , 
69.87, 0.099910, , 
69.90, 0.099735, , 
69.93, 0.099558, , 
69.96, 0.099450, , 
69.99, 0.099310, , 
70.02, 0.099094, , 
70.05, 0.098860, , 
70.08, 0.098650, , 
70.11, 0.098565, , 
70.14, 0.098428, , 
70.17, 0.098298, , 
70.20, 0.098175, , 
70.23, 0.098064, , 
70.26, 0.097914, , 
70.29, 0.097724, , 
70.32, 0.097600, , 
70.35, 0.097515, , 
70.38, 0.097416, 22, 0.586
70.38, 0.097397, , 
70.41, 0.097318, , 
70.44, 0.097141, , 
70.47, 0.097087, , 
70.50, 0.096966, , 
70.53, 0.096906, , 
70.56, 0.096890, , 
70.59, 0.096820, , 
70.62, 0.096655, , 
70.65, 0.096554, , 
70.68, 0.096484, , 
70.71, 0.096424, , 
70.74, 0.096309, , 
70.77, 0.096103, , 
70.80, 0.096030, , 
70.83, 0.095945, , 
70.86, 0.095783, , 
70.89, 0.095662, , 
70.92, 0.095516, , 
70.95, 0.095390, , 
70.98, 0.095196, , 
71.01, 0.095015, , 
71.04, 0.094796, , 
71.08, 0.094670, , 
71.10, 0.094492, , 
71.13, 0.094302, , 
71.16, 0.094143, , 
71.19, 0.093918, , 
71.22, 0.093683, , 
71.25, 0.093572, , 
71.28, 0.093391, , 
71.31, 0.093223, , 
71.34, 0.093052, , 
71.37, 0.092925, , 
71.40, 0.092763, , 
71.43, 0.092617, , 
71.46, 0.092506, , 
71.49, 0.092348, , 
71.52, 0.092195, , 
71.55, 0.092103, , 
71.58, 0.091897, , 
71.61, 0.091729, , 
71.64, 0.091574, , 
71.67, 0.091437, , 
71.70, 0.091355, , 
71.73, 0.091139, , 
71.76, 0.091041, , 
71.79, 0.090838, , 
71.82, 0.090686, , 
71.85, 0.090565, , 
71.88, 0.090479, , 
71.91, 0.090203, , 
71.94, 0.090051, , 
71.97, 0.089905, , 
72.00, 0.089775, , 
72.03, 0.089677, , 
72.06, 0.089474, , 
72.09, 0.089331, , 
72.12, 0.089144, , 
72.15, 0.089014, , 
72.18, 0.088916, , 
72.21, 0.088681, , 
72.24, 0.088576, , 
72.27, 0.088513, , 
72.30, 0.088367, , 
72.33, 0.088272, , 
72.36, 0.088069, , 
72.39, 0.088012, , 
72.42, 0.087983, , 
72.45, 0.087837, , 
72.48, 0.087733, , 
72.51, 0.087542, , 
72.54, 0.087476, , 
72.57, 0.087396, , 
72.60, 0.087257, , 
72.63, 0.087200, , 
72.66, 0.087054, , 
72.69, 0.086971, , 
72.72, 0.086829, , 
72.75, 0.086670, , 
72.78, 0.086565, , 
72.81, 0.086464, , 
72.84, 0.086299, , 
72.87, 0.086147, , 
72.90, 0.085972, , 
72.93, 0.085814, , 
72.96, 0.085699, , 
72.99, 0.085531, , 
73.02, 0.085404, , 
73.05, 0.085268, , 
73.08, 0.085106, , 
73.11, 0.084957, , 
73.14, 0.084745, , 
73.17, 0.084538, , 
73.20, 0.084335, , 
73.23, 0.084215, , 
73.26, 0.084021, , 
73.29, 0.083860, , 
73.32, 0.083723, , 
73.35, 0.083536, , 
73.38, 0.083381, , 
73.41, 0.083285, , 
73.44, 0.083171, , 
73.47, 0.083082, , 
73.50, 0.082940, , 
73.53, 0.082838, , 
73.56, 0.082667, , 
73.58, 0.082562, 23, 0.585
73.59, 0.082493, , 
73.62, 0.082353, , 
73.65, 0.082242, , 
73.68, 0.082090, , 
73.71, 0.081903, , 
73.74, 0.081763, , 
73.77, 0.081680, , 
73.80, 0.081573, , 
73.83, 0.081414, , 
73.86, 0.081306, , 
73.89, 0.081176, , 
73.92, 0.081027, , 
73.95, 0.080834, , 
73.98, 0.080615, , 
74.01, 0.080377, , 
74.04, 0.080228, , 
74.07, 0.080091, , 
74.10, 0.079911, , 
74.13, 0.079771, , 
74.16, 0.079619, , 
74.19, 0.079428, , 
74.22, 0.079279, , 
74.25, 0.079175, , 
74.28, 0.079102, , 
74.31, 0.078968, , 
74.34, 0.078829, , 
74.37, 0.078673, , 
74.40, 0.078582, , 
74.43, 0.078578, , 
74.46, 0.078594, , 
74.49, 0.078547, , 
74.52, 0.078369, , 
74.55, 0.078255, , 
74.58, 0.078185, , 
74.61, 0.078109, , 
74.64, 0.078061, , 
74.67, 0.078026, , 
74.70, 0.077941, , 
74.73, 0.077804, , 
74.76, 0.077671, , 
74.79, 0.077497, , 
74.82, 0.077354, , 
74.85, 0.077205, , 
74.88, 0.077084, , 
74.91, 0.076904, , 
74.94, 0.076770, , 
74.97, 0.076593, , 
75.00, 0.076409, , 
75.03, 0.076295, , 
75.06, 0.076180, , 
75.09, 0.076006, , 
75.12, 0.075825, , 
75.15, 0.075711, , 
75.18, 0.075565, , 
75.21, 0.075356, , 
75.24, 0.075260, , 
75.27, 0.075137, , 
75.30, 0.074981, , 
75.33, 0.074820, , 
75.36, 0.074680, , 
75.39, 0.074613, , 
75.42, 0.074556, , 
75.45, 0.074455, , 
75.48, 0.074325, , 
75.51, 0.074242, , 
75.54, 0.074185, , 
75.57, 0.074020, , 
75.60, 0.073868, , 
75.63, 0.073776, , 
75.66, 0.073703, , 
75.69, 0.073592, , 
75.72, 0.073481, , 
75.75, 0.073319, , 
75.78, 0.073180, , 
75.81, 0.072996, , 
75.84, 0.072815, , 
75.87, 0.072707, , 
75.90, 0.072577, , 
75.93, 0.072396, , 
75.96, 0.072231, , 
75.99, 0.072098, , 
76.02, 0.071939, , 
76.05, 0.071749, , 
76.08, 0.071673, , 
76.11, 0.071511, , 
76.14, 0.071343, , 
76.17, 0.071223, , 
76.20, 0.071067, , 
76.23, 0.070899, , 
76.26, 0.070753, , 
76.29, 0.070595, , 
76.32, 0.070430, , 
76.35, 0.070287, , 
76.38, 0.070195, , 
76.41, 0.070103, , 
76.44, 0.069970, , 
76.47, 0.069821, , 
76.50, 0.069672, , 
76.53, 0.069599, , 
76.56, 0.069529, , 
76.59, 0.069361, , 
76.62, 0.069221, , 
76.65, 0.069069, , 
76.68, 0.068898, , 
76.71, 0.068774, , 
76.74, 0.068657, , 
76.77, 0.068577, , 
76.79, 0.068526, 24, 0.587
76.80, 0.068463, , 
76.83, 0.068301, , 
76.86, 0.068171, , 
76.89, 0.068044, , 
76.92, 0.067883, , 
76.95, 0.067778, , 
76.98, 0.067632, , 
77.01, 0.067527, , 
77.04, 0.067353, , 
77.07, 0.067216, , 
77.10, 0.067128, , 
77.13, 0.066890, , 
77.16, 0.066741, , 
77.19, 0.066639, , 
77.22, 0.066547, , 
77.25, 0.066509, , 
77.28, 0.066312, , 
77.31, 0.066186, , 
77.34, 0.066068, , 
77.37, 0.066011, , 
77.40, 0.065941, , 
77.43, 0.065767, , 
77.46, 0.065656, , 
77.49, 0.065564, , 
77.52, 0.065478, , 
77.55, 0.065402, , 
77.58, 0.065202, , 
77.61, 0.065136, , 
77.64, 0.065015, , 
77.67, 0.064869, , 
77.70, 0.064790, , 
77.73, 0.064606, , 
77.76, 0.064470, , 
77.79, 0.064311, , 
77.82, 0.064229, , 
77.85, 0.064187, , 
77.88, 0.064045, , 
77.91, 0.063873, , 
77.94, 0.063727, , 
77.97, 0.063677, , 
78.00, 0.063585, , 
78.03, 0.063496, , 
78.06, 0.063321, , 
78.09, 0.063207, , 
78.12, 0.063172, , 
78.15, 0.063093, , 
78.18, 0.062944, , 
78.21, 0.062890, , 
78.24, 0.062735, , 
78.27, 0.062671, , 
78.30, 0.062579, , 
78.33, 0.062411, , 
78.36, 0.062290, , 
78.39, 0.062195, , 
78.42, 0.062141, , 
78.45, 0.062005, , 
78.48, 0.061824, , 
78.51, 0.061754, , 
78.54, 0.061529, , 
78.57, 0.061380, , 
78.60, 0.061288, , 
78.63, 0.061171, , 
78.66, 0.061107, , 
78.69, 0.060923, , 
78.72, 0.060736, , 
78.75, 0.060527, , 
78.78, 0.060318, , 
78.81, 0.060257, , 
78.84, 0.060042, , 
78.87, 0.059873, , 
78.90, 0.059753, , 
78.93, 0.059594, , 
78.96, 0.059509, , 
78.99, 0.059264, , 
79.03, 0.059204, , 
79.05, 0.059147, , 
79.08, 0.058960, , 
79.11, 0.058922, , 
79.14, 0.058766, , 
79.17, 0.058649, , 
79.20, 0.058510, , 
79.23, 0.058345, , 
79.26, 0.058259, , 
79.29, 0.058208, , 
79.32, 0.058056, , 
79.35, 0.057913, , 
79.38, 0.057805, , 
79.41, 0.057720, , 
79.44, 0.057682, , 
79.47, 0.057501, , 
79.50, 0.057342, , 
79.53, 0.057234, , 
79.56, 0.057133, , 
79.59, 0.057019, , 
79.62, 0.056901, , 
79.65, 0.056667, , 
79.68, 0.056441, , 
79.71, 0.056315, , 
79.74, 0.056146, , 
79.77, 0.055994, , 
79.80, 0.055813, , 
79.83, 0.055690, , 
79.86, 0.055541, , 
79.89, 0.055372, , 
79.92, 0.055303, , 
79.95, 0.055185, , 
79.98, 0.055077, , 
79.98, 0.055065, 25, 0.585
80.01, 0.054928, , 
80.04, 0.054833, , 
80.07, 0.054773, , 
80.11, 0.054716, , 
80.13, 0.054567, , 
80.16, 0.054389, , 
80.19, 0.054329, , 
80.22, 0.054300, , 
80.25, 0.054240, , 
80.28, 0.054081, , 
80.31, 0.053983, , 
80.34, 0.053894, , 
80.37, 0.053783, , 
80.40, 0.053701, , 
80.43, 0.053542, , 
80.46, 0.053428, , 
80.49, 0.053336, , 
80.52, 0.053317, , 
80.55, 0.053273, , 
80.58, 0.053139, , 
80.61, 0.053009, , 
80.64, 0.052933, , 
80.67, 0.052863, , 
80.70, 0.052727, , 
80.73, 0.052565, , 
80.76, 0.052419, , 
80.79, 0.052372, , 
80.82, 0.052270, , 
80.85, 0.052090, , 
80.88, 0.051991, , 
80.91, 0.051864, , 
80.94, 0.051820, , 
80.97, 0.051763, , 
81.00, 0.051664, , 
81.03, 0.051544, , 
81.06, 0.051433, , 
81.09, 0.051347, , 
81.12, 0.051328, , 
81.15, 0.051303, , 
81.18, 0.051195, , 
81.21, 0.051068, , 
81.24, 0.050976, , 
81.27, 0.050910, , 
81.30, 0.050862, , 
81.33, 0.050805, , 
81.36, 0.050786, , 
81.39, 0.050675, , 
81.42, 0.050519, , 
81.45, 0.050412, , 
81.48, 0.050348, , 
81.51, 0.050250, , 
81.54, 0.050079, , 
81.57, 0.049961, , 
81.60, 0.049898, , 
81.63, 0.049812, , 
81.66, 0.049742, , 
81.69, 0.049501, , 
81.72, 0.049378, , 
81.75, 0.049238, , 
81.78, 0.049041, , 
81.81, 0.048956, , 
81.84, 0.048838, , 
81.87, 0.048711, , 
81.90, 0.048559, , 
81.93, 0.048413, , 
81.96, 0.048372, , 
81.99, 0.048312, , 
82.02, 0.048217, , 
82.05, 0.048064, , 
82.08, 0.047941, , 
82.11, 0.047852, , 
82.14, 0.047773, , 
82.17, 0.047741, , 
82.20, 0.047693, , 
82.23, 0.047528, , 
82.26, 0.047401, , 
82.29, 0.047325, , 
82.32, 0.047224, , 
82.35, 0.047103, , 
82.38, 0.046957, , 
82.41, 0.046869, , 
82.44, 0.046789, , 
82.47, 0.046666, , 
82.51, 0.046510, , 
82.53, 0.046390, , 
82.56, 0.046288, , 
82.59, 0.046104, , 
82.62, 0.045914, , 
82.65, 0.045850, , 
82.68, 0.045739, , 
82.71, 0.045565, , 
82.74, 0.045422, , 
82.77, 0.045336, , 
82.80, 0.045270, , 
82.83, 0.045156, , 
82.86, 0.044962, , 
82.89, 0.044848, , 
82.92, 0.044807, , 
82.95, 0.044743, , 
82.98, 0.044658, , 
83.01, 0.044531, , 
83.04, 0.044391, , 
83.07, 0.044283, , 
83.10, 0.044248, , 
83.13, 0.044223, , 
83.16, 0.044087, , 
83.19, 0.043982, 26, 0.586
83.19, 0.043953, , 
83.22, 0.043833, , 
83.25, 0.043785, , 
83.28, 0.043684, , 
83.31, 0.043484, , 
83.34, 0.043316, , 
83.38, 0.043233, , 
83.40, 0.043211, , 
83.43, 0.043126, , 
83.46, 0.042970, , 
83.49, 0.042853, , 
83.52, 0.042761, , 
83.55, 0.042672, , 
83.59, 0.042517, , 
83.61, 0.042345, , 
83.64, 0.042257, , 
83.67, 0.042165, , 
83.70, 0.042085, , 
83.73, 0.041946, , 
83.76, 0.041774, , 
83.79, 0.041698, , 
83.82, 0.041644, , 
83.85, 0.041581, , 
83.88, 0.041473, , 
83.91, 0.041318, , 
83.94, 0.041207, , 
83.97, 0.041146, , 
84.00, 0.041118, , 
84.03, 0.041048, , 
84.06, 0.040896, , 
84.09, 0.040772, , 
84.12, 0.040664, , 
84.15, 0.040620, , 
84.18, 0.040610, , 
84.21, 0.040566, , 
84.24, 0.040468, , 
84.27, 0.040344, , 
84.30, 0.040188, , 
84.33, 0.040141, , 
84.36, 0.040090, , 
84.39, 0.040027, , 
84.42, 0.039897, , 
84.45, 0.039786, , 
84.48, 0.039665, , 
84.51, 0.039608, , 
84.54, 0.039554, , 
84.57, 0.039421, , 
84.60, 0.039269, , 
84.63, 0.039164, , 
84.66, 0.039097, , 
84.69, 0.038964, , 
84.72, 0.038796, , 
84.75, 0.038691, , 
84.78, 0.038621, , 
84.81, 0.038552, , 
84.84, 0.038361, , 
84.87, 0.038222, , 
84.90, 0.038133, , 
84.93, 0.038063, , 
84.96, 0.037997, , 
84.99, 0.037895, , 
85.02, 0.037768, , 
85.05, 0.037673, , 
85.08, 0.037559, , 
85.11, 0.037521, , 
85.14, 0.037451, , 
85.17, 0.037302, , 
85.20, 0.037172, , 
85.23, 0.037070, , 
85.26, 0.037029, , 
85.29, 0.036994, , 
85.32, 0.036944, , 
85.35, 0.036940, , 
85.38, 0.036861, , 
85.41, 0.036712, , 
85.44, 0.036569, , 
85.47, 0.036484, , 
85.50, 0.036480, , 
85.53, 0.036411, , 
85.56, 0.036274, , 
85.59, 0.036166, , 
85.62, 0.036062, , 
85.65, 0.035989, , 
85.68, 0.035944, , 
85.71, 0.035944, , 
85.74, 0.035941, , 
85.77, 0.035919, , 
85.80, 0.035856, , 
85.83, 0.035741, , 
85.86, 0.035630, , 
85.89, 0.035522, , 
85.92, 0.035484, , 
85.95, 0.035456, , 
85.98, 0.035437, , 
86.01, 0.035446, , 
86.04, 0.035427, , 
86.07, 0.035475, , 
86.10, 0.035472, , 
86.13, 0.035411, , 
86.16, 0.035411, , 
86.19, 0.035440, , 
86.22, 0.035418, , 
86.25, 0.035411, , 
86.28, 0.035434, , 
86.31, 0.035469, , 
86.34, 0.035427, , 
86.37, 0.035323, , 
86.39, 0.035275, 27, 0.585
86.40, 0.035208, , 
86.43, 0.035139, , 
86.46, 0.035075, , 
86.49, 0.035005, , 
86.52, 0.034983, , 
86.55, 0.034996, , 
86.58, 0.035005, , 
86.61, 0.034996, , 
86.64, 0.034999, , 
86.67, 0.034990, , 
86.70, 0.034967, , 
86.73, 0.034955, , 
86.76, 0.034980, , 
86.79, 0.034967, , 
86.82, 0.034961, , 
86.85, 0.034958, , 
86.88, 0.034955, , 
86.91, 0.034933, , 
86.94, 0.034904, , 
86.97, 0.034939, , 
87.01, 0.034898, , 
87.03, 0.034815, , 
87.06, 0.034666, , 
87.09, 0.034555, , 
87.12, 0.034514, , 
87.15, 0.034473, , 
87.18, 0.034441, , 
87.21, 0.034425, , 
87.24, 0.034428, , 
87.27, 0.034425, , 
87.30, 0.034403, , 
87.33, 0.034355, , 
87.36, 0.034260, , 
87.39, 0.034149, , 
87.42, 0.034000, , 
87.45, 0.033971, , 
87.48, 0.033952, , 
87.51, 0.033914, , 
87.54, 0.033908, , 
87.57, 0.033924, , 
87.60, 0.033937, , 
87.63, 0.033895, , 
87.67, 0.033921, , 
87.69, 0.033946, , 
87.72, 0.033902, , 
87.75, 0.033902, , 
87.78, 0.033886, , 
87.81, 0.033895, , 
87.84, 0.033914, , 
87.87, 0.033927, , 
87.90, 0.033917, , 
87.93, 0.033927, , 
87.96, 0.033908, , 
87.99, 0.033876, , 
88.02, 0.033886, , 
88.05, 0.033914, , 
88.09, 0.033927, , 
88.11, 0.033889, , 
88.14, 0.033889, , 
88.17, 0.033908, , 
88.20, 0.033921, , 
88.23, 0.033902, , 
88.26, 0.033914, , 
88.29, 0.033975, , 
88.32, 0.034086, , 
88.35, 0.034174, , 
88.38, 0.034124, , 
88.41, 0.034051, , 
88.44, 0.033965, , 
88.47, 0.033921, , 
88.50, 0.033883, , 
88.53, 0.033914, , 
88.56, 0.033876, , 
88.59, 0.033864, , 
88.62, 0.033898, , 
88.65, 0.033908, , 
88.68, 0.033889, , 
88.71, 0.033908, , 
88.74, 0.033889, , 
88.77, 0.033911, , 
88.80, 0.033917, , 
88.83, 0.033895, , 
88.86, 0.033892, , 
88.89, 0.033965, , 
88.92, 0.034057, , 
88.95, 0.034174, , 
88.98, 0.034320, , 
89.01, 0.034349, , 
89.04, 0.034415, , 
89.07, 0.034479, , 
89.10, 0.034507, , 
89.13, 0.034504, , 
89.16, 0.034485, , 
89.19, 0.034501, , 
89.22, 0.034552, , 
89.25, 0.034530, , 
89.28, 0.034517, , 
89.31, 0.034552, , 
89.34, 0.034555, , 
89.37, 0.034555, , 
89.40, 0.034533, , 
89.43, 0.034511, , 
89.47, 0.034498, , 
89.49, 0.034501, , 
89.52, 0.034507, , 
89.55, 0.034555, , 
89.58, 0.034650, , 
89.61, 0.034796, , 
89.64, 0.034872, , 
89.67, 0.034920, , 
89.70, 0.035005, , 
89.73, 0.035018, , 
89.76, 0.035028, , 
89.79, 0.035031, , 
89.82, 0.035031, , 
89.85, 0.035012, , 
89.88, 0.034999, , 
89.92, 0.034996, , 
89.94, 0.035031, , 
89.97, 0.035021, , 
90.00, 0.035012, , 
90.03, 0.035028, , 
90.06, 0.035037, , 
90.09, 0.035094, , 
90.12, 0.035196, , 
90.15, 0.035310, , 
90.18, 0.035408, , 
90.21, 0.035462, , 
90.24, 0.035472, , 
90.27, 0.035507, , 
90.30, 0.035500, , 
90.34, 0.035503, , 
90.36, 0.035513, , 
90.39, 0.035513, , 
90.42, 0.035500, , 
90.45, 0.035494, , 
90.48, 0.035484, , 
90.51, 0.035497, , 
90.54, 0.035513, , 
90.57, 0.035484, , 
90.60, 0.035465, , 
90.63, 0.035494, , 
90.66, 0.035453, , 
90.69, 0.035453, , 
90.72, 0.035450, , 
90.75, 0.035453, , 
90.78, 0.035554, , 
90.81, 0.035697, , 
90.84, 0.035783, , 
90.87, 0.035875, , 
90.90, 0.035925, , 
90.93, 0.035948, , 
90.96, 0.035932, , 
90.99, 0.035967, , 
91.02, 0.035973, , 
91.05, 0.035976, , 
91.08, 0.035954, , 
91.11, 0.035998, , 
91.14, 0.035976, , 
91.17, 0.035998, , 
91.20, 0.036170, , 
91.23, 0.036309, , 
91.26, 0.036360, , 
91.29, 0.036392, , 
91.32, 0.036455, , 
91.36, 0.036490, , 
91.38, 0.036471, , 
91.41, 0.036468, , 
91.44, 0.036493, , 
91.47, 0.036487, , 
91.50, 0.036477, , 
91.53, 0.036465, , 
91.56, 0.036477, , 
91.59, 0.036512, , 
91.62, 0.036503, , 
91.65, 0.036630, , 
91.68, 0.036769, , 
91.71, 0.036883, , 
91.74, 0.036928, , 
91.77, 0.036956, , 
91.80, 0.036972, , 
91.83, 0.036988, , 
91.86, 0.036991, , 
91.89, 0.037004, , 
91.92, 0.037074, , 
91.95, 0.037232, , 
91.98, 0.037305, , 
92.01, 0.037384, , 
92.04, 0.037448, , 
92.07, 0.037486, , 
92.10, 0.037511, , 
92.13, 0.037514, , 
92.16, 0.037549, , 
92.19, 0.037562, , 
92.22, 0.037527, , 
92.25, 0.037514, , 
92.28, 0.037553, , 
92.31, 0.037562, , 
92.34, 0.037565, , 
92.37, 0.037534, , 
92.40, 0.037562, , 
92.43, 0.037568, , 
92.46, 0.037562, , 
92.49, 0.037565, , 
92.52, 0.037584, , 
92.55, 0.037651, , 
92.58, 0.037771, , 
92.61, 0.037908, , 
92.64, 0.038025, , 
92.67, 0.038070, , 
92.70, 0.038089, , 
92.73, 0.038098, , 
92.76, 0.038130, , 
92.79, 0.038114, , 
92.82, 0.038101, , 
92.85, 0.038117, , 
92.88, 0.038127, , 
92.91, 0.038127, , 
92.94, 0.038133, , 
92.97, 0.038136, , 
93.00, 0.038136, , 
93.03, 0.038108, , 
93.06, 0.038073, , 
93.09, 0.038104, , 
93.12, 0.038114, , 
93.15, 0.038066, , 
93.18, 0.038063, , 
93.21, 0.038076, , 
93.24, 0.038114, , 
93.27, 0.038174, , 
93.30, 0.038269, , 
93.33, 0.038384, , 
93.36, 0.038460, , 
93.39, 0.038501, , 
93.42, 0.038539, , 
93.45, 0.038587, , 
93.48, 0.038590, , 
93.52, 0.038552, , 
93.54, 0.038545, , 
93.57, 0.038555, , 
93.60, 0.038574, , 
93.63, 0.038539, , 
93.66, 0.038549, , 
93.69, 0.038590, , 
93.72, 0.038564, , 
93.75, 0.038577, , 
93.78, 0.038580, , 
93.81, 0.038571, , 
93.84, 0.038587, , 
93.87, 0.038571, , 
93.90, 0.038555, , 
93.93, 0.038602, , 
93.96, 0.038587, , 
93.99, 0.038583, , 
94.02, 0.038590, , 
94.05, 0.038561, , 
94.08, 0.038552, , 
94.11, 0.038552, , 
94.14, 0.038574, , 
94.17, 0.038577, , 
94.20, 0.038571, , 
94.23, 0.038574, , 
94.26, 0.038590, , 
94.29, 0.038590, , 
94.32, 0.038580, , 
94.35, 0.038577, , 
94.38, 0.038558, , 
94.41, 0.038533, , 
94.44, 0.038529, , 
94.47, 0.038564, , 
94.50, 0.038577, , 
94.53, 0.038542, , 
94.56, 0.038523, , 
94.59, 0.038533, , 
94.62, 0.038529, , 
94.65, 0.038510, , 
94.68, 0.038495, , 
94.71, 0.038491, , 
94.74, 0.038523, , 
94.77, 0.038545, , 
94.80, 0.038498, , 
94.83, 0.038539, , 
94.86, 0.038549, , 
94.89, 0.038514, , 
94.92, 0.038460, , 
94.95, 0.038460, , 
94.98, 0.038507, , 
95.01, 0.038482, , 
95.04, 0.038463, , 
95.07, 0.038453, , 
95.10, 0.038450, , 
95.13, 0.038463, , 
95.16, 0.038457, , 
95.19, 0.038422, , 
95.22, 0.038317, , 
95.25, 0.038171, , 
95.28, 0.038038, , 
95.31, 0.038009, , 
95.34, 0.037968, , 
95.37, 0.037949, , 
95.40, 0.037936, , 
95.43, 0.037949, , 
95.46, 0.037943, , 
95.49, 0.037914, , 
95.52, 0.037892, , 
95.55, 0.037930, , 
95.58, 0.037930, , 
95.61, 0.037920, , 
95.64, 0.037940, , 
95.67, 0.037952, , 
95.70, 0.037920, , 
95.73, 0.037901, , 
95.76, 0.037924, , 
95.79, 0.037943, , 
95.82, 0.037962, , 
95.85, 0.037955, , 
95.88, 0.037946, , 
95.91, 0.037965, , 
95.94, 0.037936, , 
95.98, 0.037905, , 
96.00, 0.037924, , 
