Gradient Profiler Text Data File: 1-C1_eIF3b_DMSO_061825.csv
Date: 2025-06-18
Time: 15:38:48

User: Karen
Experiment name: 
UV Unit: EM-1
Rotor Manufacturer: Beckman
Rotor Model: SW28.1
Speed: 28 rpm
Gradient: sucrose 10.0% to 50.0% w/v
Time: 4
w2t:  x 10^0
Sample Volume: 18 ml
Number of Tubes: 6
Volume per mm: 0.183 ml/mm

Absorbance Units Full Scale (AUFS): 2.00
Event Mark-triggered gradient; (with distance; auto start and stop)
Delay: No Delay
UV Wavelength: 254 nm
Samples / sec: 10 Hz
EM1 Speed: 0.30 mm/sec
Distance: 3.20 mm
Number: 30
Dead Volume: 0.000000 ml; Distance due to Dead Volume: 0.00 mm
Total Distance: 96.00 mm

Data Columns:
Distance(mm), Absorbance, Fraction Number, Fraction Volume(ml)
0.00, 0.079917, 0, 0.000
0.03, 0.079914, , 
0.06, 0.079907, , 
0.09, 0.079911, , 
0.12, 0.079911, , 
0.15, 0.079888, , 
0.18, 0.079888, , 
0.21, 0.079920, , 
0.24, 0.079984, , 
0.27, 0.080095, , 
0.30, 0.080234, , 
0.33, 0.080383, , 
0.36, 0.080516, , 
0.39, 0.080678, , 
0.42, 0.080789, , 
0.45, 0.080881, , 
0.48, 0.081002, , 
0.51, 0.081110, , 
0.55, 0.081449, , 
0.57, 0.082061, , 
0.60, 0.084021, , 
0.63, 0.090809, , 
0.66, 0.105464, , 
0.69, 0.140840, , 
0.72, 0.188746, , 
0.75, 0.238412, , 
0.78, 0.317780, , 
0.81, 0.392330, , 
0.84, 0.470950, , 
0.87, 0.565892, , 
0.90, 0.649317, , 
0.93, 0.733913, , 
0.96, 0.819457, , 
0.99, 0.920036, , 
1.02, 1.006693, , 
1.05, 1.107814, , 
1.08, 1.194376, , 
1.11, 1.280167, , 
1.15, 1.377476, , 
1.17, 1.442907, , 
1.20, 1.512064, , 
1.23, 1.574016, , 
1.26, 1.610924, , 
1.29, 1.640160, , 
1.32, 1.656936, , 
1.35, 1.668444, , 
1.38, 1.676253, , 
1.41, 1.681896, , 
1.44, 1.686933, , 
1.47, 1.690540, , 
1.50, 1.693826, , 
1.53, 1.697547, , 
1.56, 1.700684, , 
1.59, 1.703900, , 
1.62, 1.707513, , 
1.65, 1.711687, , 
1.68, 1.717295, , 
1.71, 1.722541, , 
1.74, 1.728923, , 
1.77, 1.734385, , 
1.80, 1.738766, , 
1.83, 1.744526, , 
1.86, 1.749541, , 
1.89, 1.755399, , 
1.92, 1.759866, , 
1.95, 1.763402, , 
1.98, 1.766260, , 
2.01, 1.767611, , 
2.04, 1.768950, , 
2.07, 1.770336, , 
2.10, 1.772290, , 
2.13, 1.775246, , 
2.16, 1.777815, , 
2.19, 1.780350, , 
2.22, 1.781777, , 
2.25, 1.783084, , 
2.28, 1.784359, , 
2.31, 1.785561, , 
2.34, 1.786989, , 
2.37, 1.788984, , 
2.40, 1.790836, , 
2.43, 1.793072, , 
2.46, 1.796704, , 
2.49, 1.799952, , 
2.52, 1.805047, , 
2.55, 1.809646, , 
2.58, 1.813969, , 
2.61, 1.818232, , 
2.64, 1.821043, , 
2.67, 1.823552, , 
2.70, 1.825042, , 
2.73, 1.826441, , 
2.76, 1.827897, , 
2.79, 1.828884, , 
2.82, 1.829680, , 
2.85, 1.829924, , 
2.88, 1.829829, , 
2.91, 1.829404, , 
2.94, 1.828436, , 
2.97, 1.827044, , 
3.00, 1.825144, , 
3.03, 1.822920, , 
3.06, 1.820516, , 
3.09, 1.817322, , 
3.12, 1.814223, , 
3.15, 1.810804, , 
3.18, 1.806560, , 
3.20, 1.804644, 1, 0.585
3.21, 1.803340, , 
3.24, 1.798417, , 
3.27, 1.793904, , 
3.30, 1.789196, , 
3.33, 1.783220, , 
3.36, 1.777739, , 
3.39, 1.771966, , 
3.42, 1.765010, , 
3.46, 1.758686, , 
3.48, 1.752018, , 
3.51, 1.745094, , 
3.54, 1.737932, , 
3.57, 1.729069, , 
3.60, 1.721082, , 
3.63, 1.711436, , 
3.66, 1.704236, , 
3.69, 1.693819, , 
3.72, 1.684431, , 
3.75, 1.674582, , 
3.78, 1.664397, , 
3.81, 1.651978, , 
3.84, 1.640915, , 
3.87, 1.627631, , 
3.90, 1.615866, , 
3.93, 1.605706, , 
3.96, 1.591077, , 
3.99, 1.578190, , 
4.02, 1.564991, , 
4.05, 1.549236, , 
4.08, 1.535511, , 
4.11, 1.519300, , 
4.14, 1.505172, , 
4.17, 1.493293, , 
4.20, 1.476463, , 
4.23, 1.461951, , 
4.26, 1.444984, , 
4.29, 1.430333, , 
4.32, 1.415514, , 
4.35, 1.398065, , 
4.38, 1.385520, , 
4.41, 1.367852, , 
4.44, 1.352633, , 
4.47, 1.337564, , 
4.50, 1.322690, , 
4.53, 1.305448, , 
4.56, 1.290762, , 
4.59, 1.276244, , 
4.62, 1.261888, , 
4.65, 1.245197, , 
4.68, 1.230898, , 
4.71, 1.214283, , 
4.74, 1.200070, , 
4.77, 1.188191, , 
4.80, 1.171675, , 
4.83, 1.157797, , 
4.86, 1.142027, , 
4.89, 1.128765, , 
4.92, 1.115671, , 
4.95, 1.100576, , 
4.98, 1.089975, , 
5.01, 1.075222, , 
5.04, 1.062582, , 
5.07, 1.050063, , 
5.10, 1.035570, , 
5.13, 1.023225, , 
5.16, 1.010943, , 
5.19, 0.996926, , 
5.22, 0.987131, , 
5.25, 0.973546, , 
5.28, 0.962022, , 
5.31, 0.950638, , 
5.34, 0.937516, , 
5.37, 0.926272, , 
5.40, 0.913267, , 
5.43, 0.904024, , 
5.46, 0.893144, , 
5.49, 0.880516, , 
5.52, 0.869748, , 
5.55, 0.859080, , 
5.58, 0.848562, , 
5.61, 0.836401, , 
5.64, 0.825978, , 
5.67, 0.813903, , 
5.70, 0.803584, , 
5.73, 0.793241, , 
5.76, 0.782976, , 
5.79, 0.772915, , 
5.82, 0.763018, , 
5.85, 0.751717, , 
5.88, 0.742141, , 
5.91, 0.731251, , 
5.94, 0.722002, , 
5.97, 0.712835, , 
6.00, 0.703783, , 
6.03, 0.694800, , 
6.06, 0.684576, , 
6.09, 0.675933, , 
6.12, 0.666084, , 
6.15, 0.657900, , 
6.18, 0.649895, , 
6.21, 0.641908, , 
6.24, 0.633997, , 
6.27, 0.626289, , 
6.30, 0.617468, , 
6.33, 0.609979, , 
6.36, 0.601361, , 
6.39, 0.595306, , 
6.40, 0.594094, 2, 0.586
6.42, 0.588099, , 
6.45, 0.579757, , 
6.48, 0.572744, , 
6.51, 0.564744, , 
6.54, 0.557937, , 
6.57, 0.551168, , 
6.60, 0.544501, , 
6.63, 0.537868, , 
6.66, 0.530195, , 
6.69, 0.523671, , 
6.72, 0.517203, , 
6.75, 0.509781, , 
6.78, 0.503599, , 
6.81, 0.497489, , 
6.84, 0.490330, , 
6.87, 0.484316, , 
6.90, 0.479403, , 
6.93, 0.472533, , 
6.96, 0.466715, , 
6.99, 0.461038, , 
7.02, 0.454443, , 
7.05, 0.448835, , 
7.08, 0.442412, , 
7.11, 0.437036, , 
7.14, 0.431716, , 
7.17, 0.426406, , 
7.20, 0.421201, , 
7.23, 0.415352, , 
7.26, 0.410391, , 
7.29, 0.405421, , 
7.32, 0.399705, , 
7.35, 0.394912, , 
7.38, 0.390129, , 
7.41, 0.385304, , 
7.44, 0.380537, , 
7.47, 0.375142, , 
7.50, 0.370625, , 
7.53, 0.366117, , 
7.56, 0.361702, , 
7.59, 0.356592, , 
7.62, 0.352148, , 
7.65, 0.347755, , 
7.68, 0.343435, , 
7.71, 0.339194, , 
7.74, 0.334303, , 
7.77, 0.330144, , 
7.80, 0.326113, , 
7.83, 0.321593, , 
7.86, 0.317749, , 
7.89, 0.313876, , 
7.92, 0.309473, , 
7.95, 0.306428, , 
7.98, 0.302174, , 
8.01, 0.298584, , 
8.04, 0.295066, , 
8.07, 0.291041, , 
8.10, 0.287679, , 
8.13, 0.284288, , 
8.16, 0.281014, , 
8.19, 0.277303, , 
8.22, 0.274204, , 
8.25, 0.270585, , 
8.28, 0.268105, , 
8.31, 0.265215, , 
8.34, 0.261815, , 
8.37, 0.258919, , 
8.40, 0.255594, , 
8.43, 0.252851, , 
8.46, 0.250132, , 
8.49, 0.247411, , 
8.52, 0.244746, , 
8.55, 0.241692, , 
8.58, 0.239072, , 
8.61, 0.236442, , 
8.64, 0.233458, , 
8.67, 0.230983, , 
8.70, 0.228490, , 
8.73, 0.225556, , 
8.76, 0.223498, , 
8.79, 0.220687, , 
8.82, 0.218324, , 
8.85, 0.215993, , 
8.88, 0.213734, , 
8.91, 0.211181, , 
8.94, 0.208970, , 
8.97, 0.206376, , 
9.00, 0.204171, , 
9.03, 0.202103, , 
9.06, 0.200051, , 
9.09, 0.198021, , 
9.12, 0.195788, , 
9.15, 0.193970, , 
9.18, 0.192130, , 
9.21, 0.190272, , 
9.24, 0.188422, , 
9.27, 0.186262, , 
9.30, 0.184407, , 
9.33, 0.182256, , 
9.36, 0.180508, , 
9.39, 0.178802, , 
9.42, 0.177089, , 
9.45, 0.175456, , 
9.48, 0.173838, , 
9.51, 0.171970, , 
9.54, 0.170342, , 
9.57, 0.168430, , 
9.59, 0.167621, 3, 0.584
9.60, 0.166780, , 
9.63, 0.165407, , 
9.66, 0.163497, , 
9.69, 0.161899, , 
9.72, 0.160084, , 
9.75, 0.158556, , 
9.78, 0.156998, , 
9.81, 0.155533, , 
9.84, 0.153909, , 
9.87, 0.152564, , 
9.90, 0.151006, , 
9.93, 0.149861, , 
9.96, 0.148580, , 
9.99, 0.147102, , 
10.02, 0.145861, , 
10.05, 0.144672, , 
10.08, 0.143343, , 
10.11, 0.142271, , 
10.14, 0.140999, , 
10.17, 0.139882, , 
10.20, 0.138972, , 
10.23, 0.137748, , 
10.26, 0.136688, , 
10.29, 0.135641, , 
10.32, 0.134427, , 
10.35, 0.133465, , 
10.38, 0.132435, , 
10.41, 0.131223, , 
10.44, 0.130405, , 
10.47, 0.129313, , 
10.50, 0.128381, , 
10.53, 0.127448, , 
10.56, 0.126376, , 
10.59, 0.125399, , 
10.62, 0.124403, , 
10.65, 0.123420, , 
10.68, 0.122395, , 
10.71, 0.121609, , 
10.74, 0.120841, , 
10.77, 0.120001, , 
10.80, 0.119106, , 
10.83, 0.118361, , 
10.86, 0.117466, , 
10.89, 0.116708, , 
10.92, 0.116109, , 
10.95, 0.115297, , 
10.98, 0.114577, , 
11.01, 0.113831, , 
11.04, 0.113298, , 
11.07, 0.112769, , 
11.10, 0.112036, , 
11.13, 0.111551, , 
11.16, 0.110961, , 
11.19, 0.110482, , 
11.22, 0.109971, , 
11.25, 0.109413, , 
11.28, 0.108981, , 
11.31, 0.108461, , 
11.34, 0.108096, , 
11.37, 0.107789, , 
11.40, 0.107446, , 
11.43, 0.107097, , 
11.46, 0.106640, , 
11.49, 0.106336, , 
11.52, 0.106050, , 
11.55, 0.105743, , 
11.58, 0.105422, , 
11.61, 0.105156, , 
11.64, 0.104871, , 
11.67, 0.104728, , 
11.70, 0.104541, , 
11.73, 0.104306, , 
11.76, 0.104192, , 
11.79, 0.104017, , 
11.82, 0.103862, , 
11.85, 0.103713, , 
11.88, 0.103592, , 
11.91, 0.103513, , 
11.94, 0.103427, , 
11.97, 0.103418, , 
12.00, 0.103437, , 
12.03, 0.103421, , 
12.06, 0.103411, , 
12.09, 0.103548, , 
12.12, 0.103741, , 
12.15, 0.103821, , 
12.18, 0.103944, , 
12.21, 0.104125, , 
12.24, 0.104261, , 
12.27, 0.104417, , 
12.30, 0.104664, , 
12.33, 0.104851, , 
12.36, 0.105175, , 
12.39, 0.105489, , 
12.42, 0.105746, , 
12.45, 0.106041, , 
12.48, 0.106336, , 
12.51, 0.106612, , 
12.54, 0.106799, , 
12.57, 0.107097, , 
12.60, 0.107563, , 
12.63, 0.107928, , 
12.66, 0.108277, , 
12.69, 0.108569, , 
12.72, 0.108934, , 
12.75, 0.109286, , 
12.78, 0.109600, , 
12.80, 0.109774, 4, 0.587
12.82, 0.109977, , 
12.84, 0.110272, , 
12.87, 0.110526, , 
12.90, 0.110758, , 
12.93, 0.111002, , 
12.96, 0.111246, , 
12.99, 0.111449, , 
13.02, 0.111636, , 
13.05, 0.111890, , 
13.08, 0.112055, , 
13.11, 0.112229, , 
13.14, 0.112391, , 
13.17, 0.112534, , 
13.20, 0.112680, , 
13.23, 0.112712, , 
13.26, 0.112734, , 
13.29, 0.112769, , 
13.32, 0.112816, , 
13.35, 0.112797, , 
13.38, 0.112765, , 
13.41, 0.112689, , 
13.44, 0.112553, , 
13.47, 0.112432, , 
13.50, 0.112318, , 
13.53, 0.112267, , 
13.56, 0.112144, , 
13.59, 0.111979, , 
13.62, 0.111763, , 
13.65, 0.111576, , 
13.68, 0.111386, , 
13.71, 0.111084, , 
13.74, 0.110713, , 
13.77, 0.110459, , 
13.80, 0.110123, , 
13.83, 0.109787, , 
13.86, 0.109375, , 
13.89, 0.108918, , 
13.92, 0.108496, , 
13.95, 0.107966, , 
13.98, 0.107532, , 
14.01, 0.107123, , 
14.04, 0.106698, , 
14.07, 0.106228, , 
14.10, 0.105803, , 
14.13, 0.105318, , 
14.16, 0.104842, , 
14.19, 0.104255, , 
14.22, 0.103599, , 
14.25, 0.103078, , 
14.28, 0.102523, , 
14.31, 0.102124, , 
14.34, 0.101667, , 
14.37, 0.101105, , 
14.40, 0.100547, , 
14.43, 0.099862, , 
14.46, 0.099358, , 
14.49, 0.098907, , 
14.52, 0.098409, , 
14.55, 0.097826, , 
14.58, 0.097255, , 
14.61, 0.096684, , 
14.64, 0.096113, , 
14.67, 0.095523, , 
14.70, 0.094882, , 
14.73, 0.094359, , 
14.76, 0.093781, , 
14.79, 0.093071, , 
14.82, 0.092601, , 
14.85, 0.092002, , 
14.88, 0.091472, , 
14.91, 0.090885, , 
14.94, 0.090280, , 
14.97, 0.089756, , 
15.00, 0.089179, , 
15.03, 0.088763, , 
15.06, 0.088300, , 
15.09, 0.087786, , 
15.12, 0.087273, , 
15.15, 0.086692, , 
15.18, 0.086299, , 
15.21, 0.085902, , 
15.24, 0.085509, , 
15.27, 0.085059, , 
15.30, 0.084602, , 
15.33, 0.084193, , 
15.36, 0.083742, , 
15.39, 0.083216, , 
15.42, 0.082794, , 
15.45, 0.082388, , 
15.48, 0.081950, , 
15.51, 0.081462, , 
15.54, 0.081008, , 
15.57, 0.080738, , 
15.60, 0.080367, , 
15.63, 0.079977, , 
15.66, 0.079679, , 
15.69, 0.079225, , 
15.72, 0.078867, , 
15.75, 0.078493, , 
15.78, 0.078207, , 
15.81, 0.077877, , 
15.85, 0.077522, , 
15.87, 0.077259, , 
15.90, 0.076923, , 
15.93, 0.076682, , 
15.96, 0.076374, , 
15.99, 0.076009, 5, 0.585
16.00, 0.075961, , 
16.02, 0.075793, , 
16.05, 0.075527, , 
16.08, 0.075289, , 
16.11, 0.075124, , 
16.14, 0.074953, , 
16.17, 0.074791, , 
16.20, 0.074591, , 
16.23, 0.074420, , 
16.26, 0.074318, , 
16.29, 0.074147, , 
16.32, 0.074008, , 
16.35, 0.073795, , 
16.38, 0.073697, , 
16.41, 0.073592, , 
16.44, 0.073494, , 
16.47, 0.073481, , 
16.50, 0.073491, , 
16.53, 0.073399, , 
16.56, 0.073234, , 
16.59, 0.073085, , 
16.62, 0.073034, , 
16.65, 0.072983, , 
16.68, 0.072942, , 
16.71, 0.072935, , 
16.74, 0.072926, , 
16.77, 0.072809, , 
16.80, 0.072669, , 
16.83, 0.072552, , 
16.86, 0.072523, , 
16.89, 0.072507, , 
16.92, 0.072476, , 
16.95, 0.072453, , 
16.98, 0.072482, , 
17.01, 0.072450, , 
17.04, 0.072406, , 
17.07, 0.072393, , 
17.10, 0.072434, , 
17.13, 0.072422, , 
17.16, 0.072399, , 
17.19, 0.072428, , 
17.22, 0.072453, , 
17.25, 0.072469, , 
17.29, 0.072533, , 
17.31, 0.072663, , 
17.34, 0.072796, , 
17.37, 0.072840, , 
17.40, 0.072856, , 
17.43, 0.072904, , 
17.46, 0.072942, , 
17.50, 0.072907, , 
17.52, 0.072907, , 
17.55, 0.072913, , 
17.58, 0.072954, , 
17.61, 0.072970, , 
17.64, 0.072954, , 
17.67, 0.073053, , 
17.70, 0.073202, , 
17.73, 0.073329, , 
17.76, 0.073367, , 
17.79, 0.073421, , 
17.82, 0.073465, , 
17.85, 0.073437, , 
17.88, 0.073408, , 
17.92, 0.073437, , 
17.94, 0.073456, , 
17.97, 0.073449, , 
18.00, 0.073449, , 
18.03, 0.073544, , 
18.06, 0.073703, , 
18.09, 0.073792, , 
18.13, 0.073852, , 
18.15, 0.073909, , 
18.18, 0.073979, , 
18.21, 0.074042, , 
18.24, 0.074223, , 
18.27, 0.074356, , 
18.30, 0.074499, , 
18.33, 0.074667, , 
18.36, 0.074791, , 
18.39, 0.074896, , 
18.42, 0.075004, , 
18.45, 0.075115, , 
18.48, 0.075276, , 
18.51, 0.075527, , 
18.54, 0.075711, , 
18.57, 0.075958, , 
18.60, 0.076174, , 
18.63, 0.076374, , 
18.66, 0.076704, , 
18.69, 0.076980, , 
18.72, 0.077281, , 
18.75, 0.077646, , 
18.78, 0.077979, , 
18.81, 0.078417, , 
18.85, 0.078807, , 
18.87, 0.079260, , 
18.90, 0.079733, , 
18.93, 0.080148, , 
18.96, 0.080650, , 
18.99, 0.081100, , 
19.02, 0.081525, , 
19.05, 0.082014, , 
19.08, 0.082470, , 
19.11, 0.082892, , 
19.14, 0.083527, , 
19.17, 0.084047, , 
19.19, 0.084408, 6, 0.585
19.20, 0.084697, , 
19.23, 0.085325, , 
19.26, 0.086042, , 
19.30, 0.086670, , 
19.32, 0.087203, , 
19.35, 0.087980, , 
19.38, 0.088624, , 
19.41, 0.089369, , 
19.44, 0.090013, , 
19.47, 0.090698, , 
19.51, 0.091447, , 
19.53, 0.091929, , 
19.56, 0.092513, , 
19.59, 0.093274, , 
19.62, 0.093880, , 
19.65, 0.094460, , 
19.68, 0.095225, , 
19.71, 0.095916, , 
19.74, 0.096646, , 
19.77, 0.097179, , 
19.80, 0.097683, , 
19.83, 0.098428, , 
19.86, 0.098964, , 
19.89, 0.099605, , 
19.92, 0.100252, , 
19.95, 0.100833, , 
19.98, 0.101432, , 
20.01, 0.101927, , 
20.04, 0.102415, , 
20.07, 0.103142, , 
20.10, 0.103665, , 
20.13, 0.104150, , 
20.16, 0.104706, , 
20.19, 0.105188, , 
20.22, 0.105606, , 
20.25, 0.106104, , 
20.28, 0.106479, , 
20.31, 0.106894, , 
20.34, 0.107177, , 
20.37, 0.107513, , 
20.40, 0.107947, , 
20.43, 0.108303, , 
20.46, 0.108613, , 
20.49, 0.108851, , 
20.52, 0.109251, , 
20.55, 0.109552, , 
20.58, 0.109777, , 
20.61, 0.109958, , 
20.64, 0.110171, , 
20.67, 0.110339, , 
20.70, 0.110498, , 
20.73, 0.110590, , 
20.77, 0.110716, , 
20.79, 0.110850, , 
20.82, 0.110961, , 
20.85, 0.111075, , 
20.88, 0.111237, , 
20.91, 0.111268, , 
20.94, 0.111230, , 
20.97, 0.111170, , 
21.00, 0.111126, , 
21.03, 0.111015, , 
21.06, 0.110884, , 
21.09, 0.110821, , 
21.12, 0.110745, , 
21.15, 0.110586, , 
21.18, 0.110361, , 
21.21, 0.110168, , 
21.24, 0.110012, , 
21.27, 0.109686, , 
21.30, 0.109378, , 
21.33, 0.109134, , 
21.36, 0.108826, , 
21.39, 0.108515, , 
21.42, 0.108109, , 
21.45, 0.107732, , 
21.48, 0.107357, , 
21.51, 0.107046, , 
21.54, 0.106694, , 
21.57, 0.106339, , 
21.60, 0.105889, , 
21.63, 0.105438, , 
21.66, 0.105010, , 
21.69, 0.104487, , 
21.72, 0.103938, , 
21.76, 0.103275, , 
21.78, 0.102825, , 
21.81, 0.102320, , 
21.84, 0.101844, , 
21.87, 0.101388, , 
21.90, 0.100836, , 
21.93, 0.100417, , 
21.96, 0.100005, , 
21.99, 0.099573, , 
22.02, 0.099098, , 
22.05, 0.098692, , 
22.08, 0.098178, , 
22.11, 0.097705, , 
22.14, 0.097179, , 
22.17, 0.096763, , 
22.20, 0.096328, , 
22.23, 0.095954, , 
22.26, 0.095640, , 
22.29, 0.095285, , 
22.32, 0.094933, , 
22.35, 0.094508, , 
22.38, 0.094086, , 
22.40, 0.093864, 7, 0.587
22.41, 0.093636, , 
22.44, 0.093353, , 
22.47, 0.093017, , 
22.50, 0.092579, , 
22.53, 0.092224, , 
22.56, 0.091881, , 
22.59, 0.091583, , 
22.62, 0.091187, , 
22.65, 0.090933, , 
22.68, 0.090663, , 
22.71, 0.090378, , 
22.74, 0.090080, , 
22.77, 0.089880, , 
22.80, 0.089699, , 
22.83, 0.089518, , 
22.86, 0.089319, , 
22.89, 0.089138, , 
22.92, 0.089024, , 
22.95, 0.088935, , 
22.98, 0.088865, , 
23.01, 0.088881, , 
23.04, 0.088874, , 
23.07, 0.088846, , 
23.10, 0.088843, , 
23.13, 0.088906, , 
23.16, 0.089017, , 
23.19, 0.089138, , 
23.22, 0.089357, , 
23.25, 0.089594, , 
23.28, 0.090026, , 
23.31, 0.090387, , 
23.34, 0.090882, , 
23.37, 0.091339, , 
23.40, 0.091828, , 
23.43, 0.092509, , 
23.46, 0.093118, , 
23.49, 0.094080, , 
23.52, 0.094996, , 
23.55, 0.095986, , 
23.58, 0.097296, , 
23.61, 0.098546, , 
23.64, 0.100227, , 
23.67, 0.101505, , 
23.70, 0.103170, , 
23.73, 0.105283, , 
23.76, 0.107234, , 
23.79, 0.109777, , 
23.82, 0.112185, , 
23.85, 0.114745, , 
23.88, 0.117419, , 
23.91, 0.120223, , 
23.94, 0.123674, , 
23.97, 0.126773, , 
24.00, 0.129957, , 
24.03, 0.133846, , 
24.07, 0.137357, , 
24.09, 0.141037, , 
24.12, 0.144783, , 
24.15, 0.148577, , 
24.18, 0.153170, , 
24.21, 0.157230, , 
24.24, 0.162051, , 
24.27, 0.166197, , 
24.30, 0.169689, , 
24.33, 0.174586, , 
24.36, 0.178764, , 
24.39, 0.183658, , 
24.42, 0.187839, , 
24.45, 0.191969, , 
24.49, 0.196761, , 
24.51, 0.200184, , 
24.54, 0.204216, , 
24.57, 0.208720, , 
24.60, 0.212412, , 
24.63, 0.216021, , 
24.66, 0.220183, , 
24.69, 0.223564, , 
24.72, 0.227294, , 
24.75, 0.229819, , 
24.78, 0.232814, , 
24.81, 0.236081, , 
24.84, 0.238631, , 
24.87, 0.241029, , 
24.90, 0.243582, , 
24.93, 0.245517, , 
24.96, 0.247236, , 
24.99, 0.249076, , 
25.02, 0.250418, , 
25.05, 0.251829, , 
25.08, 0.252879, , 
25.11, 0.253783, , 
25.14, 0.254668, , 
25.17, 0.255227, , 
25.20, 0.255655, , 
25.23, 0.255921, , 
25.27, 0.256045, , 
25.29, 0.255985, , 
25.32, 0.255744, , 
25.35, 0.255284, , 
25.38, 0.254789, , 
25.41, 0.254193, , 
25.44, 0.253368, , 
25.47, 0.252667, , 
25.50, 0.251750, , 
25.53, 0.250576, , 
25.56, 0.249492, , 
25.59, 0.248150, 8, 0.585
25.60, 0.247931, , 
25.62, 0.246891, , 
25.65, 0.245254, , 
25.68, 0.244039, , 
25.71, 0.242558, , 
25.74, 0.240756, , 
25.77, 0.239154, , 
25.80, 0.237546, , 
25.83, 0.235681, , 
25.86, 0.234051, , 
25.89, 0.232351, , 
25.92, 0.230628, , 
25.95, 0.228868, , 
25.98, 0.226692, , 
26.01, 0.224824, , 
26.04, 0.222714, , 
26.07, 0.220925, , 
26.10, 0.219415, , 
26.13, 0.217309, , 
26.16, 0.215492, , 
26.19, 0.213386, , 
26.22, 0.211524, , 
26.25, 0.209681, , 
26.28, 0.207619, , 
26.31, 0.206188, , 
26.34, 0.204143, , 
26.37, 0.202335, , 
26.40, 0.200571, , 
26.43, 0.198563, , 
26.46, 0.196815, , 
26.50, 0.194766, , 
26.52, 0.193317, , 
26.55, 0.191594, , 
26.58, 0.189637, , 
26.61, 0.187959, , 
26.64, 0.186110, , 
26.67, 0.184527, , 
26.70, 0.183033, , 
26.73, 0.181305, , 
26.76, 0.179763, , 
26.79, 0.178323, , 
26.82, 0.176626, , 
26.85, 0.175094, , 
26.88, 0.173410, , 
26.91, 0.172043, , 
26.94, 0.170650, , 
26.97, 0.169178, , 
27.00, 0.167751, , 
27.03, 0.166171, , 
27.06, 0.164795, , 
27.09, 0.163431, , 
27.12, 0.161892, , 
27.15, 0.160963, , 
27.18, 0.159256, , 
27.21, 0.157918, , 
27.24, 0.156405, , 
27.27, 0.155111, , 
27.30, 0.153810, , 
27.33, 0.152459, , 
27.36, 0.151149, , 
27.39, 0.149690, , 
27.42, 0.148386, , 
27.45, 0.147162, , 
27.48, 0.145785, , 
27.51, 0.144609, , 
27.54, 0.143406, , 
27.57, 0.142239, , 
27.60, 0.141113, , 
27.63, 0.139847, , 
27.66, 0.138661, , 
27.69, 0.137259, , 
27.72, 0.136190, , 
27.75, 0.135337, , 
27.78, 0.134087, , 
27.81, 0.132999, , 
27.84, 0.131921, , 
27.87, 0.130677, , 
27.90, 0.129637, , 
27.93, 0.128416, , 
27.96, 0.127394, , 
27.99, 0.126589, , 
28.02, 0.125425, , 
28.05, 0.124435, , 
28.08, 0.123468, , 
28.11, 0.122294, , 
28.14, 0.121292, , 
28.17, 0.120207, , 
28.20, 0.119331, , 
28.23, 0.118373, , 
28.26, 0.117349, , 
28.29, 0.116388, , 
28.32, 0.115281, , 
28.35, 0.114402, , 
28.38, 0.113457, , 
28.41, 0.112423, , 
28.45, 0.111563, , 
28.47, 0.110697, , 
28.50, 0.109774, , 
28.53, 0.108873, , 
28.56, 0.107887, , 
28.59, 0.107053, , 
28.62, 0.106095, , 
28.65, 0.105476, , 
28.68, 0.104636, , 
28.71, 0.103836, , 
28.74, 0.102993, , 
28.77, 0.102114, , 
28.79, 0.101756, 9, 0.584
28.80, 0.101537, , 
28.83, 0.100776, , 
28.86, 0.100078, , 
28.89, 0.099345, , 
28.92, 0.098546, , 
28.95, 0.097848, , 
28.98, 0.097033, , 
29.01, 0.096484, , 
29.04, 0.095853, , 
29.07, 0.095072, , 
29.10, 0.094362, , 
29.13, 0.093696, , 
29.16, 0.092969, , 
29.19, 0.092316, , 
29.22, 0.091513, , 
29.25, 0.090965, , 
29.28, 0.090327, , 
29.31, 0.089541, , 
29.34, 0.088928, , 
29.37, 0.088392, , 
29.40, 0.087710, , 
29.43, 0.087127, , 
29.46, 0.086448, , 
29.49, 0.085858, , 
29.52, 0.085398, , 
29.55, 0.084751, , 
29.58, 0.084132, , 
29.61, 0.083555, , 
29.64, 0.082930, , 
29.67, 0.082413, , 
29.70, 0.081842, , 
29.73, 0.081493, , 
29.76, 0.081065, , 
29.79, 0.080529, , 
29.82, 0.080079, , 
29.85, 0.079593, , 
29.88, 0.079162, , 
29.91, 0.078578, , 
29.94, 0.077972, , 
29.97, 0.077468, , 
30.00, 0.076938, , 
30.03, 0.076456, , 
30.06, 0.075981, , 
30.09, 0.075460, , 
30.12, 0.075019, , 
30.16, 0.074506, , 
30.18, 0.074169, , 
30.21, 0.073887, , 
30.24, 0.073557, , 
30.27, 0.073189, , 
30.30, 0.072717, , 
30.33, 0.072399, , 
30.36, 0.071959, , 
30.39, 0.071511, , 
30.42, 0.071127, , 
30.45, 0.070775, , 
30.48, 0.070436, , 
30.51, 0.069992, , 
30.54, 0.069684, , 
30.57, 0.069338, , 
30.60, 0.068980, , 
30.63, 0.068647, , 
30.66, 0.068285, , 
30.69, 0.067994, , 
30.72, 0.067721, , 
30.75, 0.067413, , 
30.78, 0.067096, , 
30.81, 0.066836, , 
30.84, 0.066443, , 
30.87, 0.066119, , 
30.90, 0.065814, , 
30.93, 0.065548, , 
30.96, 0.065272, , 
30.99, 0.064920, , 
31.02, 0.064647, , 
31.05, 0.064419, , 
31.08, 0.064165, , 
31.11, 0.063902, , 
31.14, 0.063629, , 
31.17, 0.063420, , 
31.20, 0.063090, , 
31.23, 0.062776, , 
31.26, 0.062532, , 
31.29, 0.062306, , 
31.32, 0.062091, , 
31.35, 0.061824, , 
31.38, 0.061618, , 
31.41, 0.061450, , 
31.44, 0.061183, , 
31.47, 0.060939, , 
31.51, 0.060727, , 
31.53, 0.060540, , 
31.56, 0.060362, , 
31.59, 0.060175, , 
31.62, 0.059943, , 
31.65, 0.059804, , 
31.68, 0.059569, , 
31.71, 0.059388, , 
31.74, 0.059242, , 
31.77, 0.059084, , 
31.80, 0.058896, , 
31.83, 0.058693, , 
31.86, 0.058576, , 
31.89, 0.058484, , 
31.92, 0.058259, , 
31.95, 0.058116, , 
31.98, 0.057983, , 
32.00, 0.057916, 10, 0.587
32.01, 0.057831, , 
32.04, 0.057704, , 
32.07, 0.057609, , 
32.10, 0.057590, , 
32.13, 0.057552, , 
32.16, 0.057364, , 
32.19, 0.057231, , 
32.22, 0.057174, , 
32.25, 0.057168, , 
32.28, 0.057120, , 
32.31, 0.057082, , 
32.34, 0.057101, , 
32.37, 0.057117, , 
32.40, 0.056949, , 
32.43, 0.056755, , 
32.46, 0.056676, , 
32.49, 0.056654, , 
32.52, 0.056676, , 
32.55, 0.056743, , 
32.58, 0.056939, , 
32.61, 0.057031, , 
32.64, 0.057057, , 
32.67, 0.057111, , 
32.70, 0.057269, , 
32.73, 0.057399, , 
32.76, 0.057501, , 
32.79, 0.057656, , 
32.82, 0.057875, , 
32.85, 0.058094, , 
32.88, 0.058329, , 
32.91, 0.058579, , 
32.94, 0.058925, , 
32.97, 0.059217, , 
33.00, 0.059566, , 
33.03, 0.060042, , 
33.06, 0.060463, , 
33.09, 0.061069, , 
33.12, 0.061615, , 
33.15, 0.062243, , 
33.18, 0.063014, , 
33.21, 0.063670, , 
33.24, 0.064498, , 
33.27, 0.065136, , 
33.30, 0.066017, , 
33.33, 0.067080, , 
33.36, 0.068051, , 
33.39, 0.069078, , 
33.42, 0.070401, , 
33.45, 0.071556, , 
33.48, 0.072761, , 
33.51, 0.074284, , 
33.54, 0.075695, , 
33.57, 0.076885, , 
33.60, 0.078594, , 
33.63, 0.080079, , 
33.66, 0.081899, , 
33.69, 0.083485, , 
33.72, 0.085093, , 
33.75, 0.087066, , 
33.78, 0.088506, , 
33.81, 0.090514, , 
33.84, 0.092243, , 
33.87, 0.094086, , 
33.90, 0.096303, , 
33.93, 0.098149, , 
33.96, 0.099919, , 
33.99, 0.102013, , 
34.02, 0.103795, , 
34.05, 0.105521, , 
34.08, 0.107189, , 
34.11, 0.108858, , 
34.14, 0.110729, , 
34.17, 0.112290, , 
34.20, 0.113806, , 
34.23, 0.115538, , 
34.26, 0.116692, , 
34.29, 0.118126, , 
34.32, 0.119341, , 
34.35, 0.120562, , 
34.38, 0.121840, , 
34.41, 0.122840, , 
34.44, 0.123750, , 
34.47, 0.124644, , 
34.50, 0.125596, , 
34.53, 0.126291, , 
34.56, 0.126922, , 
34.59, 0.127604, , 
34.62, 0.128070, , 
34.66, 0.128409, , 
34.68, 0.128619, , 
34.71, 0.128822, , 
34.74, 0.128980, , 
34.77, 0.129025, , 
34.80, 0.129041, , 
34.83, 0.129044, , 
34.86, 0.128936, , 
34.89, 0.128758, , 
34.92, 0.128527, , 
34.95, 0.128298, , 
34.98, 0.127880, , 
35.01, 0.127464, , 
35.04, 0.126887, , 
35.07, 0.126354, , 
35.10, 0.125859, , 
35.13, 0.125111, , 
35.16, 0.124419, , 
35.19, 0.123683, 11, 0.585
35.20, 0.123585, , 
35.22, 0.123084, , 
35.25, 0.122380, , 
35.28, 0.121625, , 
35.31, 0.120946, , 
35.34, 0.120118, , 
35.37, 0.119335, , 
35.40, 0.118427, , 
35.43, 0.117688, , 
35.46, 0.117108, , 
35.49, 0.116191, , 
35.52, 0.115389, , 
35.55, 0.114500, , 
35.58, 0.113777, , 
35.61, 0.113016, , 
35.64, 0.112153, , 
35.67, 0.111557, , 
35.70, 0.110742, , 
35.73, 0.109958, , 
35.76, 0.109213, , 
35.79, 0.108445, , 
35.82, 0.107776, , 
35.86, 0.106961, , 
35.88, 0.106276, , 
35.91, 0.105635, , 
35.94, 0.104978, , 
35.97, 0.104322, , 
36.00, 0.103741, , 
36.03, 0.103072, , 
36.06, 0.102485, , 
36.09, 0.101781, , 
36.12, 0.101302, , 
36.15, 0.100887, , 
36.18, 0.100195, , 
36.21, 0.099586, , 
36.24, 0.099018, , 
36.27, 0.098562, , 
36.30, 0.098105, , 
36.33, 0.097607, , 
36.36, 0.097179, , 
36.39, 0.096703, , 
36.42, 0.096240, , 
36.45, 0.095716, , 
36.48, 0.095053, , 
36.51, 0.094660, , 
36.54, 0.094000, , 
36.57, 0.093493, , 
36.60, 0.093039, , 
36.63, 0.092554, , 
36.66, 0.092107, , 
36.69, 0.091659, , 
36.72, 0.091161, , 
36.76, 0.090733, , 
36.78, 0.090292, , 
36.81, 0.089817, , 
36.84, 0.089395, , 
36.87, 0.088925, , 
36.90, 0.088491, , 
36.93, 0.087964, , 
36.96, 0.087507, , 
36.99, 0.087193, , 
37.02, 0.086689, , 
37.05, 0.086232, , 
37.08, 0.085779, , 
37.11, 0.085309, , 
37.14, 0.084890, , 
37.17, 0.084323, , 
37.20, 0.083901, , 
37.24, 0.083492, , 
37.26, 0.083038, , 
37.29, 0.082600, , 
37.32, 0.082109, , 
37.35, 0.081680, , 
37.38, 0.081211, , 
37.41, 0.080669, , 
37.44, 0.080329, , 
37.47, 0.079815, , 
37.50, 0.079368, , 
37.53, 0.078940, , 
37.56, 0.078474, , 
37.59, 0.078030, , 
37.62, 0.077573, , 
37.65, 0.077300, , 
37.68, 0.077011, , 
37.71, 0.076615, , 
37.74, 0.076184, , 
37.77, 0.075714, , 
37.80, 0.075352, , 
37.83, 0.074946, , 
37.86, 0.074515, , 
37.89, 0.074173, , 
37.92, 0.073814, , 
37.95, 0.073472, , 
37.98, 0.073056, , 
38.01, 0.072615, , 
38.04, 0.072374, , 
38.07, 0.072098, , 
38.10, 0.071727, , 
38.13, 0.071400, , 
38.16, 0.071080, , 
38.19, 0.070794, , 
38.22, 0.070480, , 
38.25, 0.070154, , 
38.28, 0.069909, , 
38.31, 0.069576, , 
38.34, 0.069285, , 
38.37, 0.069012, , 
38.39, 0.068809, 12, 0.585
38.40, 0.068669, , 
38.43, 0.068384, , 
38.46, 0.068041, , 
38.49, 0.067889, , 
38.52, 0.067657, , 
38.55, 0.067315, , 
38.58, 0.067013, , 
38.61, 0.066776, , 
38.64, 0.066626, , 
38.67, 0.066408, , 
38.70, 0.066198, , 
38.73, 0.065995, , 
38.76, 0.065802, , 
38.79, 0.065672, , 
38.82, 0.065485, , 
38.85, 0.065291, , 
38.88, 0.065228, , 
38.91, 0.065164, , 
38.94, 0.065025, , 
38.97, 0.064872, , 
39.00, 0.064752, , 
39.03, 0.064669, , 
39.06, 0.064619, , 
39.10, 0.064603, , 
39.12, 0.064590, , 
39.15, 0.064584, , 
39.18, 0.064577, , 
39.21, 0.064581, , 
39.24, 0.064596, , 
39.27, 0.064574, , 
39.31, 0.064571, , 
39.33, 0.064593, , 
39.36, 0.064596, , 
39.39, 0.064574, , 
39.42, 0.064587, , 
39.45, 0.064736, , 
39.48, 0.064869, , 
39.51, 0.064961, , 
39.54, 0.065082, , 
39.57, 0.065285, , 
39.60, 0.065542, , 
39.63, 0.065814, , 
39.66, 0.066214, , 
39.69, 0.066630, , 
39.72, 0.066998, , 
39.75, 0.067439, , 
39.78, 0.067854, , 
39.81, 0.068460, , 
39.84, 0.069028, , 
39.87, 0.069551, , 
39.90, 0.070322, , 
39.93, 0.070947, , 
39.96, 0.071886, , 
39.99, 0.072780, , 
40.02, 0.073805, , 
40.05, 0.075137, , 
40.08, 0.076304, , 
40.11, 0.077541, , 
40.14, 0.079130, , 
40.17, 0.080291, , 
40.20, 0.081979, , 
40.23, 0.083565, , 
40.26, 0.085271, , 
40.29, 0.087447, , 
40.32, 0.089366, , 
40.35, 0.091710, , 
40.38, 0.093436, , 
40.41, 0.095653, , 
40.44, 0.098330, , 
40.47, 0.100626, , 
40.50, 0.103421, , 
40.53, 0.105974, , 
40.56, 0.108528, , 
40.59, 0.111081, , 
40.62, 0.113698, , 
40.65, 0.116829, , 
40.68, 0.119544, , 
40.71, 0.122221, , 
40.74, 0.125377, , 
40.77, 0.128019, , 
40.80, 0.130630, , 
40.83, 0.133234, , 
40.86, 0.136266, , 
40.89, 0.138817, , 
40.92, 0.141265, , 
40.95, 0.143641, , 
40.98, 0.145969, , 
41.01, 0.148516, , 
41.04, 0.150597, , 
41.07, 0.152551, , 
41.10, 0.154756, , 
41.13, 0.156243, , 
41.16, 0.158134, , 
41.19, 0.159628, , 
41.22, 0.161033, , 
41.25, 0.162555, , 
41.28, 0.163685, , 
41.31, 0.164665, , 
41.34, 0.165740, , 
41.37, 0.166508, , 
41.40, 0.167082, , 
41.43, 0.167576, , 
41.46, 0.167897, , 
41.49, 0.168125, , 
41.52, 0.168189, , 
41.55, 0.168170, , 
41.58, 0.168027, , 
41.59, 0.167992, 13, 0.585
41.61, 0.167773, , 
41.65, 0.167370, , 
41.67, 0.167025, , 
41.70, 0.166542, , 
41.73, 0.165803, , 
41.76, 0.165115, , 
41.79, 0.164344, , 
41.82, 0.163386, , 
41.85, 0.162501, , 
41.88, 0.161572, , 
41.91, 0.160636, , 
41.94, 0.159663, , 
41.97, 0.158483, , 
42.00, 0.157382, , 
42.03, 0.156116, , 
42.06, 0.155044, , 
42.09, 0.154105, , 
42.12, 0.152729, , 
42.15, 0.151558, , 
42.18, 0.150489, , 
42.21, 0.149233, , 
42.24, 0.148101, , 
42.27, 0.146807, , 
42.30, 0.145754, , 
42.33, 0.144850, , 
42.36, 0.143552, , 
42.39, 0.142429, , 
42.42, 0.141180, , 
42.45, 0.140142, , 
42.48, 0.139089, , 
42.51, 0.138112, , 
42.54, 0.137056, , 
42.57, 0.136111, , 
42.60, 0.135061, , 
42.63, 0.133916, , 
42.66, 0.132977, , 
42.69, 0.132064, , 
42.72, 0.131160, , 
42.75, 0.130354, , 
42.78, 0.129646, , 
42.81, 0.128752, , 
42.84, 0.127927, , 
42.87, 0.126931, , 
42.90, 0.126142, , 
42.93, 0.125539, , 
42.96, 0.124660, , 
42.99, 0.123867, , 
43.02, 0.122966, , 
43.05, 0.122221, , 
43.08, 0.121463, , 
43.11, 0.120591, , 
43.14, 0.119978, , 
43.17, 0.119170, , 
43.20, 0.118389, , 
43.23, 0.117669, , 
43.26, 0.116914, , 
43.29, 0.116159, , 
43.32, 0.115274, , 
43.35, 0.114653, , 
43.38, 0.114006, , 
43.41, 0.113229, , 
43.44, 0.112493, , 
43.47, 0.111668, , 
43.50, 0.111008, , 
43.53, 0.110374, , 
43.56, 0.109736, , 
43.59, 0.109115, , 
43.62, 0.108410, , 
43.65, 0.107792, , 
43.68, 0.107119, , 
43.71, 0.106317, , 
43.74, 0.105679, , 
43.77, 0.105029, , 
43.80, 0.104341, , 
43.83, 0.103738, , 
43.86, 0.103088, , 
43.89, 0.102469, , 
43.92, 0.101695, , 
43.95, 0.101064, , 
43.98, 0.100620, , 
44.01, 0.099948, , 
44.04, 0.099310, , 
44.07, 0.098641, , 
44.10, 0.098114, , 
44.13, 0.097518, , 
44.17, 0.096830, , 
44.19, 0.096360, , 
44.22, 0.095780, , 
44.25, 0.095301, , 
44.28, 0.094755, , 
44.31, 0.094076, , 
44.34, 0.093524, , 
44.37, 0.092995, , 
44.40, 0.092497, , 
44.43, 0.092091, , 
44.46, 0.091726, , 
44.49, 0.091415, , 
44.52, 0.091015, , 
44.55, 0.090727, , 
44.58, 0.090498, , 
44.61, 0.090127, , 
44.64, 0.089810, , 
44.67, 0.089518, , 
44.70, 0.089296, , 
44.73, 0.089077, , 
44.76, 0.088884, , 
44.79, 0.088760, , 
44.80, 0.088741, 14, 0.587
44.82, 0.088624, , 
44.85, 0.088506, , 
44.88, 0.088475, , 
44.91, 0.088453, , 
44.94, 0.088418, , 
44.97, 0.088376, , 
45.00, 0.088370, , 
45.03, 0.088462, , 
45.06, 0.088598, , 
45.09, 0.088722, , 
45.12, 0.088935, , 
45.15, 0.089128, , 
45.18, 0.089420, , 
45.21, 0.089728, , 
45.24, 0.090080, , 
45.27, 0.090603, , 
45.30, 0.091133, , 
45.33, 0.091672, , 
45.36, 0.092383, , 
45.40, 0.093115, , 
45.42, 0.093899, , 
45.45, 0.094733, , 
45.48, 0.095678, , 
45.51, 0.096861, , 
45.54, 0.097975, , 
45.57, 0.099332, , 
45.60, 0.100601, , 
45.63, 0.101765, , 
45.66, 0.103427, , 
45.69, 0.104883, , 
45.72, 0.106717, , 
45.75, 0.108442, , 
45.78, 0.110282, , 
45.81, 0.112125, , 
45.84, 0.114079, , 
45.87, 0.116473, , 
45.90, 0.118586, , 
45.93, 0.120708, , 
45.96, 0.123255, , 
45.99, 0.125441, , 
46.02, 0.127623, , 
46.05, 0.129888, , 
46.08, 0.132181, , 
46.11, 0.134931, , 
46.14, 0.137300, , 
46.17, 0.140060, , 
46.20, 0.142429, , 
46.23, 0.144425, , 
46.26, 0.147146, , 
46.29, 0.149370, , 
46.32, 0.151552, , 
46.35, 0.154153, , 
46.38, 0.156357, , 
46.41, 0.158755, , 
46.44, 0.160421, , 
46.47, 0.162349, , 
46.50, 0.164420, , 
46.53, 0.166025, , 
46.56, 0.167900, , 
46.59, 0.169470, , 
46.62, 0.171101, , 
46.65, 0.172334, , 
46.68, 0.173467, , 
46.71, 0.174326, , 
46.74, 0.175411, , 
46.77, 0.176198, , 
46.80, 0.176988, , 
46.83, 0.177609, , 
46.86, 0.178145, , 
46.90, 0.178631, , 
46.92, 0.178888, , 
46.95, 0.179145, , 
46.98, 0.179237, , 
47.01, 0.179170, , 
47.04, 0.179011, , 
47.07, 0.178869, , 
47.10, 0.178647, , 
47.13, 0.178234, , 
47.16, 0.177784, , 
47.19, 0.177181, , 
47.22, 0.176604, , 
47.25, 0.175804, , 
47.28, 0.175113, , 
47.31, 0.174456, , 
47.34, 0.173755, , 
47.37, 0.172934, , 
47.40, 0.171890, , 
47.43, 0.170961, , 
47.46, 0.170003, , 
47.49, 0.168852, , 
47.52, 0.167881, , 
47.55, 0.166910, , 
47.58, 0.165857, , 
47.61, 0.164766, , 
47.64, 0.163574, , 
47.67, 0.162584, , 
47.70, 0.161562, , 
47.73, 0.160497, , 
47.76, 0.159231, , 
47.79, 0.158197, , 
47.82, 0.157134, , 
47.85, 0.155888, , 
47.88, 0.155016, , 
47.91, 0.153880, , 
47.94, 0.152881, , 
47.97, 0.151780, , 
47.99, 0.150940, 15, 0.585
48.00, 0.150626, , 
48.03, 0.149671, , 
48.06, 0.148646, , 
48.09, 0.147435, , 
48.12, 0.146451, , 
48.15, 0.145535, , 
48.18, 0.144628, , 
48.21, 0.143685, , 
48.24, 0.142601, , 
48.27, 0.141608, , 
48.30, 0.140428, , 
48.33, 0.139460, , 
48.36, 0.138712, , 
48.39, 0.137722, , 
48.42, 0.136907, , 
48.45, 0.136127, , 
48.48, 0.135264, , 
48.51, 0.134455, , 
48.54, 0.133596, , 
48.57, 0.132606, , 
48.60, 0.131813, , 
48.63, 0.131058, , 
48.66, 0.130262, , 
48.69, 0.129377, , 
48.72, 0.128670, , 
48.75, 0.127978, , 
48.78, 0.127188, , 
48.81, 0.126440, , 
48.84, 0.125678, , 
48.87, 0.125034, , 
48.90, 0.124251, , 
48.93, 0.123560, , 
48.96, 0.123033, , 
48.99, 0.122281, , 
49.02, 0.121644, , 
49.05, 0.120901, , 
49.08, 0.120308, , 
49.11, 0.119766, , 
49.14, 0.119201, , 
49.17, 0.118656, , 
49.20, 0.118139, , 
49.23, 0.117742, , 
49.26, 0.117295, , 
49.29, 0.116978, , 
49.32, 0.116778, , 
49.35, 0.116470, , 
49.38, 0.116207, , 
49.41, 0.116007, , 
49.44, 0.115906, , 
49.47, 0.115858, , 
49.50, 0.115785, , 
49.53, 0.115744, , 
49.56, 0.115779, , 
49.59, 0.115887, , 
49.62, 0.116029, , 
49.65, 0.116264, , 
49.68, 0.116562, , 
49.71, 0.116873, , 
49.74, 0.117222, , 
49.77, 0.117698, , 
49.80, 0.118329, , 
49.83, 0.118852, , 
49.86, 0.119560, , 
49.89, 0.120235, , 
49.92, 0.120901, , 
49.95, 0.121970, , 
49.98, 0.122906, , 
50.01, 0.124092, , 
50.04, 0.125184, , 
50.07, 0.126281, , 
50.10, 0.127582, , 
50.13, 0.128571, , 
50.16, 0.130160, , 
50.19, 0.131578, , 
50.22, 0.132955, , 
50.25, 0.134623, , 
50.28, 0.136206, , 
50.31, 0.137786, , 
50.34, 0.139568, , 
50.38, 0.141186, , 
50.40, 0.142804, , 
50.43, 0.144393, , 
50.46, 0.145963, , 
50.49, 0.147857, , 
50.52, 0.149465, , 
50.55, 0.151304, , 
50.58, 0.152554, , 
50.61, 0.153991, , 
50.64, 0.155650, , 
50.67, 0.157008, , 
50.70, 0.158536, , 
50.73, 0.159859, , 
50.76, 0.161160, , 
50.79, 0.162352, , 
50.82, 0.163459, , 
50.85, 0.164731, , 
50.88, 0.165743, , 
50.91, 0.166580, , 
50.94, 0.167307, , 
50.97, 0.168135, , 
51.00, 0.168772, , 
51.03, 0.169308, , 
51.06, 0.169848, , 
51.09, 0.170317, , 
51.12, 0.170736, , 
51.15, 0.171062, , 
51.18, 0.171338, , 
51.19, 0.171418, 16, 0.585
51.21, 0.171579, , 
51.24, 0.171706, , 
51.27, 0.171706, , 
51.30, 0.171567, , 
51.33, 0.171446, , 
51.36, 0.171269, , 
51.39, 0.171018, , 
51.42, 0.170634, , 
51.45, 0.170292, , 
51.48, 0.169965, , 
51.51, 0.169467, , 
51.54, 0.169086, , 
51.57, 0.168582, , 
51.60, 0.168157, , 
51.63, 0.167621, , 
51.66, 0.166910, , 
51.69, 0.166308, , 
51.72, 0.165575, , 
51.75, 0.165007, , 
51.78, 0.164265, , 
51.81, 0.163412, , 
51.84, 0.162670, , 
51.87, 0.161934, , 
51.90, 0.161042, , 
51.93, 0.160272, , 
51.96, 0.159479, , 
51.99, 0.158616, , 
52.02, 0.157743, , 
52.05, 0.156719, , 
52.08, 0.155882, , 
52.11, 0.154879, , 
52.14, 0.154032, , 
52.17, 0.153287, , 
52.20, 0.152453, , 
52.23, 0.151799, , 
52.26, 0.150933, , 
52.29, 0.149960, , 
52.32, 0.149154, , 
52.35, 0.148358, , 
52.38, 0.147596, , 
52.41, 0.146718, , 
52.44, 0.145938, , 
52.47, 0.145024, , 
52.50, 0.144294, , 
52.53, 0.143663, , 
52.56, 0.142807, , 
52.59, 0.142061, , 
52.62, 0.141249, , 
52.65, 0.140640, , 
52.68, 0.140035, , 
52.71, 0.139330, , 
52.74, 0.138988, , 
52.77, 0.138189, , 
52.80, 0.137703, , 
52.83, 0.137180, , 
52.86, 0.136622, , 
52.89, 0.136197, , 
52.92, 0.135756, , 
52.95, 0.135473, , 
52.98, 0.135178, , 
53.01, 0.134934, , 
53.04, 0.134709, , 
53.07, 0.134436, , 
53.10, 0.134290, , 
53.13, 0.134230, , 
53.16, 0.134201, , 
53.19, 0.134205, , 
53.22, 0.134316, , 
53.25, 0.134519, , 
53.28, 0.134737, , 
53.31, 0.134909, , 
53.34, 0.135188, , 
53.37, 0.135537, , 
53.40, 0.136009, , 
53.44, 0.136498, , 
53.46, 0.136980, , 
53.49, 0.137710, , 
53.52, 0.138319, , 
53.55, 0.139042, , 
53.58, 0.139749, , 
53.61, 0.140571, , 
53.64, 0.141376, , 
53.67, 0.142191, , 
53.70, 0.143340, , 
53.73, 0.144364, , 
53.76, 0.145373, , 
53.79, 0.146528, , 
53.82, 0.147581, , 
53.85, 0.148586, , 
53.88, 0.149585, , 
53.91, 0.150588, , 
53.94, 0.151790, , 
53.97, 0.152928, , 
54.00, 0.154178, , 
54.03, 0.155222, , 
54.06, 0.156110, , 
54.09, 0.157299, , 
54.12, 0.158251, , 
54.15, 0.159285, , 
54.18, 0.160180, , 
54.21, 0.161087, , 
54.24, 0.162133, , 
54.27, 0.162800, , 
54.30, 0.163612, , 
54.33, 0.164370, , 
54.36, 0.165074, , 
54.39, 0.165626, 17, 0.585
54.39, 0.165727, , 
54.42, 0.166419, , 
54.45, 0.167006, , 
54.48, 0.167446, , 
54.52, 0.167802, , 
54.54, 0.168128, , 
54.57, 0.168468, , 
54.60, 0.168734, , 
54.63, 0.168953, , 
54.66, 0.169172, , 
54.69, 0.169321, , 
54.72, 0.169365, , 
54.75, 0.169337, , 
54.78, 0.169248, , 
54.81, 0.169153, , 
54.84, 0.168931, , 
54.87, 0.168718, , 
54.90, 0.168484, , 
54.93, 0.168303, , 
54.96, 0.168040, , 
54.99, 0.167748, , 
55.02, 0.167440, , 
55.05, 0.167059, , 
55.08, 0.166641, , 
55.11, 0.166127, , 
55.14, 0.165708, , 
55.17, 0.165255, , 
55.20, 0.164795, , 
55.23, 0.164376, , 
55.26, 0.163862, , 
55.29, 0.163390, , 
55.32, 0.162825, , 
55.35, 0.162172, , 
55.38, 0.161639, , 
55.41, 0.160960, , 
55.44, 0.160446, , 
55.47, 0.159758, , 
55.50, 0.159180, , 
55.53, 0.158606, , 
55.56, 0.157937, , 
55.59, 0.157315, , 
55.63, 0.156649, , 
55.65, 0.156237, , 
55.68, 0.155704, , 
55.71, 0.155095, , 
55.74, 0.154660, , 
55.77, 0.154070, , 
55.80, 0.153547, , 
55.83, 0.153170, , 
55.86, 0.152722, , 
55.89, 0.152348, , 
55.92, 0.151910, , 
55.95, 0.151428, , 
55.98, 0.151101, , 
56.01, 0.150730, , 
56.04, 0.150496, , 
56.07, 0.150267, , 
56.10, 0.150131, , 
56.13, 0.149956, , 
56.16, 0.149776, , 
56.19, 0.149706, , 
56.22, 0.149674, , 
56.25, 0.149652, , 
56.28, 0.149715, , 
56.31, 0.149849, , 
56.34, 0.150020, , 
56.37, 0.150359, , 
56.40, 0.150581, , 
56.43, 0.150845, , 
56.46, 0.151146, , 
56.49, 0.151558, , 
56.52, 0.152126, , 
56.55, 0.152675, , 
56.58, 0.153230, , 
56.61, 0.153909, , 
56.64, 0.154480, , 
56.67, 0.155095, , 
56.70, 0.155856, , 
56.74, 0.156767, , 
56.76, 0.157379, , 
56.79, 0.158229, , 
56.82, 0.159006, , 
56.85, 0.159774, , 
56.88, 0.160712, , 
56.91, 0.161540, , 
56.94, 0.162438, , 
56.97, 0.163329, , 
57.00, 0.164151, , 
57.03, 0.165061, , 
57.06, 0.165832, , 
57.09, 0.166596, , 
57.12, 0.167412, , 
57.15, 0.168116, , 
57.19, 0.168975, , 
57.21, 0.169540, , 
57.24, 0.170174, , 
57.27, 0.170926, , 
57.30, 0.171494, , 
57.33, 0.172074, , 
57.36, 0.172455, , 
57.39, 0.173010, , 
57.42, 0.173502, , 
57.45, 0.173879, , 
57.48, 0.174177, , 
57.51, 0.174488, , 
57.54, 0.174739, , 
57.57, 0.175011, , 
57.59, 0.175107, 18, 0.586
57.60, 0.175161, , 
57.63, 0.175259, , 
57.66, 0.175367, , 
57.69, 0.175379, , 
57.72, 0.175364, , 
57.75, 0.175373, , 
57.78, 0.175332, , 
57.81, 0.175202, , 
57.84, 0.175031, , 
57.87, 0.174815, , 
57.90, 0.174634, , 
57.93, 0.174402, , 
57.96, 0.174146, , 
57.99, 0.173939, , 
58.02, 0.173749, , 
58.05, 0.173470, , 
58.08, 0.173200, , 
58.11, 0.172782, , 
58.14, 0.172404, , 
58.17, 0.171982, , 
58.20, 0.171671, , 
58.23, 0.171389, , 
58.26, 0.170999, , 
58.29, 0.170631, , 
58.32, 0.170206, , 
58.35, 0.169756, , 
58.38, 0.169445, , 
58.41, 0.169074, , 
58.44, 0.168696, , 
58.47, 0.168277, , 
58.50, 0.168008, , 
58.53, 0.167716, , 
58.56, 0.167424, , 
58.59, 0.167098, , 
58.62, 0.166837, , 
58.65, 0.166511, , 
58.68, 0.166263, , 
58.71, 0.166136, , 
58.75, 0.165991, , 
58.77, 0.165797, , 
58.80, 0.165629, , 
58.83, 0.165591, , 
58.86, 0.165585, , 
58.89, 0.165610, , 
58.92, 0.165718, , 
58.95, 0.165899, , 
58.98, 0.166108, , 
59.01, 0.166263, , 
59.04, 0.166501, , 
59.07, 0.166853, , 
59.10, 0.167288, , 
59.13, 0.167678, , 
59.16, 0.168097, , 
59.19, 0.168528, , 
59.22, 0.169061, , 
59.25, 0.169597, , 
59.28, 0.170263, , 
59.31, 0.170932, , 
59.34, 0.171560, , 
59.37, 0.172214, , 
59.40, 0.173051, , 
59.43, 0.173790, , 
59.46, 0.174637, , 
59.49, 0.175376, , 
59.52, 0.176027, , 
59.55, 0.176956, , 
59.58, 0.177692, , 
59.61, 0.178548, , 
59.64, 0.179271, , 
59.67, 0.180004, , 
59.70, 0.180813, , 
59.73, 0.181330, , 
59.76, 0.181993, , 
59.79, 0.182611, , 
59.82, 0.183236, , 
59.85, 0.183880, , 
59.88, 0.184410, , 
59.91, 0.184952, , 
59.94, 0.185377, , 
59.97, 0.185710, , 
60.00, 0.186012, , 
60.03, 0.186304, , 
60.06, 0.186541, , 
60.09, 0.186824, , 
60.12, 0.187027, , 
60.15, 0.187189, , 
60.18, 0.187217, , 
60.21, 0.187242, , 
60.24, 0.187312, , 
60.27, 0.187360, , 
60.30, 0.187334, , 
60.33, 0.187246, , 
60.36, 0.187116, , 
60.39, 0.187005, , 
60.42, 0.186798, , 
60.45, 0.186503, , 
60.48, 0.186291, , 
60.51, 0.186097, , 
60.54, 0.185866, , 
60.57, 0.185631, , 
60.60, 0.185412, , 
60.63, 0.185235, , 
60.66, 0.184997, , 
60.69, 0.184651, , 
60.72, 0.184369, , 
60.75, 0.184064, , 
60.78, 0.183801, , 
60.79, 0.183766, 19, 0.585
60.81, 0.183604, , 
60.84, 0.183360, , 
60.87, 0.183170, , 
60.90, 0.182973, , 
60.93, 0.182814, , 
60.96, 0.182637, , 
60.99, 0.182526, , 
61.02, 0.182440, , 
61.05, 0.182377, , 
61.08, 0.182380, , 
61.11, 0.182386, , 
61.14, 0.182358, , 
61.17, 0.182316, , 
61.20, 0.182351, , 
61.23, 0.182450, , 
61.26, 0.182586, , 
61.29, 0.182811, , 
61.32, 0.183160, , 
61.35, 0.183430, , 
61.38, 0.183791, , 
61.41, 0.184274, , 
61.44, 0.184724, , 
61.47, 0.185228, , 
61.50, 0.185625, , 
61.53, 0.186091, , 
61.56, 0.186643, , 
61.59, 0.187176, , 
61.62, 0.187782, , 
61.65, 0.188381, , 
61.68, 0.189028, , 
61.71, 0.189764, , 
61.74, 0.190354, , 
61.77, 0.191020, , 
61.80, 0.191696, , 
61.83, 0.192340, , 
61.86, 0.193060, , 
61.89, 0.193701, , 
61.92, 0.194506, , 
61.95, 0.195099, , 
61.98, 0.195556, , 
62.01, 0.196165, , 
62.04, 0.196660, , 
62.07, 0.197206, , 
62.10, 0.197656, , 
62.13, 0.198084, , 
62.16, 0.198608, , 
62.19, 0.199036, , 
62.22, 0.199366, , 
62.25, 0.199759, , 
62.28, 0.200089, , 
62.31, 0.200343, , 
62.34, 0.200463, , 
62.37, 0.200580, , 
62.40, 0.200663, , 
62.43, 0.200657, , 
62.46, 0.200644, , 
62.49, 0.200660, , 
62.52, 0.200701, , 
62.55, 0.200647, , 
62.58, 0.200520, , 
62.61, 0.200406, , 
62.64, 0.200339, , 
62.67, 0.200187, , 
62.70, 0.199946, , 
62.73, 0.199873, , 
62.76, 0.199797, , 
62.79, 0.199556, , 
62.82, 0.199296, , 
62.85, 0.199102, , 
62.88, 0.198944, , 
62.91, 0.198687, , 
62.94, 0.198430, , 
62.97, 0.198230, , 
63.00, 0.198075, , 
63.03, 0.197881, , 
63.06, 0.197675, , 
63.09, 0.197539, , 
63.12, 0.197443, , 
63.15, 0.197336, , 
63.18, 0.197272, , 
63.21, 0.197256, , 
63.24, 0.197282, , 
63.27, 0.197218, , 
63.30, 0.197196, , 
63.33, 0.197256, , 
63.37, 0.197364, , 
63.39, 0.197402, , 
63.42, 0.197586, , 
63.45, 0.197745, , 
63.48, 0.197907, , 
63.51, 0.198125, , 
63.55, 0.198389, , 
63.57, 0.198757, , 
63.60, 0.199125, , 
63.63, 0.199381, , 
63.66, 0.199670, , 
63.69, 0.200054, , 
63.72, 0.200438, , 
63.75, 0.200894, , 
63.78, 0.201320, , 
63.81, 0.201757, , 
63.84, 0.202113, , 
63.87, 0.202388, , 
63.90, 0.202785, , 
63.93, 0.203166, , 
63.96, 0.203565, , 
63.99, 0.203955, , 
64.00, 0.204016, 20, 0.587
64.02, 0.204450, , 
64.05, 0.204888, , 
64.08, 0.205275, , 
64.11, 0.205592, , 
64.14, 0.205852, , 
64.17, 0.206141, , 
64.20, 0.206318, , 
64.23, 0.206534, , 
64.26, 0.206785, , 
64.29, 0.206991, , 
64.32, 0.207127, , 
64.35, 0.207153, , 
64.38, 0.207283, , 
64.41, 0.207435, , 
64.44, 0.207473, , 
64.47, 0.207365, , 
64.50, 0.207343, , 
64.53, 0.207305, , 
64.56, 0.207238, , 
64.59, 0.207146, , 
64.62, 0.207007, , 
64.65, 0.206937, , 
64.68, 0.206753, , 
64.71, 0.206639, , 
64.74, 0.206442, , 
64.77, 0.206255, , 
64.80, 0.206024, , 
64.83, 0.205760, , 
64.86, 0.205554, , 
64.89, 0.205386, , 
64.92, 0.205126, , 
64.95, 0.204901, , 
64.98, 0.204783, , 
65.01, 0.204628, , 
65.04, 0.204469, , 
65.07, 0.204304, , 
65.10, 0.204193, , 
65.13, 0.204022, , 
65.16, 0.203863, , 
65.19, 0.203762, , 
65.22, 0.203708, , 
65.25, 0.203616, , 
65.28, 0.203391, , 
65.31, 0.203318, , 
65.34, 0.203299, , 
65.37, 0.203289, , 
65.40, 0.203273, , 
65.43, 0.203245, , 
65.46, 0.203264, , 
65.49, 0.203286, , 
65.52, 0.203264, , 
65.56, 0.203273, , 
65.58, 0.203381, , 
65.61, 0.203486, , 
65.64, 0.203584, , 
65.67, 0.203638, , 
65.70, 0.203718, , 
65.73, 0.203733, , 
65.76, 0.203711, , 
65.79, 0.203727, , 
65.82, 0.203752, , 
65.85, 0.203737, , 
65.88, 0.203708, , 
65.92, 0.203724, , 
65.94, 0.203752, , 
65.97, 0.203743, , 
66.00, 0.203657, , 
66.03, 0.203537, , 
66.06, 0.203442, , 
66.09, 0.203334, , 
66.12, 0.203229, , 
66.16, 0.203115, , 
66.18, 0.202988, , 
66.21, 0.202852, , 
66.24, 0.202655, , 
66.27, 0.202496, , 
66.30, 0.202328, , 
66.33, 0.202084, , 
66.36, 0.201878, , 
66.39, 0.201662, , 
66.42, 0.201431, , 
66.45, 0.201221, , 
66.48, 0.200948, , 
66.51, 0.200733, , 
66.54, 0.200552, , 
66.57, 0.200247, , 
66.60, 0.199994, , 
66.63, 0.199676, , 
66.66, 0.199435, , 
66.69, 0.199134, , 
66.72, 0.198769, , 
66.75, 0.198503, , 
66.78, 0.198198, , 
66.81, 0.198033, , 
66.84, 0.197776, , 
66.87, 0.197567, , 
66.90, 0.197339, , 
66.93, 0.197053, , 
66.96, 0.196831, , 
66.99, 0.196622, , 
67.02, 0.196428, , 
67.05, 0.196194, , 
67.08, 0.195978, , 
67.11, 0.195851, , 
67.14, 0.195705, , 
67.17, 0.195464, , 
67.19, 0.195328, 21, 0.584
67.20, 0.195226, , 
67.23, 0.195090, , 
67.26, 0.194957, , 
67.29, 0.194769, , 
67.32, 0.194557, , 
67.35, 0.194386, , 
67.38, 0.194138, , 
67.41, 0.193888, , 
67.44, 0.193685, , 
67.47, 0.193551, , 
67.50, 0.193390, , 
67.53, 0.193203, , 
67.56, 0.192984, , 
67.59, 0.192765, , 
67.62, 0.192486, , 
67.65, 0.192203, , 
67.68, 0.191896, , 
67.71, 0.191680, , 
67.74, 0.191429, , 
67.78, 0.191163, , 
67.80, 0.190966, , 
67.83, 0.190732, , 
67.86, 0.190506, , 
67.89, 0.190177, , 
67.92, 0.189885, , 
67.95, 0.189656, , 
67.98, 0.189406, , 
68.01, 0.189089, , 
68.04, 0.188724, , 
68.07, 0.188473, , 
68.10, 0.188267, , 
68.13, 0.187943, , 
68.16, 0.187702, , 
68.19, 0.187373, , 
68.22, 0.187109, , 
68.25, 0.186856, , 
68.28, 0.186576, , 
68.31, 0.186392, , 
68.34, 0.186167, , 
68.37, 0.185929, , 
68.40, 0.185590, , 
68.43, 0.185342, , 
68.46, 0.185019, , 
68.49, 0.184737, , 
68.52, 0.184508, , 
68.55, 0.184283, , 
68.58, 0.184077, , 
68.61, 0.183829, , 
68.64, 0.183585, , 
68.67, 0.183392, , 
68.70, 0.183135, , 
68.73, 0.182862, , 
68.76, 0.182599, , 
68.79, 0.182389, , 
68.82, 0.182113, , 
68.85, 0.181777, , 
68.88, 0.181574, , 
68.91, 0.181320, , 
68.94, 0.180949, , 
68.97, 0.180702, , 
69.00, 0.180413, , 
69.03, 0.180220, , 
69.06, 0.179966, , 
69.09, 0.179700, , 
69.12, 0.179493, , 
69.15, 0.179303, , 
69.18, 0.179056, , 
69.21, 0.178808, , 
69.24, 0.178599, , 
69.27, 0.178402, , 
69.30, 0.178091, , 
69.34, 0.177847, , 
69.36, 0.177670, , 
69.39, 0.177467, , 
69.42, 0.177153, , 
69.45, 0.176804, , 
69.48, 0.176566, , 
69.51, 0.176369, , 
69.54, 0.176090, , 
69.57, 0.175874, , 
69.60, 0.175643, , 
69.63, 0.175427, , 
69.66, 0.175157, , 
69.69, 0.174866, , 
69.72, 0.174609, , 
69.75, 0.174342, , 
69.78, 0.174003, , 
69.81, 0.173768, , 
69.84, 0.173575, , 
69.87, 0.173362, , 
69.90, 0.173121, , 
69.93, 0.172823, , 
69.96, 0.172636, , 
69.99, 0.172433, , 
70.02, 0.172195, , 
70.05, 0.171916, , 
70.08, 0.171741, , 
70.11, 0.171541, , 
70.14, 0.171231, , 
70.17, 0.170999, , 
70.20, 0.170793, , 
70.23, 0.170612, , 
70.26, 0.170317, , 
70.29, 0.170095, , 
70.32, 0.169905, , 
70.35, 0.169664, , 
70.38, 0.169404, , 
70.39, 0.169324, 22, 0.586
70.42, 0.169194, , 
70.44, 0.169007, , 
70.47, 0.168769, , 
70.50, 0.168474, , 
70.53, 0.168179, , 
70.56, 0.167925, , 
70.59, 0.167592, , 
70.62, 0.167326, , 
70.65, 0.167117, , 
70.68, 0.166895, , 
70.71, 0.166711, , 
70.74, 0.166476, , 
70.77, 0.166206, , 
70.80, 0.166032, , 
70.83, 0.165775, , 
70.86, 0.165604, , 
70.89, 0.165461, , 
70.92, 0.165258, , 
70.95, 0.165074, , 
70.98, 0.164814, , 
71.01, 0.164627, , 
71.04, 0.164427, , 
71.07, 0.164176, , 
71.10, 0.163960, , 
71.13, 0.163745, , 
71.16, 0.163640, , 
71.19, 0.163516, , 
71.22, 0.163209, , 
71.25, 0.163031, , 
71.28, 0.162825, , 
71.31, 0.162625, , 
71.34, 0.162381, , 
71.37, 0.162137, , 
71.40, 0.161934, , 
71.43, 0.161712, , 
71.46, 0.161385, , 
71.49, 0.161115, , 
71.52, 0.160839, , 
71.55, 0.160639, , 
71.58, 0.160398, , 
71.61, 0.160094, , 
71.64, 0.159885, , 
71.67, 0.159707, , 
71.70, 0.159498, , 
71.73, 0.159314, , 
71.76, 0.159168, , 
71.79, 0.158904, , 
71.82, 0.158679, , 
71.85, 0.158476, , 
71.88, 0.158295, , 
71.91, 0.158089, , 
71.94, 0.157835, , 
71.97, 0.157686, , 
72.00, 0.157515, , 
72.03, 0.157318, , 
72.06, 0.157141, , 
72.09, 0.156916, , 
72.12, 0.156747, , 
72.15, 0.156598, , 
72.18, 0.156373, , 
72.21, 0.156186, , 
72.24, 0.156012, , 
72.27, 0.155809, , 
72.30, 0.155533, , 
72.33, 0.155349, , 
72.36, 0.155162, , 
72.39, 0.154876, , 
72.42, 0.154657, , 
72.46, 0.154454, , 
72.48, 0.154277, , 
72.51, 0.153991, , 
72.54, 0.153639, , 
72.57, 0.153385, , 
72.60, 0.153125, , 
72.63, 0.152894, , 
72.66, 0.152599, , 
72.69, 0.152402, , 
72.72, 0.152155, , 
72.75, 0.151907, , 
72.79, 0.151682, , 
72.81, 0.151492, , 
72.84, 0.151343, , 
72.87, 0.151136, , 
72.90, 0.150975, , 
72.93, 0.150813, , 
72.96, 0.150584, , 
72.99, 0.150378, , 
73.02, 0.150112, , 
73.05, 0.149925, , 
73.08, 0.149718, , 
73.11, 0.149411, , 
73.14, 0.149220, , 
73.17, 0.149002, , 
73.20, 0.148811, , 
73.23, 0.148535, , 
73.26, 0.148297, , 
73.29, 0.148085, , 
73.32, 0.147885, , 
73.35, 0.147628, , 
73.38, 0.147371, , 
73.41, 0.147171, , 
73.44, 0.146937, , 
73.47, 0.146670, , 
73.50, 0.146445, , 
73.53, 0.146283, , 
73.56, 0.146052, , 
73.59, 0.145833, 23, 0.585
73.59, 0.145798, , 
73.62, 0.145668, , 
73.65, 0.145554, , 
73.68, 0.145351, , 
73.72, 0.145091, , 
73.74, 0.144907, , 
73.77, 0.144726, , 
73.80, 0.144450, , 
73.83, 0.144155, , 
73.86, 0.143952, , 
73.89, 0.143774, , 
73.92, 0.143549, , 
73.95, 0.143305, , 
73.98, 0.143076, , 
74.01, 0.142870, , 
74.04, 0.142575, , 
74.07, 0.142344, , 
74.10, 0.142176, , 
74.13, 0.141963, , 
74.16, 0.141792, , 
74.19, 0.141560, , 
74.22, 0.141383, , 
74.25, 0.141218, , 
74.28, 0.140967, , 
74.31, 0.140748, , 
74.34, 0.140533, , 
74.37, 0.140355, , 
74.40, 0.140200, , 
74.43, 0.139997, , 
74.46, 0.139825, , 
74.49, 0.139717, , 
74.52, 0.139549, , 
74.55, 0.139359, , 
74.58, 0.139245, , 
74.61, 0.139118, , 
74.64, 0.138924, , 
74.67, 0.138740, , 
74.70, 0.138642, , 
74.73, 0.138477, , 
74.76, 0.138315, , 
74.79, 0.138173, , 
74.82, 0.138017, , 
74.85, 0.137881, , 
74.88, 0.137722, , 
74.91, 0.137640, , 
74.94, 0.137576, , 
74.97, 0.137389, , 
75.00, 0.137256, , 
75.03, 0.137132, , 
75.06, 0.137040, , 
75.09, 0.136942, , 
75.12, 0.136796, , 
75.15, 0.136682, , 
75.19, 0.136530, , 
75.21, 0.136412, , 
75.24, 0.136206, , 
75.27, 0.135943, , 
75.30, 0.135800, , 
75.33, 0.135638, , 
75.36, 0.135448, , 
75.40, 0.135277, , 
75.42, 0.135102, , 
75.45, 0.134909, , 
75.48, 0.134620, , 
75.51, 0.134382, , 
75.54, 0.134224, , 
75.57, 0.133989, , 
75.60, 0.133805, , 
75.63, 0.133662, , 
75.66, 0.133507, , 
75.69, 0.133288, , 
75.72, 0.133031, , 
75.75, 0.132799, , 
75.78, 0.132584, , 
75.81, 0.132409, , 
75.84, 0.132235, , 
75.87, 0.132067, , 
75.90, 0.131927, , 
75.93, 0.131734, , 
75.96, 0.131470, , 
75.99, 0.131248, , 
76.02, 0.131087, , 
76.05, 0.130903, , 
76.08, 0.130687, , 
76.11, 0.130560, , 
76.14, 0.130357, , 
76.17, 0.130110, , 
76.20, 0.129913, , 
76.23, 0.129681, , 
76.26, 0.129497, , 
76.29, 0.129298, , 
76.32, 0.128993, , 
76.35, 0.128803, , 
76.38, 0.128609, , 
76.41, 0.128378, , 
76.44, 0.128073, , 
76.47, 0.127769, , 
76.50, 0.127528, , 
76.53, 0.127198, , 
76.56, 0.126988, , 
76.59, 0.126760, , 
76.62, 0.126490, , 
76.65, 0.126180, , 
76.68, 0.125843, , 
76.71, 0.125555, , 
76.74, 0.125282, , 
76.77, 0.124936, , 
76.78, 0.124841, 24, 0.585
76.80, 0.124632, , 
76.83, 0.124429, , 
76.86, 0.124232, , 
76.89, 0.123905, , 
76.92, 0.123547, , 
76.95, 0.123325, , 
76.98, 0.123071, , 
77.01, 0.122792, , 
77.04, 0.122598, , 
77.07, 0.122342, , 
77.10, 0.122161, , 
77.13, 0.121910, , 
77.16, 0.121644, , 
77.19, 0.121472, , 
77.22, 0.121235, , 
77.25, 0.120911, , 
77.28, 0.120587, , 
77.31, 0.120372, , 
77.34, 0.120150, , 
77.37, 0.119842, , 
77.40, 0.119588, , 
77.44, 0.119373, , 
77.46, 0.119179, , 
77.49, 0.118925, , 
77.52, 0.118681, , 
77.55, 0.118450, , 
77.58, 0.118262, , 
77.61, 0.117977, , 
77.64, 0.117758, , 
77.67, 0.117574, , 
77.70, 0.117304, , 
77.73, 0.117082, , 
77.76, 0.116892, , 
77.79, 0.116680, , 
77.82, 0.116499, , 
77.85, 0.116318, , 
77.88, 0.116156, , 
77.92, 0.115956, , 
77.94, 0.115744, , 
77.97, 0.115522, , 
78.00, 0.115322, , 
78.03, 0.115027, , 
78.06, 0.114764, , 
78.09, 0.114437, , 
78.12, 0.114161, , 
78.15, 0.113968, , 
78.18, 0.113650, , 
78.21, 0.113387, , 
78.24, 0.113079, , 
78.27, 0.112838, , 
78.30, 0.112509, , 
78.33, 0.112150, , 
78.36, 0.111890, , 
78.40, 0.111627, , 
78.42, 0.111541, , 
78.45, 0.111176, , 
78.48, 0.110815, , 
78.51, 0.110590, , 
78.54, 0.110269, , 
78.57, 0.110003, , 
78.60, 0.109768, , 
78.63, 0.109549, , 
78.66, 0.109289, , 
78.69, 0.108994, , 
78.72, 0.108699, , 
78.75, 0.108426, , 
78.78, 0.108112, , 
78.81, 0.107890, , 
78.84, 0.107684, , 
78.87, 0.107487, , 
78.90, 0.107319, , 
78.93, 0.106862, , 
78.96, 0.106606, , 
78.99, 0.106377, , 
79.02, 0.106104, , 
79.05, 0.105787, , 
79.08, 0.105521, , 
79.11, 0.105197, , 
79.14, 0.104969, , 
79.17, 0.104661, , 
79.20, 0.104312, , 
79.23, 0.104065, , 
79.26, 0.103722, , 
79.29, 0.103402, , 
79.32, 0.103148, , 
79.35, 0.102875, , 
79.38, 0.102561, , 
79.41, 0.102212, , 
79.44, 0.101971, , 
79.47, 0.101727, , 
79.50, 0.101419, , 
79.53, 0.101131, , 
79.56, 0.100871, , 
79.59, 0.100626, , 
79.62, 0.100335, , 
79.65, 0.100046, , 
79.68, 0.099846, , 
79.71, 0.099596, , 
79.75, 0.099323, , 
79.77, 0.099082, , 
79.80, 0.098796, , 
79.83, 0.098631, , 
79.86, 0.098200, , 
79.89, 0.097978, , 
79.92, 0.097781, , 
79.95, 0.097527, , 
79.98, 0.097290, , 
80.00, 0.097102, 25, 0.588
80.01, 0.096925, , 
80.04, 0.096703, , 
80.07, 0.096430, , 
80.10, 0.096129, , 
80.13, 0.095961, , 
80.16, 0.095719, , 
80.19, 0.095497, , 
80.22, 0.095212, , 
80.25, 0.094876, , 
80.28, 0.094625, , 
80.31, 0.094330, , 
80.34, 0.094054, , 
80.37, 0.093829, , 
80.40, 0.093629, , 
80.43, 0.093401, , 
80.46, 0.093150, , 
80.49, 0.092855, , 
80.52, 0.092620, , 
80.55, 0.092338, , 
80.58, 0.092024, , 
80.61, 0.091789, , 
80.64, 0.091542, , 
80.67, 0.091361, , 
80.70, 0.091142, , 
80.73, 0.090866, , 
80.76, 0.090641, , 
80.79, 0.090384, , 
80.82, 0.090134, , 
80.85, 0.089962, , 
80.88, 0.089763, , 
80.91, 0.089490, , 
80.94, 0.089185, , 
80.97, 0.088916, , 
81.00, 0.088678, , 
81.03, 0.088421, , 
81.06, 0.088123, , 
81.09, 0.087913, , 
81.12, 0.087625, , 
81.15, 0.087276, , 
81.18, 0.086984, , 
81.21, 0.086676, , 
81.24, 0.086419, , 
81.27, 0.086134, , 
81.30, 0.085826, , 
81.33, 0.085630, , 
81.36, 0.085306, , 
81.39, 0.085014, , 
81.42, 0.084770, , 
81.45, 0.084478, , 
81.48, 0.084262, , 
81.51, 0.083923, , 
81.54, 0.083619, , 
81.57, 0.083365, , 
81.60, 0.083070, , 
81.63, 0.082857, , 
81.66, 0.082543, , 
81.69, 0.082334, , 
81.72, 0.082125, , 
81.75, 0.081893, , 
81.78, 0.081655, , 
81.81, 0.081433, , 
81.84, 0.081224, , 
81.87, 0.080903, , 
81.90, 0.080615, , 
81.93, 0.080364, , 
81.96, 0.080133, , 
81.99, 0.079809, , 
82.02, 0.079552, , 
82.05, 0.079368, , 
82.08, 0.079143, , 
82.11, 0.078867, , 
82.14, 0.078528, , 
82.17, 0.078280, , 
82.20, 0.077972, , 
82.23, 0.077706, , 
82.26, 0.077513, , 
82.29, 0.077268, , 
82.32, 0.077056, , 
82.35, 0.076786, , 
82.38, 0.076561, , 
82.41, 0.076336, , 
82.44, 0.076006, , 
82.47, 0.075682, , 
82.50, 0.075454, , 
82.53, 0.075254, , 
82.56, 0.074991, , 
82.59, 0.074763, , 
82.62, 0.074594, , 
82.65, 0.074455, , 
82.68, 0.074245, , 
82.71, 0.074001, , 
82.74, 0.073833, , 
82.77, 0.073643, , 
82.80, 0.073430, , 
82.83, 0.073186, , 
82.86, 0.072907, , 
82.89, 0.072736, , 
82.92, 0.072504, , 
82.95, 0.072238, , 
82.98, 0.072047, , 
83.01, 0.071825, , 
83.04, 0.071648, , 
83.07, 0.071381, , 
83.10, 0.071150, , 
83.13, 0.070937, , 
83.16, 0.070690, , 
83.19, 0.070487, 26, 0.584
83.19, 0.070452, , 
83.22, 0.070262, , 
83.25, 0.070084, , 
83.28, 0.069852, , 
83.31, 0.069586, , 
83.34, 0.069370, , 
83.37, 0.069170, , 
83.41, 0.068936, , 
83.43, 0.068714, , 
83.46, 0.068479, , 
83.49, 0.068339, , 
83.52, 0.068133, , 
83.55, 0.067971, , 
83.58, 0.067803, , 
83.61, 0.067705, , 
83.64, 0.067515, , 
83.67, 0.067337, , 
83.70, 0.067223, , 
83.73, 0.067112, , 
83.76, 0.066858, , 
83.79, 0.066699, , 
83.82, 0.066642, , 
83.85, 0.066639, , 
83.88, 0.066569, , 
83.91, 0.066398, , 
83.94, 0.066268, , 
83.97, 0.066170, , 
84.00, 0.066075, , 
84.03, 0.066056, , 
84.06, 0.066040, , 
84.09, 0.066037, , 
84.12, 0.065932, , 
84.15, 0.065792, , 
84.18, 0.065713, , 
84.21, 0.065659, , 
84.24, 0.065611, , 
84.27, 0.065548, , 
84.30, 0.065542, , 
84.33, 0.065535, , 
84.36, 0.065516, , 
84.39, 0.065539, , 
84.42, 0.065548, , 
84.45, 0.065577, , 
84.49, 0.065542, , 
84.51, 0.065551, , 
84.54, 0.065577, , 
84.57, 0.065580, , 
84.60, 0.065548, , 
84.63, 0.065558, , 
84.66, 0.065589, , 
84.69, 0.065596, , 
84.72, 0.065561, , 
84.75, 0.065561, , 
84.78, 0.065602, , 
84.81, 0.065583, , 
84.84, 0.065545, , 
84.87, 0.065542, , 
84.90, 0.065589, , 
84.93, 0.065564, , 
84.96, 0.065447, , 
84.99, 0.065320, , 
85.02, 0.065224, , 
85.05, 0.065205, , 
85.08, 0.065145, , 
85.11, 0.065113, , 
85.14, 0.065129, , 
85.17, 0.065107, , 
85.20, 0.065018, , 
85.23, 0.064926, , 
85.26, 0.064818, , 
85.29, 0.064733, , 
85.32, 0.064669, , 
85.35, 0.064657, , 
85.38, 0.064682, , 
85.41, 0.064666, , 
85.44, 0.064641, , 
85.47, 0.064657, , 
85.50, 0.064654, , 
85.53, 0.064628, , 
85.56, 0.064600, , 
85.59, 0.064609, , 
85.62, 0.064622, , 
85.65, 0.064647, , 
85.68, 0.064638, , 
85.71, 0.064628, , 
85.74, 0.064647, , 
85.77, 0.064644, , 
85.80, 0.064615, , 
85.83, 0.064615, , 
85.86, 0.064638, , 
85.89, 0.064622, , 
85.92, 0.064581, , 
85.95, 0.064590, , 
85.98, 0.064625, , 
86.01, 0.064596, , 
86.04, 0.064565, , 
86.07, 0.064482, , 
86.11, 0.064374, , 
86.13, 0.064260, , 
86.16, 0.064181, , 
86.19, 0.064165, , 
86.22, 0.064235, , 
86.25, 0.064336, , 
86.28, 0.064444, , 
86.31, 0.064549, , 
86.34, 0.064596, , 
86.37, 0.064596, , 
86.38, 0.064590, 27, 0.585
86.40, 0.064600, , 
86.43, 0.064647, , 
86.46, 0.064647, , 
86.49, 0.064641, , 
86.52, 0.064615, , 
86.55, 0.064631, , 
86.58, 0.064647, , 
86.61, 0.064638, , 
86.64, 0.064587, , 
86.67, 0.064609, , 
86.70, 0.064641, , 
86.73, 0.064631, , 
86.76, 0.064606, , 
86.79, 0.064644, , 
86.82, 0.064733, , 
86.85, 0.064822, , 
86.88, 0.064930, , 
86.91, 0.065018, , 
86.94, 0.065075, , 
86.97, 0.065066, , 
87.00, 0.065098, , 
87.03, 0.065139, , 
87.06, 0.065155, , 
87.10, 0.065145, , 
87.12, 0.065085, , 
87.15, 0.065110, , 
87.18, 0.065120, , 
87.21, 0.065129, , 
87.24, 0.065117, , 
87.27, 0.065183, , 
87.30, 0.065307, , 
87.33, 0.065412, , 
87.36, 0.065504, , 
87.39, 0.065586, , 
87.42, 0.065605, , 
87.45, 0.065599, , 
87.48, 0.065564, , 
87.51, 0.065599, , 
87.54, 0.065729, , 
87.58, 0.065814, , 
87.60, 0.065910, , 
87.63, 0.066005, , 
87.66, 0.066081, , 
87.69, 0.066071, , 
87.72, 0.066084, , 
87.75, 0.066094, , 
87.78, 0.066106, , 
87.81, 0.066078, , 
87.84, 0.066075, , 
87.87, 0.066113, , 
87.90, 0.066106, , 
87.93, 0.066040, , 
87.96, 0.065989, , 
87.99, 0.065900, , 
88.02, 0.065776, , 
88.05, 0.065684, , 
88.08, 0.065656, , 
88.11, 0.065688, , 
88.15, 0.065776, , 
88.17, 0.065878, , 
88.20, 0.066138, , 
88.23, 0.066471, , 
88.26, 0.066994, , 
88.29, 0.067591, , 
88.32, 0.068235, , 
88.36, 0.068958, , 
88.38, 0.069418, , 
88.41, 0.069932, , 
88.44, 0.070455, , 
88.47, 0.071045, , 
88.50, 0.071632, , 
88.53, 0.072149, , 
88.56, 0.072799, , 
88.59, 0.073322, , 
88.62, 0.073795, , 
88.65, 0.074071, , 
88.68, 0.074356, , 
88.71, 0.075108, , 
88.74, 0.078404, , 
88.77, 0.087022, , 
88.80, 0.095672, , 
88.83, 0.103744, , 
88.86, 0.115021, , 
88.89, 0.126808, , 
88.92, 0.137250, , 
88.95, 0.144421, , 
88.98, 0.148656, , 
89.01, 0.151339, , 
89.04, 0.152472, , 
89.07, 0.152745, , 
89.10, 0.152227, , 
89.13, 0.151479, , 
89.16, 0.150619, , 
89.19, 0.149769, , 
89.22, 0.148624, , 
89.25, 0.145341, , 
89.28, 0.138449, , 
89.31, 0.127077, , 
89.34, 0.117454, , 
89.37, 0.109118, , 
89.40, 0.094774, , 
89.43, 0.081744, , 
89.46, 0.069982, , 
89.49, 0.063464, , 
89.52, 0.059236, , 
89.55, 0.055962, , 
89.58, 0.054475, , 
89.61, 0.053292, , 
89.64, 0.052724, , 
89.67, 0.052356, , 
89.70, 0.052080, , 
89.73, 0.052045, , 
89.76, 0.052124, , 
89.79, 0.052201, , 
89.82, 0.052229, , 
89.85, 0.052286, , 
89.88, 0.052448, , 
89.91, 0.052613, , 
89.94, 0.052660, , 
89.97, 0.052721, , 
90.00, 0.052768, , 
90.03, 0.052791, , 
90.06, 0.052771, , 
90.09, 0.052749, , 
90.12, 0.052775, , 
90.15, 0.052794, , 
90.18, 0.052800, , 
90.21, 0.052971, , 
90.24, 0.053114, , 
90.27, 0.053327, , 
90.30, 0.053453, , 
90.33, 0.053599, , 
90.36, 0.053650, , 
90.39, 0.053685, , 
90.42, 0.053720, , 
90.45, 0.053799, , 
90.49, 0.054028, , 
90.51, 0.054231, , 
90.54, 0.054456, , 
90.57, 0.054751, , 
90.60, 0.054998, , 
90.63, 0.055208, , 
90.66, 0.055420, , 
90.69, 0.055712, , 
90.72, 0.056026, , 
90.75, 0.056334, , 
90.78, 0.056473, , 
90.81, 0.056590, , 
90.84, 0.056721, , 
90.87, 0.056920, , 
90.90, 0.057199, , 
90.93, 0.057450, , 
90.96, 0.057704, , 
90.99, 0.057961, , 
91.03, 0.058046, , 
91.05, 0.058110, , 
91.08, 0.058186, , 
91.11, 0.058195, , 
91.14, 0.058126, , 
91.17, 0.058135, , 
91.20, 0.058151, , 
91.23, 0.058148, , 
91.26, 0.058142, , 
91.29, 0.058129, , 
91.32, 0.058151, , 
91.35, 0.058138, , 
91.38, 0.058097, , 
91.41, 0.058119, , 
91.44, 0.058129, , 
91.47, 0.058142, , 
91.50, 0.058110, , 
91.53, 0.058094, , 
91.56, 0.058126, , 
91.59, 0.058138, , 
91.62, 0.058116, , 
91.65, 0.058186, , 
91.68, 0.058341, , 
91.71, 0.058440, , 
91.74, 0.058541, , 
91.77, 0.058706, , 
91.80, 0.058909, , 
91.83, 0.059134, , 
91.86, 0.059211, , 
91.89, 0.059153, , 
91.93, 0.059004, , 
91.95, 0.058881, , 
91.98, 0.058754, , 
92.01, 0.058703, , 
92.04, 0.058722, , 
92.07, 0.058681, , 
92.10, 0.058674, , 
92.13, 0.058792, , 
92.16, 0.058950, , 
92.19, 0.059039, , 
92.22, 0.059080, , 
92.25, 0.059144, , 
92.28, 0.059115, , 
92.31, 0.058862, , 
92.34, 0.058589, , 
92.37, 0.058326, , 
92.40, 0.058221, , 
92.43, 0.058297, , 
92.46, 0.058532, , 
92.49, 0.058782, , 
92.52, 0.059115, , 
92.55, 0.059331, , 
92.58, 0.059439, , 
92.61, 0.059496, , 
92.64, 0.059455, , 
92.67, 0.059312, , 
92.70, 0.059185, , 
92.73, 0.059233, , 
92.76, 0.059356, , 
92.79, 0.059426, , 
92.82, 0.059921, , 
92.85, 0.060536, , 
92.88, 0.060949, , 
92.91, 0.061282, , 
92.94, 0.061586, , 
92.97, 0.061796, , 
93.00, 0.061767, , 
93.03, 0.061548, , 
93.06, 0.061323, , 
93.09, 0.061171, , 
93.12, 0.061076, , 
93.15, 0.061050, , 
93.18, 0.061091, , 
93.21, 0.061117, , 
93.24, 0.061142, , 
93.27, 0.061031, , 
93.30, 0.060854, , 
93.33, 0.060540, , 
93.36, 0.060026, , 
93.39, 0.059658, , 
93.42, 0.059394, , 
93.45, 0.059150, , 
93.48, 0.058874, , 
93.51, 0.058760, , 
93.54, 0.058811, , 
93.57, 0.058992, , 
93.60, 0.059058, , 
93.63, 0.059004, , 
93.66, 0.058922, , 
93.69, 0.058824, , 
93.72, 0.058732, , 
93.75, 0.058671, , 
93.78, 0.058614, , 
93.81, 0.058535, , 
93.84, 0.058386, , 
93.87, 0.058243, , 
93.90, 0.058186, , 
93.93, 0.058104, , 
93.96, 0.057913, , 
93.99, 0.057783, , 
94.02, 0.057697, , 
94.05, 0.057653, , 
94.08, 0.057517, , 
94.11, 0.057285, , 
94.14, 0.057228, , 
94.17, 0.057171, , 
94.20, 0.056990, , 
94.23, 0.056857, , 
94.26, 0.056733, , 
94.29, 0.056708, , 
94.32, 0.056702, , 
94.35, 0.056632, , 
94.38, 0.056578, , 
94.41, 0.056432, , 
94.44, 0.056349, , 
94.47, 0.056248, , 
94.50, 0.056213, , 
94.53, 0.056169, , 
94.56, 0.056016, , 
94.59, 0.055880, , 
94.62, 0.055820, , 
94.65, 0.055826, , 
94.68, 0.055744, , 
94.71, 0.055680, , 
94.74, 0.055693, , 
94.77, 0.055642, , 
94.80, 0.055477, , 
94.83, 0.055350, , 
94.86, 0.055293, , 
94.89, 0.055277, , 
94.92, 0.055214, , 
94.95, 0.055154, , 
94.98, 0.055141, , 
95.01, 0.055179, , 
95.04, 0.055071, , 
95.07, 0.054919, , 
95.10, 0.054786, , 
95.13, 0.054732, , 
95.16, 0.054659, , 
95.19, 0.054646, , 
95.22, 0.054668, , 
95.25, 0.054630, , 
95.28, 0.054640, , 
95.31, 0.054608, , 
95.34, 0.054640, , 
95.37, 0.054665, , 
95.40, 0.054646, , 
95.43, 0.054633, , 
95.46, 0.054637, , 
95.49, 0.054643, , 
95.52, 0.054643, , 
95.55, 0.054611, , 
95.58, 0.054633, , 
95.61, 0.054659, , 
95.64, 0.054643, , 
95.67, 0.054624, , 
95.70, 0.054643, , 
95.73, 0.054633, , 
95.76, 0.054611, , 
95.79, 0.054608, , 
95.82, 0.054643, , 
95.85, 0.054630, , 
95.88, 0.054611, , 
95.91, 0.054618, , 
95.94, 0.054589, , 
95.97, 0.054516, , 
96.00, 0.054380, , 
