Gradient Profiler Text Data File: 3-C3_eIF3b_DMSO_061825.csv
Date: 2025-06-18
Time: 14:45:49

User: Karen
Experiment name: 
UV Unit: EM-1
Rotor Manufacturer: Beckman
Rotor Model: SW28.1
Speed: 28 rpm
Gradient: sucrose 10.0% to 50.0% w/v
Time: 4
w2t:  x 10^0
Sample Volume: 18 ml
Number of Tubes: 6
Volume per mm: 0.183 ml/mm

Absorbance Units Full Scale (AUFS): 2.00
Event Mark-triggered gradient; (with distance; auto start and stop)
Delay: No Delay
UV Wavelength: 254 nm
Samples / sec: 10 Hz
EM1 Speed: 0.30 mm/sec
Distance: 3.20 mm
Number: 30
Dead Volume: 0.000000 ml; Distance due to Dead Volume: 0.00 mm
Total Distance: 96.00 mm

Data Columns:
Distance(mm), Absorbance, Fraction Number, Fraction Volume(ml)
0.00, 0.080098, 0, 0.000
0.03, 0.080069, , 
0.06, 0.080056, , 
0.09, 0.080110, , 
0.12, 0.080091, , 
0.15, 0.080060, , 
0.18, 0.080072, , 
0.21, 0.080088, , 
0.24, 0.080088, , 
0.27, 0.080031, , 
0.30, 0.080063, , 
0.33, 0.080107, , 
0.36, 0.080047, , 
0.39, 0.080028, , 
0.42, 0.080082, , 
0.45, 0.080095, , 
0.48, 0.080063, , 
0.51, 0.080155, , 
0.54, 0.080573, , 
0.57, 0.082001, , 
0.60, 0.086543, , 
0.63, 0.099494, , 
0.66, 0.135848, , 
0.69, 0.190747, , 
0.72, 0.264692, , 
0.75, 0.367113, , 
0.78, 0.463077, , 
0.81, 0.563218, , 
0.84, 0.665488, , 
0.87, 0.769223, , 
0.90, 0.891142, , 
0.93, 0.996051, , 
0.96, 1.118884, , 
0.99, 1.224243, , 
1.02, 1.312277, , 
1.05, 1.435383, , 
1.08, 1.540621, , 
1.11, 1.661618, , 
1.14, 1.760221, , 
1.17, 1.847677, , 
1.20, 1.925605, , 
1.23, 1.963520, , 
1.26, 1.996616, , 
1.29, 2.012272, , 
1.32, 2.020989, , 
1.35, 2.026295, , 
1.38, 2.028769, , 
1.41, 2.030324, , 
1.44, 2.030911, , 
1.47, 2.031418, , 
1.50, 2.031849, , 
1.53, 2.032087, , 
1.56, 2.032303, , 
1.59, 2.032446, , 
1.62, 2.032630, , 
1.65, 2.032744, , 
1.68, 2.032788, , 
1.71, 2.032877, , 
1.74, 2.032966, , 
1.77, 2.032966, , 
1.80, 2.032979, , 
1.83, 2.033023, , 
1.86, 2.033112, , 
1.89, 2.033163, , 
1.92, 2.033197, , 
1.95, 2.033305, , 
1.98, 2.033340, , 
2.01, 2.033308, , 
2.04, 2.033318, , 
2.07, 2.033375, , 
2.10, 2.033439, , 
2.13, 2.033359, , 
2.16, 2.033404, , 
2.19, 2.033458, , 
2.22, 2.033489, , 
2.25, 2.033505, , 
2.28, 2.033511, , 
2.31, 2.033550, , 
2.34, 2.033594, , 
2.37, 2.033569, , 
2.40, 2.033559, , 
2.43, 2.033676, , 
2.46, 2.033676, , 
2.49, 2.033651, , 
2.52, 2.033676, , 
2.55, 2.033765, , 
2.58, 2.033775, , 
2.61, 2.033787, , 
2.64, 2.033810, , 
2.67, 2.033810, , 
2.70, 2.033810, , 
2.73, 2.033797, , 
2.76, 2.033787, , 
2.79, 2.033835, , 
2.82, 2.033835, , 
2.85, 2.033826, , 
2.88, 2.033816, , 
2.91, 2.033851, , 
2.94, 2.033886, , 
2.97, 2.033857, , 
3.00, 2.033895, , 
3.03, 2.033946, , 
3.06, 2.033911, , 
3.09, 2.033886, , 
3.12, 2.033886, , 
3.15, 2.033924, , 
3.18, 2.033898, , 
3.19, 2.033889, 1, 0.583
3.21, 2.033889, , 
3.24, 2.033940, , 
3.27, 2.033968, , 
3.30, 2.033937, , 
3.33, 2.033905, , 
3.36, 2.033914, , 
3.39, 2.033940, , 
3.42, 2.033946, , 
3.45, 2.033914, , 
3.48, 2.034006, , 
3.51, 2.033952, , 
3.54, 2.033908, , 
3.57, 2.033892, , 
3.60, 2.033683, , 
3.63, 2.032931, , 
3.66, 2.031681, , 
3.69, 2.029600, , 
3.72, 2.026004, , 
3.75, 2.021864, , 
3.78, 2.016722, , 
3.81, 2.010613, , 
3.84, 2.003616, , 
3.87, 1.994218, , 
3.90, 1.985111, , 
3.93, 1.973315, , 
3.96, 1.962441, , 
3.99, 1.952745, , 
4.02, 1.938176, , 
4.05, 1.924689, , 
4.08, 1.907805, , 
4.11, 1.892398, , 
4.14, 1.876139, , 
4.17, 1.859423, , 
4.20, 1.842383, , 
4.23, 1.822223, , 
4.26, 1.801938, , 
4.30, 1.784575, , 
4.32, 1.770111, , 
4.35, 1.749801, , 
4.38, 1.732308, , 
4.41, 1.714830, , 
4.44, 1.694587, , 
4.47, 1.677265, , 
4.50, 1.657022, , 
4.53, 1.642656, , 
4.56, 1.625483, , 
4.59, 1.605446, , 
4.62, 1.588410, , 
4.65, 1.568645, , 
4.68, 1.551764, , 
4.71, 1.534848, , 
4.74, 1.517860, , 
4.77, 1.500896, , 
4.80, 1.481268, , 
4.83, 1.464609, , 
4.86, 1.448159, , 
4.89, 1.429340, , 
4.92, 1.413278, , 
4.95, 1.397282, , 
4.98, 1.381419, , 
5.01, 1.365762, , 
5.04, 1.347692, , 
5.07, 1.332213, , 
5.10, 1.314104, , 
5.13, 1.301172, , 
5.16, 1.285687, , 
5.19, 1.267714, , 
5.22, 1.252511, , 
5.25, 1.237559, , 
5.28, 1.220361, , 
5.31, 1.205738, , 
5.34, 1.191280, , 
5.37, 1.174650, , 
5.40, 1.160678, , 
5.43, 1.146934, , 
5.46, 1.133440, , 
5.49, 1.120124, , 
5.52, 1.104702, , 
5.55, 1.091593, , 
5.58, 1.078870, , 
5.61, 1.064209, , 
5.64, 1.051753, , 
5.67, 1.039392, , 
5.70, 1.027107, , 
5.73, 1.014972, , 
5.76, 1.000952, , 
5.79, 0.989050, , 
5.82, 0.975379, , 
5.85, 0.963913, , 
5.88, 0.952513, , 
5.92, 0.939311, , 
5.94, 0.930008, , 
5.97, 0.918897, , 
6.00, 0.905901, , 
6.03, 0.894768, , 
6.06, 0.881776, , 
6.09, 0.870639, , 
6.13, 0.859585, , 
6.15, 0.848673, , 
6.18, 0.837997, , 
6.21, 0.825918, , 
6.24, 0.815863, , 
6.27, 0.805992, , 
6.30, 0.794817, , 
6.33, 0.787008, , 
6.36, 0.776080, , 
6.38, 0.769889, 2, 0.585
6.39, 0.766783, , 
6.42, 0.757607, , 
6.45, 0.748605, , 
6.48, 0.738211, , 
6.51, 0.729491, , 
6.54, 0.721035, , 
6.57, 0.711284, , 
6.60, 0.702926, , 
6.63, 0.694540, , 
6.66, 0.686153, , 
6.69, 0.677887, , 
6.72, 0.668371, , 
6.75, 0.660295, , 
6.78, 0.651036, , 
6.81, 0.643214, , 
6.84, 0.636747, , 
6.87, 0.627783, , 
6.90, 0.620342, , 
6.93, 0.611758, , 
6.96, 0.604311, , 
6.99, 0.595502, , 
7.02, 0.587909, , 
7.05, 0.580318, , 
7.08, 0.574057, , 
7.11, 0.565581, , 
7.14, 0.558597, , 
7.17, 0.550645, , 
7.20, 0.544006, , 
7.23, 0.536511, , 
7.26, 0.530151, , 
7.29, 0.524879, , 
7.32, 0.517584, , 
7.35, 0.511436, , 
7.38, 0.504309, , 
7.41, 0.498235, , 
7.44, 0.492275, , 
7.47, 0.485503, , 
7.50, 0.480796, , 
7.53, 0.474236, , 
7.56, 0.468710, , 
7.59, 0.463166, , 
7.62, 0.456740, , 
7.65, 0.451281, , 
7.69, 0.445003, , 
7.71, 0.440575, , 
7.74, 0.435272, , 
7.77, 0.429115, , 
7.80, 0.423897, , 
7.83, 0.417848, , 
7.86, 0.412751, , 
7.89, 0.408571, , 
7.92, 0.402779, , 
7.95, 0.397796, , 
7.98, 0.392841, , 
8.01, 0.387046, , 
8.04, 0.382053, , 
8.07, 0.376401, , 
8.10, 0.372477, , 
8.13, 0.367875, , 
8.16, 0.362695, , 
8.19, 0.358324, , 
8.22, 0.353255, , 
8.25, 0.348846, , 
8.28, 0.344536, , 
8.31, 0.340447, , 
8.34, 0.336492, , 
8.37, 0.331892, , 
8.40, 0.327959, , 
8.43, 0.324108, , 
8.46, 0.319699, , 
8.49, 0.316004, , 
8.52, 0.312410, , 
8.55, 0.308877, , 
8.58, 0.305346, , 
8.61, 0.301261, , 
8.64, 0.297794, , 
8.67, 0.293937, , 
8.70, 0.290708, , 
8.73, 0.287974, , 
8.76, 0.284301, , 
8.79, 0.281255, , 
8.82, 0.277750, , 
8.85, 0.274667, , 
8.88, 0.271591, , 
8.91, 0.268159, , 
8.94, 0.265745, , 
8.97, 0.262281, , 
9.00, 0.259360, , 
9.03, 0.256527, , 
9.06, 0.253314, , 
9.09, 0.250596, , 
9.13, 0.247570, , 
9.15, 0.245482, , 
9.18, 0.242999, , 
9.21, 0.240112, , 
9.24, 0.237629, , 
9.27, 0.234764, , 
9.30, 0.232322, , 
9.33, 0.230340, , 
9.36, 0.227723, , 
9.39, 0.225582, , 
9.42, 0.223514, , 
9.45, 0.221150, , 
9.48, 0.218822, , 
9.51, 0.217167, , 
9.54, 0.215203, , 
9.57, 0.212910, , 
9.59, 0.211958, 3, 0.586
9.60, 0.211035, , 
9.63, 0.208942, , 
9.66, 0.207172, , 
9.69, 0.205440, , 
9.72, 0.203803, , 
9.75, 0.202189, , 
9.78, 0.200270, , 
9.81, 0.198601, , 
9.84, 0.197015, , 
9.87, 0.195115, , 
9.90, 0.193713, , 
9.93, 0.191804, , 
9.96, 0.190249, , 
9.99, 0.188730, , 
10.02, 0.186986, , 
10.05, 0.185454, , 
10.08, 0.183988, , 
10.11, 0.182561, , 
10.14, 0.180870, , 
10.17, 0.179386, , 
10.20, 0.177942, , 
10.23, 0.176322, , 
10.26, 0.174907, , 
10.29, 0.173546, , 
10.32, 0.172246, , 
10.35, 0.170948, , 
10.38, 0.169404, , 
10.41, 0.168138, , 
10.44, 0.166774, , 
10.47, 0.165800, , 
10.50, 0.164576, , 
10.53, 0.163104, , 
10.56, 0.161997, , 
10.59, 0.160811, , 
10.62, 0.159789, , 
10.65, 0.158730, , 
10.68, 0.157702, , 
10.71, 0.156649, , 
10.74, 0.155415, , 
10.77, 0.154375, , 
10.80, 0.153423, , 
10.83, 0.152516, , 
10.86, 0.151419, , 
10.89, 0.150496, , 
10.92, 0.149433, , 
10.95, 0.148561, , 
10.98, 0.147831, , 
11.01, 0.146816, , 
11.04, 0.146004, , 
11.07, 0.145198, , 
11.10, 0.144231, , 
11.13, 0.143482, , 
11.16, 0.142807, , 
11.19, 0.142027, , 
11.22, 0.141265, , 
11.25, 0.140533, , 
11.28, 0.139825, , 
11.31, 0.139137, , 
11.34, 0.138350, , 
11.37, 0.137773, , 
11.40, 0.137215, , 
11.43, 0.136698, , 
11.46, 0.136231, , 
11.49, 0.135540, , 
11.52, 0.135026, , 
11.55, 0.134427, , 
11.58, 0.133935, , 
11.61, 0.133453, , 
11.64, 0.132977, , 
11.67, 0.132625, , 
11.70, 0.132102, , 
11.73, 0.131651, , 
11.76, 0.131245, , 
11.79, 0.130814, , 
11.82, 0.130224, , 
11.85, 0.129805, , 
11.88, 0.129351, , 
11.91, 0.128942, , 
11.94, 0.128619, , 
11.97, 0.128314, , 
12.00, 0.128029, , 
12.03, 0.127651, , 
12.06, 0.127331, , 
12.09, 0.127071, , 
12.13, 0.126766, , 
12.15, 0.126509, , 
12.18, 0.126202, , 
12.21, 0.125948, , 
12.24, 0.125774, , 
12.27, 0.125574, , 
12.30, 0.125383, , 
12.33, 0.125206, , 
12.36, 0.125050, , 
12.39, 0.124879, , 
12.42, 0.124708, , 
12.45, 0.124597, , 
12.48, 0.124508, , 
12.51, 0.124261, , 
12.54, 0.124077, , 
12.57, 0.123912, , 
12.60, 0.123677, , 
12.63, 0.123499, , 
12.66, 0.123341, , 
12.69, 0.123214, , 
12.72, 0.123030, , 
12.75, 0.122760, , 
12.78, 0.122554, 4, 0.585
12.79, 0.122519, , 
12.81, 0.122348, , 
12.84, 0.122119, , 
12.87, 0.121885, , 
12.90, 0.121650, , 
12.93, 0.121558, , 
12.96, 0.121371, , 
12.99, 0.121158, , 
13.02, 0.120971, , 
13.05, 0.120806, , 
13.08, 0.120629, , 
13.11, 0.120413, , 
13.14, 0.120235, , 
13.17, 0.120115, , 
13.21, 0.119991, , 
13.23, 0.119836, , 
13.26, 0.119617, , 
13.29, 0.119480, , 
13.32, 0.119341, , 
13.35, 0.119097, , 
13.38, 0.118795, , 
13.42, 0.118554, , 
13.44, 0.118370, , 
13.47, 0.118069, , 
13.50, 0.117853, , 
13.53, 0.117657, , 
13.56, 0.117381, , 
13.59, 0.117022, , 
13.62, 0.116648, , 
13.65, 0.116305, , 
13.68, 0.115909, , 
13.71, 0.115357, , 
13.74, 0.114922, , 
13.77, 0.114535, , 
13.80, 0.114129, , 
13.83, 0.113577, , 
13.86, 0.113156, , 
13.89, 0.112661, , 
13.92, 0.112210, , 
13.95, 0.111817, , 
13.98, 0.111316, , 
14.01, 0.110926, , 
14.04, 0.110352, , 
14.07, 0.109914, , 
14.10, 0.109505, , 
14.13, 0.109026, , 
14.16, 0.108658, , 
14.19, 0.108096, , 
14.22, 0.107659, , 
14.25, 0.107110, , 
14.28, 0.106463, , 
14.31, 0.105946, , 
14.34, 0.105435, , 
14.37, 0.104972, , 
14.40, 0.104537, , 
14.43, 0.103973, , 
14.46, 0.103551, , 
14.49, 0.103024, , 
14.52, 0.102568, , 
14.55, 0.102117, , 
14.58, 0.101664, , 
14.61, 0.101067, , 
14.64, 0.100474, , 
14.67, 0.099932, , 
14.70, 0.099478, , 
14.73, 0.099040, , 
14.76, 0.098514, , 
14.79, 0.098025, , 
14.82, 0.097550, , 
14.85, 0.097179, , 
14.88, 0.096700, , 
14.91, 0.096037, , 
14.94, 0.095482, , 
14.97, 0.094955, , 
15.00, 0.094356, , 
15.03, 0.093883, , 
15.06, 0.093452, , 
15.09, 0.093020, , 
15.12, 0.092490, , 
15.15, 0.092116, , 
15.18, 0.091780, , 
15.21, 0.091409, , 
15.24, 0.091092, , 
15.27, 0.090686, , 
15.30, 0.090387, , 
15.33, 0.090054, , 
15.36, 0.089718, , 
15.39, 0.089423, , 
15.42, 0.089125, , 
15.45, 0.088868, , 
15.48, 0.088497, , 
15.51, 0.088199, , 
15.54, 0.087945, , 
15.57, 0.087587, , 
15.60, 0.087269, , 
15.63, 0.086946, , 
15.66, 0.086702, , 
15.69, 0.086410, , 
15.72, 0.086131, , 
15.75, 0.085848, , 
15.78, 0.085630, , 
15.81, 0.085325, , 
15.84, 0.084995, , 
15.87, 0.084735, , 
15.90, 0.084516, , 
15.93, 0.084253, , 
15.96, 0.083955, , 
15.99, 0.083774, 5, 0.588
16.00, 0.083742, , 
16.02, 0.083587, , 
16.05, 0.083311, , 
16.08, 0.083143, , 
16.11, 0.083010, , 
16.14, 0.082870, , 
16.17, 0.082737, , 
16.20, 0.082540, , 
16.23, 0.082369, , 
16.26, 0.082201, , 
16.29, 0.082093, , 
16.32, 0.082001, , 
16.35, 0.081858, , 
16.38, 0.081741, , 
16.41, 0.081598, , 
16.44, 0.081487, , 
16.47, 0.081420, , 
16.50, 0.081278, , 
16.53, 0.081122, , 
16.56, 0.081024, , 
16.59, 0.081005, , 
16.62, 0.080951, , 
16.65, 0.080789, , 
16.68, 0.080608, , 
16.71, 0.080529, , 
16.74, 0.080504, , 
16.77, 0.080453, , 
16.80, 0.080434, , 
16.83, 0.080431, , 
16.86, 0.080380, , 
16.89, 0.080218, , 
16.92, 0.080104, , 
16.95, 0.080031, , 
16.98, 0.079996, , 
17.01, 0.079949, , 
17.04, 0.079911, , 
17.07, 0.079911, , 
17.10, 0.079933, , 
17.13, 0.080018, , 
17.16, 0.080155, , 
17.19, 0.080298, , 
17.22, 0.080386, , 
17.25, 0.080459, , 
17.28, 0.080567, , 
17.31, 0.080729, , 
17.34, 0.080853, , 
17.37, 0.080907, , 
17.40, 0.081002, , 
17.43, 0.081186, , 
17.46, 0.081303, , 
17.49, 0.081430, , 
17.52, 0.081592, , 
17.55, 0.081820, , 
17.58, 0.082058, , 
17.61, 0.082236, , 
17.64, 0.082512, , 
17.67, 0.082730, , 
17.70, 0.082978, , 
17.73, 0.083260, , 
17.76, 0.083533, , 
17.79, 0.083901, , 
17.82, 0.084202, , 
17.85, 0.084494, , 
17.88, 0.084951, , 
17.91, 0.085338, , 
17.94, 0.085880, , 
17.97, 0.086280, , 
18.00, 0.086752, , 
18.03, 0.087323, , 
18.06, 0.087774, , 
18.09, 0.088415, , 
18.12, 0.089071, , 
18.15, 0.089823, , 
18.18, 0.090660, , 
18.21, 0.091345, , 
18.24, 0.092157, , 
18.27, 0.092884, , 
18.30, 0.093731, , 
18.33, 0.094704, , 
18.36, 0.095564, , 
18.39, 0.096446, , 
18.42, 0.097512, , 
18.45, 0.098495, , 
18.48, 0.099513, , 
18.51, 0.100503, , 
18.54, 0.101657, , 
18.57, 0.102669, , 
18.60, 0.103751, , 
18.63, 0.104867, , 
18.66, 0.106117, , 
18.69, 0.107202, , 
18.72, 0.108306, , 
18.75, 0.109597, , 
18.78, 0.110513, , 
18.81, 0.111760, , 
18.84, 0.112842, , 
18.87, 0.113885, , 
18.90, 0.115052, , 
18.93, 0.116052, , 
18.97, 0.117235, , 
18.99, 0.118120, , 
19.02, 0.119144, , 
19.05, 0.120245, , 
19.08, 0.121279, , 
19.11, 0.122211, , 
19.14, 0.123230, , 
19.17, 0.124096, , 
19.19, 0.124422, 6, 0.584
19.20, 0.125095, , 
19.23, 0.125919, , 
19.26, 0.126773, , 
19.29, 0.127788, , 
19.32, 0.128609, , 
19.35, 0.129272, , 
19.38, 0.130125, , 
19.41, 0.130814, , 
19.44, 0.131594, , 
19.47, 0.132219, , 
19.50, 0.132676, , 
19.53, 0.133247, , 
19.56, 0.133729, , 
19.59, 0.134255, , 
19.62, 0.134655, , 
19.65, 0.135067, , 
19.68, 0.135518, , 
19.71, 0.135832, , 
19.74, 0.136181, , 
19.77, 0.136472, , 
19.80, 0.136745, , 
19.83, 0.136967, , 
19.86, 0.137113, , 
19.90, 0.137288, , 
19.92, 0.137418, , 
19.95, 0.137595, , 
19.98, 0.137732, , 
20.01, 0.137868, , 
20.04, 0.137963, , 
20.07, 0.137982, , 
20.10, 0.137992, , 
20.13, 0.138017, , 
20.16, 0.138036, , 
20.20, 0.137982, , 
20.22, 0.137862, , 
20.25, 0.137760, , 
20.28, 0.137700, , 
20.31, 0.137567, , 
20.34, 0.137402, , 
20.37, 0.137278, , 
20.40, 0.137145, , 
20.43, 0.136961, , 
20.46, 0.136688, , 
20.49, 0.136469, , 
20.52, 0.136235, , 
20.55, 0.135952, , 
20.58, 0.135689, , 
20.61, 0.135397, , 
20.64, 0.135143, , 
20.67, 0.134833, , 
20.70, 0.134376, , 
20.73, 0.134005, , 
20.76, 0.133513, , 
20.79, 0.133075, , 
20.82, 0.132711, , 
20.85, 0.132194, , 
20.88, 0.131775, , 
20.91, 0.131363, , 
20.94, 0.130826, , 
20.97, 0.130401, , 
21.00, 0.129903, , 
21.03, 0.129475, , 
21.06, 0.129006, , 
21.09, 0.128584, , 
21.12, 0.128127, , 
21.15, 0.127452, , 
21.18, 0.126925, , 
21.21, 0.126383, , 
21.24, 0.125847, , 
21.27, 0.125352, , 
21.30, 0.124914, , 
21.33, 0.124448, , 
21.36, 0.123994, , 
21.39, 0.123471, , 
21.42, 0.123046, , 
21.45, 0.122583, , 
21.48, 0.122192, , 
21.51, 0.121685, , 
21.54, 0.121269, , 
21.57, 0.120857, , 
21.60, 0.120416, , 
21.63, 0.119893, , 
21.66, 0.119493, , 
21.69, 0.119059, , 
21.72, 0.118665, , 
21.75, 0.118300, , 
21.78, 0.117983, , 
21.81, 0.117739, , 
21.84, 0.117457, , 
21.87, 0.117152, , 
21.90, 0.116940, , 
21.93, 0.116702, , 
21.96, 0.116439, , 
21.99, 0.116264, , 
22.02, 0.116017, , 
22.05, 0.115912, , 
22.08, 0.115801, , 
22.11, 0.115744, , 
22.14, 0.115665, , 
22.17, 0.115509, , 
22.20, 0.115411, , 
22.23, 0.115379, , 
22.26, 0.115452, , 
22.29, 0.115563, , 
22.32, 0.115699, , 
22.35, 0.115811, , 
22.38, 0.115953, 7, 0.585
22.38, 0.115979, , 
22.41, 0.116125, , 
22.44, 0.116283, , 
22.47, 0.116556, , 
22.50, 0.116902, , 
22.53, 0.117371, , 
22.56, 0.117768, , 
22.59, 0.118193, , 
22.62, 0.118678, , 
22.65, 0.119239, , 
22.68, 0.119820, , 
22.71, 0.120565, , 
22.74, 0.121263, , 
22.77, 0.122221, , 
22.80, 0.123347, , 
22.83, 0.124368, , 
22.86, 0.125755, , 
22.89, 0.126703, , 
22.92, 0.128241, , 
22.95, 0.130072, , 
22.98, 0.131822, , 
23.01, 0.134084, , 
23.04, 0.136197, , 
23.07, 0.138357, , 
23.10, 0.141161, , 
23.13, 0.143984, , 
23.16, 0.147479, , 
23.19, 0.150724, , 
23.22, 0.153991, , 
23.25, 0.158831, , 
23.28, 0.163022, , 
23.31, 0.167529, , 
23.34, 0.172328, , 
23.37, 0.177384, , 
23.40, 0.182231, , 
23.43, 0.189285, , 
23.46, 0.195283, , 
23.49, 0.202550, , 
23.52, 0.209015, , 
23.55, 0.213928, , 
23.58, 0.222784, , 
23.61, 0.230022, , 
23.64, 0.238691, , 
23.67, 0.246351, , 
23.70, 0.253536, , 
23.73, 0.263436, , 
23.76, 0.269986, , 
23.79, 0.279146, , 
23.82, 0.287073, , 
23.85, 0.294283, , 
23.88, 0.304128, , 
23.91, 0.311836, , 
23.94, 0.319439, , 
23.97, 0.326893, , 
24.00, 0.335296, , 
24.03, 0.341671, , 
24.06, 0.349068, , 
24.09, 0.355564, , 
24.12, 0.362784, , 
24.15, 0.368728, , 
24.18, 0.375319, , 
24.21, 0.380128, , 
24.24, 0.385501, , 
24.27, 0.390173, , 
24.30, 0.394525, , 
24.33, 0.398452, , 
24.36, 0.402538, , 
24.39, 0.405427, , 
24.42, 0.408989, , 
24.45, 0.411422, , 
24.48, 0.413259, , 
24.51, 0.415536, , 
24.54, 0.416967, , 
24.57, 0.418442, , 
24.60, 0.419311, , 
24.63, 0.419942, , 
24.66, 0.420291, , 
24.69, 0.420304, , 
24.72, 0.419990, , 
24.75, 0.419523, , 
24.78, 0.418759, , 
24.81, 0.417550, , 
24.84, 0.416364, , 
24.88, 0.414861, , 
24.90, 0.413446, , 
24.93, 0.411609, , 
24.96, 0.409265, , 
24.99, 0.407143, , 
25.02, 0.404580, , 
25.05, 0.401938, , 
25.08, 0.399381, , 
25.11, 0.396695, , 
25.14, 0.393923, , 
25.17, 0.390563, , 
25.20, 0.387794, , 
25.23, 0.383953, , 
25.26, 0.381346, , 
25.29, 0.378152, , 
25.32, 0.374428, , 
25.35, 0.371481, , 
25.38, 0.367938, , 
25.41, 0.364091, , 
25.44, 0.360789, , 
25.47, 0.357471, , 
25.50, 0.353591, , 
25.53, 0.350540, , 
25.56, 0.346965, , 
25.59, 0.343717, 8, 0.588
25.60, 0.343172, , 
25.62, 0.340466, , 
25.65, 0.336723, , 
25.68, 0.333846, , 
25.71, 0.330493, , 
25.74, 0.326915, , 
25.77, 0.323908, , 
25.80, 0.321447, , 
25.83, 0.318075, , 
25.86, 0.315217, , 
25.89, 0.311861, , 
25.92, 0.309054, , 
25.95, 0.306345, , 
25.98, 0.303250, , 
26.01, 0.301343, , 
26.04, 0.298156, , 
26.07, 0.295726, , 
26.10, 0.292877, , 
26.13, 0.290435, , 
26.16, 0.288091, , 
26.19, 0.285588, , 
26.22, 0.283542, , 
26.25, 0.280922, , 
26.28, 0.278715, , 
26.31, 0.276472, , 
26.34, 0.274436, , 
26.37, 0.271721, , 
26.40, 0.269602, , 
26.43, 0.267464, , 
26.46, 0.264907, , 
26.49, 0.262893, , 
26.52, 0.260593, , 
26.55, 0.258544, , 
26.58, 0.256486, , 
26.61, 0.254066, , 
26.64, 0.252229, , 
26.67, 0.249711, , 
26.70, 0.247963, , 
26.73, 0.245857, , 
26.76, 0.243452, , 
26.79, 0.241568, , 
26.82, 0.238958, , 
26.85, 0.236893, , 
26.88, 0.234888, , 
26.91, 0.232887, , 
26.94, 0.230980, , 
26.97, 0.228421, , 
27.00, 0.226435, , 
27.03, 0.224459, , 
27.06, 0.222112, , 
27.09, 0.220316, , 
27.12, 0.218188, , 
27.15, 0.215907, , 
27.18, 0.213922, , 
27.21, 0.212285, , 
27.24, 0.210023, , 
27.27, 0.208206, , 
27.30, 0.205735, , 
27.33, 0.203718, , 
27.36, 0.201808, , 
27.39, 0.199607, , 
27.42, 0.198189, , 
27.45, 0.195743, , 
27.48, 0.193919, , 
27.51, 0.192057, , 
27.54, 0.189771, , 
27.57, 0.187915, , 
27.60, 0.185932, , 
27.63, 0.184289, , 
27.66, 0.182500, , 
27.69, 0.180448, , 
27.72, 0.178751, , 
27.75, 0.176927, , 
27.78, 0.175148, , 
27.81, 0.173505, , 
27.84, 0.171906, , 
27.87, 0.170330, , 
27.90, 0.168547, , 
27.93, 0.166818, , 
27.96, 0.165321, , 
27.99, 0.163567, , 
28.02, 0.162048, , 
28.05, 0.160697, , 
28.08, 0.159171, , 
28.11, 0.157740, , 
28.14, 0.156072, , 
28.17, 0.154606, , 
28.20, 0.152982, , 
28.23, 0.151717, , 
28.26, 0.150470, , 
28.29, 0.148948, , 
28.32, 0.147638, , 
28.35, 0.146312, , 
28.38, 0.144973, , 
28.41, 0.143641, , 
28.44, 0.142420, , 
28.47, 0.141167, , 
28.50, 0.139692, , 
28.53, 0.138525, , 
28.56, 0.137256, , 
28.59, 0.136209, , 
28.62, 0.135093, , 
28.65, 0.133821, , 
28.68, 0.132726, , 
28.71, 0.131493, , 
28.74, 0.130347, , 
28.77, 0.129361, , 
28.78, 0.128854, 9, 0.584
28.80, 0.128333, , 
28.83, 0.127271, , 
28.86, 0.126180, , 
28.89, 0.125193, , 
28.92, 0.124302, , 
28.95, 0.123204, , 
28.98, 0.122297, , 
29.01, 0.121504, , 
29.04, 0.120594, , 
29.07, 0.119699, , 
29.10, 0.118684, , 
29.13, 0.117844, , 
29.16, 0.116879, , 
29.19, 0.115928, , 
29.22, 0.115217, , 
29.25, 0.114234, , 
29.28, 0.113330, , 
29.31, 0.112264, , 
29.34, 0.111183, , 
29.37, 0.110250, , 
29.40, 0.109127, , 
29.43, 0.108334, , 
29.46, 0.107322, , 
29.49, 0.106631, , 
29.52, 0.105825, , 
29.55, 0.104909, , 
29.58, 0.104090, , 
29.61, 0.103215, , 
29.64, 0.102704, , 
29.67, 0.101908, , 
29.70, 0.101115, , 
29.73, 0.100468, , 
29.76, 0.099697, , 
29.79, 0.099025, , 
29.83, 0.098451, , 
29.85, 0.097864, , 
29.88, 0.097248, , 
29.91, 0.096497, , 
29.94, 0.095938, , 
29.97, 0.095405, , 
30.00, 0.094619, , 
30.03, 0.094114, , 
30.06, 0.093509, , 
30.09, 0.092985, , 
30.12, 0.092475, , 
30.15, 0.091745, , 
30.18, 0.091234, , 
30.21, 0.090670, , 
30.24, 0.090203, , 
30.27, 0.089617, , 
30.30, 0.088916, , 
30.33, 0.088440, , 
30.36, 0.087866, , 
30.39, 0.087403, , 
30.42, 0.087019, , 
30.45, 0.086594, , 
30.48, 0.086134, , 
30.51, 0.085588, , 
30.54, 0.085182, , 
30.57, 0.084814, , 
30.60, 0.084240, , 
30.63, 0.083783, , 
30.66, 0.083362, , 
30.69, 0.083006, , 
30.72, 0.082689, , 
30.75, 0.082302, , 
30.78, 0.081975, , 
30.81, 0.081569, , 
30.84, 0.081252, , 
30.87, 0.081027, , 
30.90, 0.080637, , 
30.93, 0.080367, , 
30.96, 0.080044, , 
30.99, 0.079692, , 
31.02, 0.079416, , 
31.05, 0.079143, , 
31.08, 0.078778, , 
31.11, 0.078531, , 
31.14, 0.078252, , 
31.17, 0.077982, , 
31.20, 0.077709, , 
31.23, 0.077440, , 
31.26, 0.077262, , 
31.30, 0.076989, , 
31.32, 0.076799, , 
31.35, 0.076571, , 
31.38, 0.076380, , 
31.41, 0.076203, , 
31.44, 0.076038, , 
31.47, 0.075942, , 
31.51, 0.075825, , 
31.53, 0.075705, , 
31.56, 0.075594, , 
31.59, 0.075562, , 
31.62, 0.075552, , 
31.65, 0.075511, , 
31.68, 0.075425, , 
31.71, 0.075467, , 
31.74, 0.075565, , 
31.77, 0.075663, , 
31.80, 0.075781, , 
31.83, 0.075942, , 
31.86, 0.076145, , 
31.89, 0.076304, , 
31.92, 0.076479, , 
31.95, 0.076729, , 
31.98, 0.076948, 10, 0.585
31.99, 0.076996, , 
32.01, 0.077170, , 
32.04, 0.077408, , 
32.07, 0.077744, , 
32.10, 0.078144, , 
32.13, 0.078483, , 
32.16, 0.078877, , 
32.19, 0.079390, , 
32.22, 0.079857, , 
32.25, 0.080263, , 
32.28, 0.080757, , 
32.31, 0.081236, , 
32.35, 0.081944, , 
32.37, 0.082407, , 
32.40, 0.082984, , 
32.43, 0.083844, , 
32.46, 0.084586, , 
32.49, 0.085500, , 
32.52, 0.086308, , 
32.55, 0.087057, , 
32.58, 0.088129, , 
32.61, 0.088982, , 
32.64, 0.090150, , 
32.67, 0.091177, , 
32.70, 0.092313, , 
32.73, 0.093620, , 
32.76, 0.094441, , 
32.79, 0.095945, , 
32.82, 0.097172, , 
32.85, 0.098425, , 
32.88, 0.099973, , 
32.91, 0.101274, , 
32.94, 0.102853, , 
32.97, 0.104271, , 
33.00, 0.106003, , 
33.03, 0.107500, , 
33.07, 0.109264, , 
33.09, 0.110380, , 
33.12, 0.111979, , 
33.15, 0.113673, , 
33.18, 0.115132, , 
33.21, 0.116531, , 
33.24, 0.118189, , 
33.27, 0.119442, , 
33.30, 0.121104, , 
33.33, 0.122202, , 
33.36, 0.123525, , 
33.39, 0.125025, , 
33.42, 0.126119, , 
33.45, 0.127547, , 
33.48, 0.128657, , 
33.51, 0.129704, , 
33.54, 0.130671, , 
33.57, 0.131496, , 
33.60, 0.132378, , 
33.63, 0.133177, , 
33.66, 0.133872, , 
33.69, 0.134395, , 
33.72, 0.134826, , 
33.75, 0.135321, , 
33.78, 0.135810, , 
33.81, 0.136200, , 
33.84, 0.136406, , 
33.87, 0.136552, , 
33.90, 0.136603, , 
33.93, 0.136628, , 
33.96, 0.136688, , 
33.99, 0.136641, , 
34.02, 0.136447, , 
34.05, 0.136187, , 
34.08, 0.135971, , 
34.11, 0.135730, , 
34.14, 0.135277, , 
34.17, 0.134874, , 
34.20, 0.134274, , 
34.23, 0.133789, , 
34.26, 0.133335, , 
34.29, 0.132647, , 
34.32, 0.132095, , 
34.35, 0.131448, , 
34.38, 0.130953, , 
34.41, 0.130363, , 
34.44, 0.129710, , 
34.47, 0.129003, , 
34.50, 0.128225, , 
34.53, 0.127572, , 
34.56, 0.126963, , 
34.59, 0.126427, , 
34.62, 0.125764, , 
34.65, 0.125060, , 
34.68, 0.124435, , 
34.71, 0.123816, , 
34.74, 0.123011, , 
34.77, 0.122408, , 
34.80, 0.121717, , 
34.83, 0.121054, , 
34.86, 0.120394, , 
34.89, 0.119737, , 
34.92, 0.119201, , 
34.95, 0.118453, , 
34.99, 0.117866, , 
35.01, 0.117393, , 
35.04, 0.116689, , 
35.07, 0.116118, , 
35.10, 0.115408, , 
35.13, 0.114815, , 
35.16, 0.114161, , 
35.18, 0.113742, 11, 0.586
35.19, 0.113533, , 
35.22, 0.112946, , 
35.25, 0.112363, , 
35.28, 0.111817, , 
35.32, 0.111141, , 
35.34, 0.110672, , 
35.37, 0.110120, , 
35.40, 0.109527, , 
35.43, 0.108956, , 
35.46, 0.108264, , 
35.49, 0.107700, , 
35.52, 0.107294, , 
35.55, 0.106736, , 
35.58, 0.106111, , 
35.61, 0.105454, , 
35.64, 0.104931, , 
35.67, 0.104420, , 
35.70, 0.103865, , 
35.73, 0.103446, , 
35.76, 0.102783, , 
35.79, 0.102184, , 
35.82, 0.101648, , 
35.85, 0.101223, , 
35.88, 0.100652, , 
35.91, 0.100084, , 
35.94, 0.099485, , 
35.97, 0.098895, , 
36.00, 0.098422, , 
36.03, 0.097816, , 
36.06, 0.097137, , 
36.09, 0.096620, , 
36.12, 0.096110, , 
36.15, 0.095659, , 
36.18, 0.095101, , 
36.21, 0.094473, , 
36.24, 0.093886, , 
36.27, 0.093331, , 
36.30, 0.092779, , 
36.33, 0.092367, , 
36.36, 0.091885, , 
36.39, 0.091390, , 
36.42, 0.090908, , 
36.45, 0.090302, , 
36.48, 0.089769, , 
36.51, 0.089166, , 
36.54, 0.088624, , 
36.57, 0.088196, , 
36.60, 0.087739, , 
36.63, 0.087257, , 
36.66, 0.086848, , 
36.69, 0.086356, , 
36.72, 0.085915, , 
36.75, 0.085455, , 
36.78, 0.084960, , 
36.81, 0.084580, , 
36.84, 0.084129, , 
36.87, 0.083666, , 
36.90, 0.083260, , 
36.93, 0.082908, , 
36.96, 0.082607, , 
36.99, 0.082147, , 
37.02, 0.081792, , 
37.05, 0.081417, , 
37.08, 0.080948, , 
37.11, 0.080593, , 
37.14, 0.080301, , 
37.17, 0.079961, , 
37.20, 0.079628, , 
37.23, 0.079302, , 
37.26, 0.078984, , 
37.29, 0.078718, , 
37.33, 0.078356, , 
37.35, 0.078109, , 
37.38, 0.077836, , 
37.41, 0.077497, , 
37.44, 0.077227, , 
37.47, 0.076843, , 
37.50, 0.076548, , 
37.53, 0.076326, , 
37.56, 0.076000, , 
37.59, 0.075781, , 
37.62, 0.075578, , 
37.65, 0.075362, , 
37.68, 0.075073, , 
37.71, 0.074766, , 
37.74, 0.074474, , 
37.77, 0.074233, , 
37.80, 0.073919, , 
37.83, 0.073773, , 
37.86, 0.073624, , 
37.89, 0.073421, , 
37.92, 0.073243, , 
37.95, 0.073034, , 
37.98, 0.072818, , 
38.01, 0.072739, , 
38.04, 0.072577, , 
38.08, 0.072428, , 
38.10, 0.072323, , 
38.13, 0.072206, , 
38.16, 0.072108, , 
38.19, 0.072038, , 
38.22, 0.072076, , 
38.25, 0.072070, , 
38.28, 0.072076, , 
38.31, 0.072238, , 
38.34, 0.072390, , 
38.37, 0.072434, , 
38.38, 0.072450, 12, 0.586
38.40, 0.072510, , 
38.43, 0.072625, , 
38.46, 0.072790, , 
38.49, 0.072983, , 
38.52, 0.073243, , 
38.55, 0.073655, , 
38.58, 0.074084, , 
38.61, 0.074477, , 
38.64, 0.074858, , 
38.67, 0.075311, , 
38.70, 0.075854, , 
38.73, 0.076425, , 
38.76, 0.077024, , 
38.79, 0.077697, , 
38.82, 0.078559, , 
38.85, 0.079317, , 
38.88, 0.080453, , 
38.91, 0.081493, , 
38.94, 0.082423, , 
38.97, 0.083828, , 
39.00, 0.085059, , 
39.03, 0.086844, , 
39.06, 0.088399, , 
39.09, 0.089972, , 
39.12, 0.091951, , 
39.15, 0.093290, , 
39.18, 0.095675, , 
39.21, 0.097572, , 
39.24, 0.099583, , 
39.27, 0.102225, , 
39.30, 0.104522, , 
39.33, 0.106669, , 
39.36, 0.109203, , 
39.39, 0.112033, , 
39.42, 0.114516, , 
39.45, 0.117466, , 
39.48, 0.119363, , 
39.51, 0.122246, , 
39.54, 0.124851, , 
39.57, 0.127864, , 
39.60, 0.130478, , 
39.63, 0.133564, , 
39.66, 0.135962, , 
39.69, 0.138728, , 
39.72, 0.141576, , 
39.75, 0.143593, , 
39.78, 0.146356, , 
39.81, 0.148405, , 
39.84, 0.150724, , 
39.87, 0.152833, , 
39.90, 0.155181, , 
39.93, 0.157071, , 
39.96, 0.159149, , 
39.99, 0.160697, , 
40.02, 0.162349, , 
40.05, 0.163738, , 
40.08, 0.165001, , 
40.11, 0.166431, , 
40.14, 0.167446, , 
40.17, 0.168436, , 
40.20, 0.169248, , 
40.23, 0.170111, , 
40.26, 0.170641, , 
40.29, 0.171094, , 
40.32, 0.171373, , 
40.35, 0.171608, , 
40.38, 0.171748, , 
40.41, 0.171773, , 
40.44, 0.171798, , 
40.47, 0.171694, , 
40.50, 0.171453, , 
40.53, 0.171104, , 
40.56, 0.170707, , 
40.59, 0.170250, , 
40.62, 0.169711, , 
40.65, 0.169185, , 
40.68, 0.168446, , 
40.71, 0.167897, , 
40.74, 0.167006, , 
40.77, 0.166165, , 
40.80, 0.165423, , 
40.83, 0.164370, , 
40.86, 0.163472, , 
40.89, 0.162460, , 
40.92, 0.161756, , 
40.95, 0.160963, , 
40.98, 0.159875, , 
41.01, 0.158996, , 
41.04, 0.157940, , 
41.07, 0.156951, , 
41.10, 0.156021, , 
41.13, 0.154990, , 
41.16, 0.154089, , 
41.19, 0.153033, , 
41.22, 0.152097, , 
41.25, 0.151140, , 
41.28, 0.150013, , 
41.31, 0.149021, , 
41.34, 0.148047, , 
41.37, 0.147143, , 
41.40, 0.146347, , 
41.43, 0.145256, , 
41.46, 0.144352, , 
41.49, 0.143327, , 
41.52, 0.142499, , 
41.55, 0.141862, , 
41.58, 0.140723, , 
41.59, 0.140571, 13, 0.586
41.61, 0.139825, , 
41.64, 0.138839, , 
41.67, 0.137979, , 
41.70, 0.137158, , 
41.73, 0.136333, , 
41.76, 0.135683, , 
41.79, 0.134741, , 
41.82, 0.133900, , 
41.85, 0.133063, , 
41.88, 0.132270, , 
41.91, 0.131175, , 
41.94, 0.130290, , 
41.97, 0.129412, , 
42.00, 0.128803, , 
42.03, 0.127861, , 
42.06, 0.127023, , 
42.09, 0.126230, , 
42.12, 0.125310, , 
42.15, 0.124571, , 
42.18, 0.123788, , 
42.21, 0.123014, , 
42.24, 0.122129, , 
42.27, 0.121200, , 
42.30, 0.120416, , 
42.33, 0.119718, , 
42.36, 0.118833, , 
42.39, 0.118069, , 
42.42, 0.117092, , 
42.46, 0.116394, , 
42.48, 0.115788, , 
42.51, 0.114891, , 
42.54, 0.114234, , 
42.57, 0.113340, , 
42.60, 0.112572, , 
42.63, 0.111811, , 
42.66, 0.111113, , 
42.69, 0.110361, , 
42.72, 0.109736, , 
42.75, 0.109013, , 
42.78, 0.108344, , 
42.81, 0.107713, , 
42.84, 0.107037, , 
42.87, 0.106418, , 
42.90, 0.105854, , 
42.93, 0.105232, , 
42.96, 0.104569, , 
42.99, 0.103941, , 
43.02, 0.103345, , 
43.05, 0.102745, , 
43.08, 0.102266, , 
43.11, 0.101746, , 
43.14, 0.101242, , 
43.17, 0.100826, , 
43.20, 0.100465, , 
43.23, 0.099887, , 
43.26, 0.099526, , 
43.29, 0.099139, , 
43.32, 0.098885, , 
43.35, 0.098495, , 
43.38, 0.098206, , 
43.41, 0.097956, , 
43.44, 0.097699, , 
43.47, 0.097442, , 
43.50, 0.097220, , 
43.53, 0.097141, , 
43.56, 0.096937, , 
43.59, 0.096709, , 
43.62, 0.096585, , 
43.65, 0.096493, , 
43.68, 0.096398, , 
43.71, 0.096351, , 
43.74, 0.096474, , 
43.77, 0.096662, , 
43.80, 0.096830, , 
43.83, 0.096976, , 
43.86, 0.097198, , 
43.89, 0.097559, , 
43.92, 0.097883, , 
43.95, 0.098241, , 
43.98, 0.098714, , 
44.01, 0.099259, , 
44.04, 0.099884, , 
44.07, 0.100582, , 
44.10, 0.101359, , 
44.13, 0.102111, , 
44.16, 0.103063, , 
44.19, 0.103913, , 
44.22, 0.105223, , 
44.25, 0.106155, , 
44.28, 0.107481, , 
44.31, 0.108769, , 
44.34, 0.110139, , 
44.37, 0.111484, , 
44.40, 0.112905, , 
44.43, 0.114995, , 
44.47, 0.116676, , 
44.49, 0.118389, , 
44.52, 0.119810, , 
44.55, 0.122100, , 
44.58, 0.124099, , 
44.61, 0.126069, , 
44.64, 0.128419, , 
44.67, 0.130084, , 
44.70, 0.132695, , 
44.73, 0.134953, , 
44.76, 0.137599, , 
44.79, 0.139499, 14, 0.586
44.79, 0.139892, , 
44.82, 0.142147, , 
44.85, 0.143895, , 
44.88, 0.146892, , 
44.91, 0.149462, , 
44.94, 0.151289, , 
44.97, 0.153458, , 
45.00, 0.155958, , 
45.03, 0.157598, , 
45.06, 0.160034, , 
45.09, 0.161991, , 
45.12, 0.164157, , 
45.15, 0.165984, , 
45.18, 0.167345, , 
45.21, 0.169565, , 
45.24, 0.171116, , 
45.27, 0.172553, , 
45.30, 0.174066, , 
45.33, 0.174980, , 
45.36, 0.176337, , 
45.39, 0.177371, , 
45.42, 0.178589, , 
45.45, 0.179398, , 
45.48, 0.180121, , 
45.51, 0.180639, , 
45.54, 0.181317, , 
45.57, 0.181799, , 
45.60, 0.182250, , 
45.63, 0.182523, , 
45.66, 0.182621, , 
45.69, 0.182716, , 
45.72, 0.182776, , 
45.75, 0.182783, , 
45.78, 0.182634, , 
45.81, 0.182355, , 
45.84, 0.182018, , 
45.87, 0.181666, , 
45.90, 0.181248, , 
45.93, 0.180734, , 
45.96, 0.180258, , 
45.99, 0.179719, , 
46.02, 0.178980, , 
46.05, 0.178390, , 
46.08, 0.177508, , 
46.11, 0.176728, , 
46.14, 0.175877, , 
46.17, 0.174869, , 
46.20, 0.174016, , 
46.23, 0.173013, , 
46.26, 0.172049, , 
46.29, 0.171440, , 
46.32, 0.169974, , 
46.35, 0.168940, , 
46.38, 0.167656, , 
46.41, 0.166730, , 
46.44, 0.165454, , 
46.47, 0.164614, , 
46.50, 0.163155, , 
46.53, 0.162118, , 
46.56, 0.160925, , 
46.59, 0.160053, , 
46.62, 0.159184, , 
46.65, 0.157712, , 
46.68, 0.156684, , 
46.71, 0.155694, , 
46.74, 0.154464, , 
46.77, 0.153588, , 
46.80, 0.152478, , 
46.83, 0.151546, , 
46.86, 0.150480, , 
46.89, 0.149588, , 
46.92, 0.148713, , 
46.95, 0.147857, , 
46.98, 0.146981, , 
47.01, 0.145842, , 
47.04, 0.144878, , 
47.07, 0.143952, , 
47.10, 0.142991, , 
47.13, 0.141827, , 
47.16, 0.140796, , 
47.19, 0.140079, , 
47.22, 0.139178, , 
47.25, 0.138315, , 
47.28, 0.137310, , 
47.31, 0.136346, , 
47.34, 0.135423, , 
47.37, 0.134547, , 
47.40, 0.133865, , 
47.43, 0.132888, , 
47.46, 0.131972, , 
47.49, 0.131210, , 
47.52, 0.130462, , 
47.55, 0.129653, , 
47.58, 0.129063, , 
47.61, 0.128257, , 
47.64, 0.127693, , 
47.67, 0.127118, , 
47.70, 0.126395, , 
47.73, 0.125919, , 
47.76, 0.125222, , 
47.79, 0.124854, , 
47.82, 0.124410, , 
47.85, 0.123988, , 
47.88, 0.123759, , 
47.91, 0.123382, , 
47.94, 0.123027, , 
47.97, 0.122728, , 
47.98, 0.122652, 15, 0.585
48.00, 0.122538, , 
48.03, 0.122380, , 
48.06, 0.122307, , 
48.09, 0.122259, , 
48.12, 0.122303, , 
48.15, 0.122434, , 
48.18, 0.122576, , 
48.21, 0.122757, , 
48.24, 0.123011, , 
48.27, 0.123252, , 
48.30, 0.123550, , 
48.33, 0.123921, , 
48.36, 0.124435, , 
48.39, 0.125019, , 
48.42, 0.125707, , 
48.45, 0.126398, , 
48.48, 0.127321, , 
48.51, 0.127969, , 
48.54, 0.128825, , 
48.57, 0.130033, , 
48.60, 0.131090, , 
48.63, 0.132327, , 
48.66, 0.133243, , 
48.69, 0.134744, , 
48.72, 0.136247, , 
48.75, 0.137310, , 
48.78, 0.138794, , 
48.81, 0.139863, , 
48.84, 0.141475, , 
48.87, 0.143048, , 
48.90, 0.144501, , 
48.94, 0.146242, , 
48.96, 0.147111, , 
48.99, 0.148891, , 
49.02, 0.150642, , 
49.05, 0.152110, , 
49.08, 0.153867, , 
49.11, 0.155355, , 
49.14, 0.156567, , 
49.17, 0.158362, , 
49.20, 0.159770, , 
49.23, 0.161369, , 
49.26, 0.162841, , 
49.29, 0.164325, , 
49.32, 0.165867, , 
49.36, 0.167107, , 
49.38, 0.168316, , 
49.41, 0.169476, , 
49.44, 0.170590, , 
49.47, 0.171671, , 
49.50, 0.172813, , 
49.53, 0.173962, , 
49.56, 0.174694, , 
49.59, 0.175395, , 
49.62, 0.176049, , 
49.65, 0.176832, , 
49.68, 0.177489, , 
49.71, 0.177835, , 
49.74, 0.178234, , 
49.77, 0.178488, , 
49.80, 0.178802, , 
49.83, 0.179021, , 
49.86, 0.179214, , 
49.89, 0.179316, , 
49.92, 0.179306, , 
49.95, 0.179167, , 
49.98, 0.178970, , 
50.01, 0.178761, , 
50.04, 0.178478, , 
50.07, 0.178101, , 
50.10, 0.177657, , 
50.13, 0.177276, , 
50.16, 0.176747, , 
50.19, 0.176274, , 
50.22, 0.175770, , 
50.25, 0.175322, , 
50.28, 0.174612, , 
50.31, 0.173765, , 
50.34, 0.173073, , 
50.37, 0.172398, , 
50.40, 0.171671, , 
50.43, 0.170764, , 
50.46, 0.169949, , 
50.49, 0.169118, , 
50.52, 0.168268, , 
50.55, 0.167399, , 
50.58, 0.166371, , 
50.61, 0.165372, , 
50.64, 0.164490, , 
50.67, 0.163742, , 
50.70, 0.162888, , 
50.73, 0.161883, , 
50.76, 0.160716, , 
50.79, 0.159685, , 
50.82, 0.158730, , 
50.85, 0.157797, , 
50.88, 0.156881, , 
50.91, 0.155837, , 
50.94, 0.154955, , 
50.97, 0.154099, , 
51.00, 0.153090, , 
51.03, 0.152329, , 
51.06, 0.151482, , 
51.09, 0.150825, , 
51.12, 0.150010, , 
51.15, 0.149278, , 
51.18, 0.148450, , 
51.19, 0.148342, 16, 0.586
51.21, 0.147679, , 
51.24, 0.147092, , 
51.28, 0.146467, , 
51.30, 0.146010, , 
51.33, 0.145319, , 
51.36, 0.144647, , 
51.39, 0.144190, , 
51.42, 0.143800, , 
51.45, 0.143403, , 
51.48, 0.143226, , 
51.51, 0.142864, , 
51.54, 0.142658, , 
51.57, 0.142436, , 
51.60, 0.142258, , 
51.63, 0.142223, , 
51.66, 0.142188, , 
51.69, 0.142230, , 
51.72, 0.142290, , 
51.75, 0.142480, , 
51.78, 0.142756, , 
51.81, 0.143086, , 
51.84, 0.143340, , 
51.87, 0.143743, , 
51.90, 0.144222, , 
51.93, 0.144618, , 
51.96, 0.145306, , 
51.99, 0.145896, , 
52.02, 0.146550, , 
52.05, 0.147378, , 
52.08, 0.147968, , 
52.11, 0.148926, , 
52.14, 0.149772, , 
52.17, 0.150632, , 
52.20, 0.151736, , 
52.23, 0.152564, , 
52.26, 0.154048, , 
52.29, 0.155111, , 
52.32, 0.155999, , 
52.35, 0.157287, , 
52.38, 0.158181, , 
52.41, 0.159666, , 
52.44, 0.160700, , 
52.47, 0.161823, , 
52.51, 0.163082, , 
52.53, 0.163672, , 
52.56, 0.165058, , 
52.59, 0.166127, , 
52.62, 0.167142, , 
52.65, 0.168201, , 
52.68, 0.169070, , 
52.71, 0.169984, , 
52.74, 0.170910, , 
52.77, 0.171748, , 
52.80, 0.172686, , 
52.83, 0.173467, , 
52.86, 0.174190, , 
52.89, 0.174926, , 
52.92, 0.175389, , 
52.95, 0.176007, , 
52.98, 0.176512, , 
53.01, 0.176940, , 
53.04, 0.177444, , 
53.07, 0.177831, , 
53.10, 0.178218, , 
53.13, 0.178402, , 
53.16, 0.178605, , 
53.19, 0.178780, , 
53.22, 0.178821, , 
53.25, 0.178831, , 
53.28, 0.178843, , 
53.31, 0.178846, , 
53.34, 0.178777, , 
53.37, 0.178624, , 
53.40, 0.178415, , 
53.43, 0.178161, , 
53.46, 0.177758, , 
53.49, 0.177362, , 
53.52, 0.176969, , 
53.55, 0.176547, , 
53.58, 0.176131, , 
53.61, 0.175681, , 
53.64, 0.175164, , 
53.67, 0.174729, , 
53.70, 0.174117, , 
53.74, 0.173524, , 
53.76, 0.173083, , 
53.79, 0.172452, , 
53.82, 0.171840, , 
53.85, 0.171085, , 
53.88, 0.170438, , 
53.91, 0.169803, , 
53.94, 0.169457, , 
53.97, 0.168687, , 
54.00, 0.167935, , 
54.03, 0.167297, , 
54.06, 0.166698, , 
54.09, 0.165997, , 
54.12, 0.165559, , 
54.15, 0.164861, , 
54.19, 0.164303, , 
54.21, 0.163824, , 
54.24, 0.163209, , 
54.27, 0.162850, , 
54.30, 0.162219, , 
54.33, 0.161781, , 
54.36, 0.161477, , 
54.38, 0.161287, 17, 0.584
54.39, 0.161118, , 
54.42, 0.160938, , 
54.45, 0.160541, , 
54.48, 0.160252, , 
54.51, 0.160126, , 
54.54, 0.159907, , 
54.57, 0.159754, , 
54.60, 0.159675, , 
54.63, 0.159688, , 
54.66, 0.159767, , 
54.69, 0.159869, , 
54.72, 0.160107, , 
54.75, 0.160338, , 
54.78, 0.160697, , 
54.81, 0.160928, , 
54.84, 0.161274, , 
54.87, 0.161702, , 
54.90, 0.162095, , 
54.93, 0.162812, , 
54.96, 0.163342, , 
54.99, 0.164078, , 
55.02, 0.164681, , 
55.05, 0.165201, , 
55.08, 0.165841, , 
55.11, 0.166634, , 
55.14, 0.167481, , 
55.17, 0.168268, , 
55.20, 0.169083, , 
55.23, 0.170095, , 
55.26, 0.170799, , 
55.29, 0.171795, , 
55.32, 0.172661, , 
55.35, 0.173460, , 
55.38, 0.174184, , 
55.41, 0.174948, , 
55.44, 0.175915, , 
55.47, 0.176778, , 
55.50, 0.177733, , 
55.53, 0.178323, , 
55.56, 0.179214, , 
55.59, 0.179931, , 
55.62, 0.180613, , 
55.65, 0.181365, , 
55.68, 0.181869, , 
55.71, 0.182583, , 
55.74, 0.183148, , 
55.77, 0.183592, , 
55.80, 0.184020, , 
55.83, 0.184413, , 
55.86, 0.184962, , 
55.89, 0.185393, , 
55.92, 0.185774, , 
55.95, 0.186161, , 
55.98, 0.186354, , 
56.01, 0.186522, , 
56.04, 0.186700, , 
56.07, 0.186776, , 
56.10, 0.186798, , 
56.13, 0.186814, , 
56.16, 0.186856, , 
56.19, 0.186890, , 
56.22, 0.186846, , 
56.25, 0.186738, , 
56.28, 0.186614, , 
56.31, 0.186424, , 
56.34, 0.186300, , 
56.37, 0.185974, , 
56.40, 0.185736, , 
56.43, 0.185415, , 
56.46, 0.185022, , 
56.49, 0.184746, , 
56.52, 0.184413, , 
56.55, 0.184128, , 
56.58, 0.183680, , 
56.61, 0.183306, , 
56.64, 0.183030, , 
56.67, 0.182754, , 
56.70, 0.182389, , 
56.73, 0.181866, , 
56.76, 0.181530, , 
56.79, 0.181241, , 
56.82, 0.180911, , 
56.85, 0.180537, , 
56.88, 0.180305, , 
56.91, 0.179982, , 
56.94, 0.179779, , 
56.97, 0.179528, , 
57.00, 0.179265, , 
57.03, 0.179100, , 
57.06, 0.178942, , 
57.09, 0.178758, , 
57.12, 0.178605, , 
57.15, 0.178516, , 
57.18, 0.178482, , 
57.21, 0.178523, , 
57.24, 0.178666, , 
57.27, 0.178815, , 
57.30, 0.178910, , 
57.33, 0.179097, , 
57.36, 0.179354, , 
57.39, 0.179579, , 
57.42, 0.179922, , 
57.45, 0.180169, , 
57.48, 0.180585, , 
57.51, 0.181079, , 
57.54, 0.181543, , 
57.57, 0.182050, , 
57.59, 0.182148, 18, 0.588
57.60, 0.182342, , 
57.63, 0.182925, , 
57.66, 0.183534, , 
57.69, 0.184102, , 
57.72, 0.184835, , 
57.75, 0.185498, , 
57.78, 0.185977, , 
57.81, 0.186716, , 
57.84, 0.187528, , 
57.87, 0.188210, , 
57.90, 0.188698, , 
57.93, 0.189425, , 
57.96, 0.189951, , 
57.99, 0.190798, , 
58.03, 0.191369, , 
58.05, 0.191959, , 
58.08, 0.192663, , 
58.11, 0.193111, , 
58.14, 0.193580, , 
58.17, 0.194062, , 
58.20, 0.194519, , 
58.23, 0.194982, , 
58.26, 0.195451, , 
58.29, 0.195784, , 
58.32, 0.196248, , 
58.35, 0.196612, , 
58.38, 0.196822, , 
58.41, 0.197009, , 
58.44, 0.197177, , 
58.47, 0.197399, , 
58.50, 0.197520, , 
58.53, 0.197589, , 
58.56, 0.197672, , 
58.59, 0.197678, , 
58.62, 0.197586, , 
58.65, 0.197443, , 
58.68, 0.197386, , 
58.71, 0.197272, , 
58.74, 0.197145, , 
58.77, 0.196968, , 
58.80, 0.196917, , 
58.83, 0.196806, , 
58.86, 0.196616, , 
58.89, 0.196422, , 
58.92, 0.196225, , 
58.95, 0.196007, , 
58.98, 0.195721, , 
59.01, 0.195432, , 
59.04, 0.195169, , 
59.07, 0.194909, , 
59.10, 0.194620, , 
59.13, 0.194398, , 
59.16, 0.194202, , 
59.19, 0.193973, , 
59.22, 0.193789, , 
59.25, 0.193513, , 
59.28, 0.193415, , 
59.31, 0.193206, , 
59.34, 0.192990, , 
59.37, 0.192927, , 
59.40, 0.192831, , 
59.43, 0.192768, , 
59.46, 0.192568, , 
59.49, 0.192517, , 
59.52, 0.192628, , 
59.55, 0.192695, , 
59.58, 0.192749, , 
59.61, 0.192816, , 
59.64, 0.192961, , 
59.67, 0.193139, , 
59.70, 0.193310, , 
59.73, 0.193526, , 
59.76, 0.193815, , 
59.79, 0.194075, , 
59.82, 0.194322, , 
59.85, 0.194541, , 
59.88, 0.194915, , 
59.91, 0.195264, , 
59.94, 0.195680, , 
59.97, 0.196118, , 
60.00, 0.196708, , 
60.03, 0.197120, , 
60.06, 0.197757, , 
60.09, 0.198357, , 
60.12, 0.198772, , 
60.15, 0.199191, , 
60.18, 0.199426, , 
60.21, 0.199822, , 
60.24, 0.200305, , 
60.27, 0.200625, , 
60.30, 0.201082, , 
60.33, 0.201538, , 
60.36, 0.201960, , 
60.39, 0.202344, , 
60.42, 0.202620, , 
60.46, 0.203067, , 
60.48, 0.203315, , 
60.51, 0.203476, , 
60.54, 0.203689, , 
60.57, 0.203860, , 
60.60, 0.204063, , 
60.63, 0.204139, , 
60.66, 0.204196, , 
60.69, 0.204365, , 
60.72, 0.204501, , 
60.75, 0.204612, , 
60.78, 0.204533, , 
60.80, 0.204514, 19, 0.586
60.81, 0.204453, , 
60.84, 0.204390, , 
60.87, 0.204311, , 
60.90, 0.204190, , 
60.93, 0.204066, , 
60.96, 0.203955, , 
60.99, 0.203787, , 
61.02, 0.203581, , 
61.05, 0.203442, , 
61.08, 0.203232, , 
61.11, 0.202982, , 
61.14, 0.202798, , 
61.17, 0.202544, , 
61.20, 0.202376, , 
61.23, 0.202087, , 
61.26, 0.201833, , 
61.29, 0.201678, , 
61.32, 0.201446, , 
61.35, 0.201110, , 
61.38, 0.200793, , 
61.41, 0.200577, , 
61.44, 0.200381, , 
61.47, 0.200222, , 
61.50, 0.199949, , 
61.53, 0.199772, , 
61.56, 0.199638, , 
61.59, 0.199458, , 
61.62, 0.199353, , 
61.65, 0.199220, , 
61.68, 0.199118, , 
61.71, 0.198982, , 
61.74, 0.198979, , 
61.77, 0.199048, , 
61.80, 0.199169, , 
61.83, 0.199178, , 
61.86, 0.199172, , 
61.89, 0.199223, , 
61.92, 0.199245, , 
61.95, 0.199286, , 
61.98, 0.199423, , 
62.01, 0.199575, , 
62.04, 0.199734, , 
62.07, 0.199848, , 
62.10, 0.200019, , 
62.13, 0.200174, , 
62.16, 0.200285, , 
62.19, 0.200435, , 
62.22, 0.200549, , 
62.25, 0.200739, , 
62.28, 0.200926, , 
62.31, 0.201040, , 
62.34, 0.201145, , 
62.37, 0.201212, , 
62.40, 0.201402, , 
62.43, 0.201503, , 
62.46, 0.201557, , 
62.49, 0.201643, , 
62.52, 0.201707, , 
62.55, 0.201703, , 
62.58, 0.201681, , 
62.61, 0.201697, , 
62.64, 0.201703, , 
62.67, 0.201703, , 
62.70, 0.201697, , 
62.73, 0.201649, , 
62.76, 0.201564, , 
62.79, 0.201383, , 
62.82, 0.201253, , 
62.85, 0.201129, , 
62.88, 0.200977, , 
62.91, 0.200704, , 
62.94, 0.200450, , 
62.97, 0.200282, , 
63.00, 0.200022, , 
63.03, 0.199841, , 
63.06, 0.199632, , 
63.09, 0.199385, , 
63.12, 0.199077, , 
63.15, 0.198734, , 
63.18, 0.198493, , 
63.21, 0.198281, , 
63.24, 0.198005, , 
63.27, 0.197738, , 
63.30, 0.197529, , 
63.33, 0.197294, , 
63.36, 0.197114, , 
63.39, 0.196825, , 
63.42, 0.196593, , 
63.45, 0.196413, , 
63.48, 0.196270, , 
63.51, 0.196099, , 
63.54, 0.196010, , 
63.57, 0.195845, , 
63.60, 0.195686, , 
63.63, 0.195499, , 
63.66, 0.195321, , 
63.69, 0.195198, , 
63.72, 0.195011, , 
63.75, 0.194855, , 
63.78, 0.194823, , 
63.81, 0.194820, , 
63.84, 0.194722, , 
63.87, 0.194624, , 
63.90, 0.194459, , 
63.93, 0.194370, , 
63.96, 0.194310, , 
63.99, 0.194167, 20, 0.585
64.00, 0.194138, , 
64.02, 0.194008, , 
64.05, 0.193904, , 
64.08, 0.193808, , 
64.11, 0.193732, , 
64.14, 0.193710, , 
64.18, 0.193612, , 
64.20, 0.193482, , 
64.23, 0.193307, , 
64.26, 0.193164, , 
64.29, 0.193034, , 
64.32, 0.192847, , 
64.35, 0.192660, , 
64.38, 0.192565, , 
64.41, 0.192425, , 
64.44, 0.192267, , 
64.47, 0.192077, , 
64.51, 0.191883, , 
64.53, 0.191747, , 
64.56, 0.191480, , 
64.59, 0.191258, , 
64.62, 0.191039, , 
64.65, 0.190858, , 
64.68, 0.190592, , 
64.71, 0.190405, , 
64.74, 0.190157, , 
64.77, 0.189999, , 
64.80, 0.189805, , 
64.83, 0.189593, , 
64.86, 0.189453, , 
64.89, 0.189222, , 
64.92, 0.188911, , 
64.95, 0.188635, , 
64.98, 0.188419, , 
65.01, 0.188210, , 
65.04, 0.187918, , 
65.07, 0.187661, , 
65.10, 0.187487, , 
65.13, 0.187325, , 
65.16, 0.187084, , 
65.19, 0.186792, , 
65.22, 0.186580, , 
65.25, 0.186380, , 
65.28, 0.186135, , 
65.31, 0.185926, , 
65.34, 0.185733, , 
65.37, 0.185482, , 
65.40, 0.185251, , 
65.43, 0.185098, , 
65.46, 0.184959, , 
65.49, 0.184743, , 
65.52, 0.184480, , 
65.55, 0.184324, , 
65.58, 0.184137, , 
65.61, 0.183931, , 
65.64, 0.183661, , 
65.67, 0.183395, , 
65.70, 0.183189, , 
65.73, 0.182973, , 
65.76, 0.182751, , 
65.79, 0.182551, , 
65.82, 0.182412, , 
65.85, 0.182259, , 
65.88, 0.182044, , 
65.91, 0.181831, , 
65.94, 0.181676, , 
65.97, 0.181422, , 
66.00, 0.181168, , 
66.03, 0.180924, , 
66.06, 0.180616, , 
66.09, 0.180382, , 
66.12, 0.180014, , 
66.15, 0.179852, , 
66.18, 0.179633, , 
66.21, 0.179376, , 
66.24, 0.179167, , 
66.28, 0.178783, , 
66.30, 0.178567, , 
66.33, 0.178247, , 
66.36, 0.177955, , 
66.39, 0.177743, , 
66.42, 0.177524, , 
66.45, 0.177260, , 
66.48, 0.176965, , 
66.51, 0.176797, , 
66.54, 0.176588, , 
66.57, 0.176413, , 
66.60, 0.176109, , 
66.63, 0.175862, , 
66.66, 0.175665, , 
66.69, 0.175408, , 
66.72, 0.175227, , 
66.75, 0.175084, , 
66.78, 0.174907, , 
66.81, 0.174736, , 
66.84, 0.174514, , 
66.87, 0.174307, , 
66.90, 0.174168, , 
66.93, 0.173892, , 
66.96, 0.173651, , 
66.99, 0.173397, , 
67.02, 0.173200, , 
67.05, 0.173000, , 
67.08, 0.172725, , 
67.11, 0.172594, , 
67.14, 0.172423, , 
67.17, 0.172227, , 
67.19, 0.172109, 21, 0.584
67.20, 0.172017, , 
67.23, 0.171792, , 
67.26, 0.171611, , 
67.29, 0.171338, , 
67.32, 0.171116, , 
67.35, 0.170901, , 
67.38, 0.170733, , 
67.41, 0.170428, , 
67.44, 0.170146, , 
67.47, 0.169971, , 
67.50, 0.169724, , 
67.53, 0.169489, , 
67.56, 0.169264, , 
67.59, 0.168991, , 
67.62, 0.168826, , 
67.65, 0.168655, , 
67.68, 0.168553, , 
67.71, 0.168347, , 
67.74, 0.168166, , 
67.77, 0.167929, , 
67.80, 0.167684, , 
67.83, 0.167516, , 
67.86, 0.167351, , 
67.89, 0.167129, , 
67.92, 0.166964, , 
67.95, 0.166768, , 
67.98, 0.166596, , 
68.01, 0.166419, , 
68.04, 0.166114, , 
68.08, 0.165937, , 
68.10, 0.165768, , 
68.13, 0.165588, , 
68.16, 0.165426, , 
68.19, 0.165191, , 
68.22, 0.164982, , 
68.25, 0.164703, , 
68.29, 0.164484, , 
68.31, 0.164354, , 
68.34, 0.164087, , 
68.37, 0.163856, , 
68.40, 0.163650, , 
68.43, 0.163535, , 
68.46, 0.163370, , 
68.49, 0.163148, , 
68.52, 0.162920, , 
68.55, 0.162771, , 
68.58, 0.162622, , 
68.61, 0.162457, , 
68.64, 0.162305, , 
68.67, 0.162048, , 
68.70, 0.161838, , 
68.73, 0.161667, , 
68.76, 0.161480, , 
68.79, 0.161391, , 
68.82, 0.161144, , 
68.85, 0.160915, , 
68.88, 0.160747, , 
68.91, 0.160633, , 
68.94, 0.160513, , 
68.97, 0.160252, , 
69.00, 0.160027, , 
69.03, 0.159862, , 
69.06, 0.159704, , 
69.09, 0.159555, , 
69.12, 0.159371, , 
69.15, 0.159180, , 
69.18, 0.158936, , 
69.21, 0.158714, , 
69.25, 0.158603, , 
69.27, 0.158479, , 
69.30, 0.158248, , 
69.33, 0.158042, , 
69.36, 0.157823, , 
69.39, 0.157715, , 
69.42, 0.157528, , 
69.46, 0.157271, , 
69.48, 0.157106, , 
69.51, 0.156890, , 
69.54, 0.156754, , 
69.57, 0.156554, , 
69.60, 0.156361, , 
69.63, 0.156227, , 
69.66, 0.156091, , 
69.69, 0.155955, , 
69.72, 0.155758, , 
69.75, 0.155644, , 
69.78, 0.155482, , 
69.81, 0.155225, , 
69.84, 0.155082, , 
69.87, 0.154936, , 
69.90, 0.154692, , 
69.93, 0.154457, , 
69.96, 0.154207, , 
69.99, 0.154023, , 
70.02, 0.153769, , 
70.05, 0.153585, , 
70.08, 0.153484, , 
70.11, 0.153312, , 
70.14, 0.153154, , 
70.17, 0.152973, , 
70.20, 0.152814, , 
70.23, 0.152694, , 
70.26, 0.152507, , 
70.29, 0.152430, , 
70.32, 0.152256, , 
70.35, 0.152088, , 
70.38, 0.151907, 22, 0.585
70.39, 0.151875, , 
70.41, 0.151729, , 
70.44, 0.151650, , 
70.47, 0.151536, , 
70.50, 0.151304, , 
70.53, 0.151127, , 
70.56, 0.150987, , 
70.59, 0.150835, , 
70.62, 0.150695, , 
70.65, 0.150416, , 
70.68, 0.150248, , 
70.71, 0.150083, , 
70.74, 0.149941, , 
70.77, 0.149804, , 
70.80, 0.149538, , 
70.83, 0.149354, , 
70.86, 0.149075, , 
70.89, 0.148865, , 
70.92, 0.148770, , 
70.95, 0.148561, , 
70.98, 0.148383, , 
71.01, 0.148158, , 
71.04, 0.147990, , 
71.07, 0.147777, , 
71.10, 0.147533, , 
71.13, 0.147340, , 
71.16, 0.147216, , 
71.19, 0.147032, , 
71.22, 0.146832, , 
71.25, 0.146711, , 
71.28, 0.146566, , 
71.31, 0.146397, , 
71.34, 0.146175, , 
71.37, 0.145941, , 
71.40, 0.145741, , 
71.43, 0.145538, , 
71.46, 0.145284, , 
71.49, 0.145116, , 
71.52, 0.145018, , 
71.55, 0.144856, , 
71.58, 0.144612, , 
71.61, 0.144364, , 
71.64, 0.144174, , 
71.67, 0.143965, , 
71.70, 0.143714, , 
71.73, 0.143467, , 
71.76, 0.143314, , 
71.79, 0.143168, , 
71.82, 0.142969, , 
71.85, 0.142766, , 
71.88, 0.142607, , 
71.91, 0.142398, , 
71.94, 0.142157, , 
71.97, 0.141950, , 
72.00, 0.141801, , 
72.03, 0.141636, , 
72.06, 0.141414, , 
72.09, 0.141202, , 
72.12, 0.141034, , 
72.15, 0.140853, , 
72.18, 0.140634, , 
72.21, 0.140488, , 
72.24, 0.140330, , 
72.27, 0.140241, , 
72.30, 0.140044, , 
72.33, 0.139857, , 
72.36, 0.139755, , 
72.39, 0.139546, , 
72.42, 0.139315, , 
72.45, 0.139159, , 
72.48, 0.139039, , 
72.51, 0.138851, , 
72.54, 0.138687, , 
72.57, 0.138579, , 
72.60, 0.138417, , 
72.63, 0.138230, , 
72.66, 0.137995, , 
72.69, 0.137735, , 
72.72, 0.137564, , 
72.76, 0.137376, , 
72.78, 0.137272, , 
72.81, 0.137059, , 
72.84, 0.136853, , 
72.87, 0.136641, , 
72.90, 0.136393, , 
72.93, 0.136139, , 
72.96, 0.135952, , 
72.99, 0.135746, , 
73.02, 0.135483, , 
73.05, 0.135356, , 
73.08, 0.135223, , 
73.11, 0.135004, , 
73.14, 0.134817, , 
73.17, 0.134709, , 
73.20, 0.134563, , 
73.23, 0.134331, , 
73.26, 0.134132, , 
73.29, 0.133998, , 
73.32, 0.133808, , 
73.35, 0.133646, , 
73.38, 0.133450, , 
73.41, 0.133320, , 
73.44, 0.133196, , 
73.47, 0.132961, , 
73.50, 0.132793, , 
73.53, 0.132603, , 
73.56, 0.132390, , 
73.59, 0.132200, 23, 0.587
73.60, 0.132159, , 
73.62, 0.131956, , 
73.65, 0.131765, , 
73.68, 0.131616, , 
73.71, 0.131442, , 
73.74, 0.131232, , 
73.77, 0.131004, , 
73.80, 0.130817, , 
73.83, 0.130570, , 
73.86, 0.130335, , 
73.89, 0.130224, , 
73.92, 0.130072, , 
73.95, 0.129859, , 
73.98, 0.129650, , 
74.01, 0.129466, , 
74.04, 0.129301, , 
74.07, 0.129155, , 
74.10, 0.128917, , 
74.13, 0.128777, , 
74.16, 0.128555, , 
74.19, 0.128327, , 
74.22, 0.128067, , 
74.25, 0.127924, , 
74.28, 0.127778, , 
74.31, 0.127543, , 
74.34, 0.127398, , 
74.37, 0.127163, , 
74.40, 0.126988, , 
74.43, 0.126709, , 
74.46, 0.126487, , 
74.49, 0.126278, , 
74.52, 0.126011, , 
74.55, 0.125878, , 
74.58, 0.125618, , 
74.61, 0.125402, , 
74.64, 0.125263, , 
74.67, 0.125066, , 
74.70, 0.124920, , 
74.74, 0.124736, , 
74.76, 0.124505, , 
74.79, 0.124276, , 
74.82, 0.124023, , 
74.85, 0.123832, , 
74.88, 0.123683, , 
74.91, 0.123376, , 
74.94, 0.123271, , 
74.97, 0.123122, , 
75.00, 0.122973, , 
75.03, 0.122738, , 
75.06, 0.122497, , 
75.09, 0.122376, , 
75.12, 0.122167, , 
75.15, 0.121974, , 
75.19, 0.121875, , 
75.21, 0.121644, , 
75.24, 0.121441, , 
75.27, 0.121307, , 
75.30, 0.121123, , 
75.33, 0.121028, , 
75.36, 0.120822, , 
75.40, 0.120648, , 
75.42, 0.120508, , 
75.45, 0.120419, , 
75.48, 0.120267, , 
75.51, 0.120036, , 
75.54, 0.119864, , 
75.57, 0.119671, , 
75.60, 0.119474, , 
75.63, 0.119306, , 
75.66, 0.119208, , 
75.69, 0.118998, , 
75.72, 0.118856, , 
75.75, 0.118703, , 
75.78, 0.118538, , 
75.81, 0.118427, , 
75.84, 0.118231, , 
75.87, 0.118063, , 
75.90, 0.117955, , 
75.93, 0.117831, , 
75.96, 0.117641, , 
75.99, 0.117479, , 
76.02, 0.117365, , 
76.05, 0.117162, , 
76.08, 0.116981, , 
76.11, 0.116873, , 
76.14, 0.116787, , 
76.17, 0.116575, , 
76.20, 0.116416, , 
76.23, 0.116274, , 
76.26, 0.116125, , 
76.29, 0.115972, , 
76.32, 0.115811, , 
76.35, 0.115633, , 
76.38, 0.115484, , 
76.41, 0.115284, , 
76.44, 0.115148, , 
76.47, 0.114926, , 
76.50, 0.114780, , 
76.53, 0.114589, , 
76.56, 0.114367, , 
76.59, 0.114145, , 
76.62, 0.113949, , 
76.65, 0.113746, , 
76.68, 0.113527, , 
76.71, 0.113387, , 
76.74, 0.113216, , 
76.77, 0.113029, , 
76.78, 0.112962, 24, 0.584
76.80, 0.112807, , 
76.84, 0.112648, , 
76.86, 0.112524, , 
76.89, 0.112410, , 
76.92, 0.112353, , 
76.95, 0.112185, , 
76.98, 0.112071, , 
77.01, 0.111915, , 
77.05, 0.111697, , 
77.07, 0.111557, , 
77.10, 0.111459, , 
77.13, 0.111363, , 
77.16, 0.111252, , 
77.19, 0.111119, , 
77.22, 0.111024, , 
77.25, 0.110923, , 
77.28, 0.110675, , 
77.31, 0.110526, , 
77.34, 0.110399, , 
77.37, 0.110218, , 
77.40, 0.109984, , 
77.43, 0.109755, , 
77.46, 0.109492, , 
77.49, 0.109203, , 
77.52, 0.108870, , 
77.56, 0.108667, , 
77.58, 0.108436, , 
77.61, 0.108233, , 
77.64, 0.107982, , 
77.67, 0.107728, , 
77.70, 0.107522, , 
77.73, 0.107237, , 
77.76, 0.107164, , 
77.79, 0.106907, , 
77.82, 0.106628, , 
77.85, 0.106349, , 
77.88, 0.106123, , 
77.91, 0.105905, , 
77.94, 0.105714, , 
77.97, 0.105448, , 
78.00, 0.105223, , 
78.03, 0.105020, , 
78.06, 0.104851, , 
78.09, 0.104556, , 
78.12, 0.104271, , 
78.15, 0.104119, , 
78.18, 0.103935, , 
78.21, 0.103821, , 
78.24, 0.103586, , 
78.27, 0.103392, , 
78.30, 0.103193, , 
78.33, 0.102948, , 
78.36, 0.102761, , 
78.39, 0.102552, , 
78.42, 0.102298, , 
78.45, 0.102057, , 
78.48, 0.101794, , 
78.51, 0.101648, , 
78.54, 0.101369, , 
78.58, 0.101096, , 
78.60, 0.100925, , 
78.63, 0.100693, , 
78.66, 0.100455, , 
78.69, 0.100239, , 
78.72, 0.100008, , 
78.75, 0.099805, , 
78.78, 0.099621, , 
78.81, 0.099500, , 
78.84, 0.099278, , 
78.87, 0.099117, , 
78.90, 0.098987, , 
78.93, 0.098742, , 
78.96, 0.098663, , 
78.99, 0.098479, , 
79.02, 0.098184, , 
79.05, 0.098029, , 
79.08, 0.097892, , 
79.11, 0.097721, , 
79.14, 0.097499, , 
79.17, 0.097245, , 
79.20, 0.097093, , 
79.23, 0.096865, , 
79.26, 0.096731, , 
79.29, 0.096414, , 
79.32, 0.096141, , 
79.35, 0.095919, , 
79.38, 0.095555, , 
79.41, 0.095310, , 
79.44, 0.095069, , 
79.47, 0.094781, , 
79.50, 0.094559, , 
79.53, 0.094302, , 
79.56, 0.094089, , 
79.59, 0.093839, , 
79.62, 0.093509, , 
79.65, 0.093220, , 
79.68, 0.092954, , 
79.71, 0.092728, , 
79.74, 0.092548, , 
79.77, 0.092186, , 
79.81, 0.091992, , 
79.83, 0.091701, , 
79.86, 0.091383, , 
79.89, 0.091136, , 
79.92, 0.090851, , 
79.95, 0.090613, , 
79.97, 0.090384, 25, 0.585
79.98, 0.090292, , 
80.02, 0.090039, , 
80.04, 0.089934, , 
80.07, 0.089518, , 
80.10, 0.089239, , 
80.13, 0.088995, , 
80.16, 0.088722, , 
80.19, 0.088405, , 
80.22, 0.088100, , 
80.25, 0.087859, , 
80.28, 0.087612, , 
80.31, 0.087339, , 
80.34, 0.087051, , 
80.37, 0.086740, , 
80.40, 0.086508, , 
80.43, 0.086258, , 
80.46, 0.086013, , 
80.49, 0.085814, , 
80.52, 0.085617, , 
80.55, 0.085306, , 
80.58, 0.085065, , 
80.61, 0.084865, , 
80.64, 0.084710, , 
80.67, 0.084412, , 
80.70, 0.084113, , 
80.73, 0.083822, , 
80.76, 0.083574, , 
80.79, 0.083314, , 
80.82, 0.083121, , 
80.85, 0.082876, , 
80.88, 0.082676, , 
80.91, 0.082359, , 
80.94, 0.082125, , 
80.97, 0.081899, , 
81.00, 0.081750, , 
81.03, 0.081541, , 
81.06, 0.081405, , 
81.09, 0.081271, , 
81.12, 0.081037, , 
81.15, 0.080821, , 
81.18, 0.080532, , 
81.21, 0.080374, , 
81.24, 0.080129, , 
81.27, 0.079831, , 
81.30, 0.079650, , 
81.33, 0.079273, , 
81.36, 0.078994, , 
81.39, 0.078731, , 
81.42, 0.078512, , 
81.45, 0.078328, , 
81.48, 0.078084, , 
81.51, 0.077801, , 
81.54, 0.077570, , 
81.57, 0.077367, , 
81.60, 0.077110, , 
81.63, 0.076954, , 
81.66, 0.076688, , 
81.69, 0.076475, , 
81.72, 0.076250, , 
81.75, 0.076092, , 
81.78, 0.075974, , 
81.81, 0.075771, , 
81.84, 0.075581, , 
81.87, 0.075311, , 
81.90, 0.075115, , 
81.93, 0.074915, , 
81.96, 0.074651, , 
81.99, 0.074410, , 
82.02, 0.074252, , 
82.05, 0.074093, , 
82.08, 0.074017, , 
82.11, 0.073716, , 
82.14, 0.073529, , 
82.17, 0.073297, , 
82.20, 0.073056, , 
82.23, 0.072831, , 
82.26, 0.072621, , 
82.29, 0.072447, , 
82.32, 0.072155, , 
82.35, 0.071905, , 
82.38, 0.071790, , 
82.41, 0.071489, , 
82.44, 0.071213, , 
82.47, 0.070985, , 
82.50, 0.070804, , 
82.53, 0.070753, , 
82.56, 0.070480, , 
82.59, 0.070300, , 
82.62, 0.070122, , 
82.65, 0.069928, , 
82.68, 0.069722, , 
82.71, 0.069535, , 
82.74, 0.069377, , 
82.77, 0.069243, , 
82.80, 0.068967, , 
82.83, 0.068825, , 
82.86, 0.068542, , 
82.89, 0.068323, , 
82.92, 0.068076, , 
82.95, 0.067876, , 
82.98, 0.067746, , 
83.01, 0.067540, , 
83.04, 0.067353, , 
83.07, 0.067188, , 
83.10, 0.066991, , 
83.13, 0.066823, , 
83.16, 0.066633, , 
83.19, 0.066493, 26, 0.588
83.19, 0.066465, , 
83.22, 0.066331, , 
83.25, 0.066103, , 
83.28, 0.065853, , 
83.31, 0.065726, , 
83.34, 0.065688, , 
83.37, 0.065561, , 
83.40, 0.065351, , 
83.43, 0.065209, , 
83.46, 0.065031, , 
83.49, 0.064838, , 
83.52, 0.064657, , 
83.55, 0.064527, , 
83.58, 0.064374, , 
83.61, 0.064232, , 
83.64, 0.064130, , 
83.67, 0.063886, , 
83.70, 0.063746, , 
83.73, 0.063635, , 
83.76, 0.063455, , 
83.79, 0.063305, , 
83.82, 0.063233, , 
83.85, 0.063055, , 
83.88, 0.062855, , 
83.91, 0.062703, , 
83.94, 0.062617, , 
83.97, 0.062421, , 
84.00, 0.062243, , 
84.03, 0.062119, , 
84.06, 0.061957, , 
84.09, 0.061780, , 
84.13, 0.061666, , 
84.15, 0.061532, , 
84.18, 0.061399, , 
84.21, 0.061253, , 
84.24, 0.061158, , 
84.27, 0.061072, , 
84.30, 0.060936, , 
84.34, 0.060787, , 
84.36, 0.060679, , 
84.39, 0.060641, , 
84.42, 0.060638, , 
84.45, 0.060613, , 
84.48, 0.060584, , 
84.51, 0.060533, , 
84.54, 0.060413, , 
84.57, 0.060260, , 
84.60, 0.060175, , 
84.63, 0.060140, , 
84.67, 0.060121, , 
84.69, 0.060023, , 
84.72, 0.059867, , 
84.75, 0.059743, , 
84.78, 0.059712, , 
84.81, 0.059639, , 
84.84, 0.059591, , 
84.87, 0.059604, , 
84.90, 0.059613, , 
84.93, 0.059610, , 
84.96, 0.059626, , 
84.99, 0.059686, , 
85.02, 0.059797, , 
85.05, 0.059924, , 
85.08, 0.059975, , 
85.11, 0.060032, , 
85.14, 0.060070, , 
85.17, 0.060076, , 
85.20, 0.060143, , 
85.23, 0.060337, , 
85.26, 0.060473, , 
85.29, 0.060543, , 
85.32, 0.060670, , 
85.35, 0.060803, , 
85.38, 0.060879, , 
85.41, 0.061038, , 
85.44, 0.061190, , 
85.47, 0.061444, , 
85.50, 0.061659, , 
85.53, 0.061834, , 
85.56, 0.062034, , 
85.59, 0.062271, , 
85.62, 0.062538, , 
85.65, 0.062731, , 
85.68, 0.062890, , 
85.71, 0.063255, , 
85.74, 0.063496, , 
85.77, 0.063661, , 
85.80, 0.063867, , 
85.83, 0.064117, , 
85.86, 0.064343, , 
85.89, 0.064441, , 
85.92, 0.064635, , 
85.95, 0.064822, , 
85.98, 0.064949, , 
86.01, 0.065240, , 
86.04, 0.065453, , 
86.07, 0.065719, , 
86.10, 0.065872, , 
86.13, 0.065973, , 
86.17, 0.066186, , 
86.19, 0.066325, , 
86.22, 0.066465, , 
86.25, 0.066623, , 
86.28, 0.066769, , 
86.31, 0.066931, , 
86.34, 0.067083, , 
86.37, 0.067210, , 
86.38, 0.067248, 27, 0.585
86.40, 0.067327, , 
86.43, 0.067439, , 
86.46, 0.067543, , 
86.49, 0.067695, , 
86.52, 0.067829, , 
86.55, 0.067997, , 
86.58, 0.068155, , 
86.61, 0.068266, , 
86.64, 0.068381, , 
86.67, 0.068485, , 
86.70, 0.068590, , 
86.73, 0.068749, , 
86.76, 0.068853, , 
86.79, 0.068958, , 
86.82, 0.068990, , 
86.85, 0.069034, , 
86.88, 0.069186, , 
86.91, 0.069247, , 
86.94, 0.069446, , 
86.97, 0.069595, , 
87.00, 0.069745, , 
87.03, 0.069894, , 
87.06, 0.069938, , 
87.09, 0.069963, , 
87.12, 0.070014, , 
87.15, 0.070131, , 
87.18, 0.070242, , 
87.21, 0.070334, , 
87.24, 0.070404, , 
87.27, 0.070582, , 
87.30, 0.070712, , 
87.33, 0.070829, , 
87.36, 0.070912, , 
87.39, 0.071010, , 
87.42, 0.071007, , 
87.45, 0.071004, , 
87.48, 0.071029, , 
87.51, 0.071070, , 
87.54, 0.071064, , 
87.57, 0.071029, , 
87.60, 0.071048, , 
87.63, 0.071099, , 
87.66, 0.071146, , 
87.69, 0.071200, , 
87.72, 0.071375, , 
87.75, 0.071454, , 
87.78, 0.071511, , 
87.81, 0.071483, , 
87.84, 0.071502, , 
87.87, 0.071556, , 
87.90, 0.071581, , 
87.93, 0.071584, , 
87.96, 0.071594, , 
87.99, 0.071600, , 
88.03, 0.071616, , 
88.05, 0.071727, , 
88.08, 0.071851, , 
88.11, 0.071971, , 
88.14, 0.072003, , 
88.17, 0.072016, , 
88.20, 0.072133, , 
88.23, 0.072250, , 
88.26, 0.072361, , 
88.29, 0.072403, , 
88.32, 0.072498, , 
88.35, 0.072529, , 
88.38, 0.072393, , 
88.41, 0.072234, , 
88.44, 0.072215, , 
88.47, 0.072155, , 
88.50, 0.072203, , 
88.53, 0.072307, , 
88.56, 0.072476, , 
88.59, 0.072637, , 
88.62, 0.072847, , 
88.65, 0.073249, , 
88.68, 0.073820, , 
88.71, 0.074290, , 
88.74, 0.074775, , 
88.77, 0.075000, , 
88.80, 0.075527, , 
88.83, 0.075800, , 
88.86, 0.075971, , 
88.89, 0.076187, , 
88.92, 0.076450, , 
88.95, 0.076691, , 
88.98, 0.077049, , 
89.01, 0.077690, , 
89.04, 0.080431, , 
89.07, 0.085753, , 
89.10, 0.091158, , 
89.13, 0.097112, , 
89.16, 0.103614, , 
89.19, 0.109555, , 
89.22, 0.116210, , 
89.25, 0.118367, , 
89.28, 0.121127, , 
89.31, 0.121079, , 
89.34, 0.120153, , 
89.38, 0.119008, , 
89.40, 0.118012, , 
89.43, 0.116562, , 
89.46, 0.115246, , 
89.49, 0.113926, , 
89.52, 0.112204, , 
89.55, 0.109673, , 
89.59, 0.104978, , 
89.61, 0.097810, , 
89.64, 0.091107, , 
89.67, 0.083019, , 
89.70, 0.074613, , 
89.73, 0.067854, , 
89.76, 0.059804, , 
89.79, 0.056150, , 
89.82, 0.054043, , 
89.85, 0.052994, , 
89.88, 0.052556, , 
89.91, 0.052521, , 
89.94, 0.052645, , 
89.97, 0.052851, , 
90.01, 0.053111, , 
90.03, 0.053292, , 
90.06, 0.053653, , 
90.09, 0.053875, , 
90.12, 0.054062, , 
90.15, 0.054135, , 
90.18, 0.054129, , 
90.21, 0.054116, , 
90.24, 0.054069, , 
90.27, 0.054154, , 
90.30, 0.054383, , 
90.33, 0.054694, , 
90.36, 0.054916, , 
90.39, 0.054947, , 
90.42, 0.054840, , 
90.45, 0.054741, , 
90.48, 0.054681, , 
90.51, 0.054649, , 
90.54, 0.054627, , 
90.57, 0.054776, , 
90.60, 0.055087, , 
90.63, 0.055401, , 
90.66, 0.055737, , 
90.69, 0.056048, , 
90.72, 0.056308, , 
90.75, 0.056486, , 
90.78, 0.056629, , 
90.81, 0.056892, , 
90.84, 0.057095, , 
90.87, 0.057612, , 
90.90, 0.057992, , 
90.93, 0.058525, , 
90.96, 0.059198, , 
90.99, 0.059750, , 
91.02, 0.060283, , 
91.05, 0.060692, , 
91.09, 0.061088, , 
91.11, 0.061371, , 
91.14, 0.061475, , 
91.17, 0.061532, , 
91.20, 0.061570, , 
91.23, 0.061669, , 
91.26, 0.061821, , 
91.30, 0.061967, , 
91.32, 0.062208, , 
91.35, 0.062322, , 
91.38, 0.062278, , 
91.41, 0.062183, , 
91.44, 0.062157, , 
91.47, 0.062100, , 
91.50, 0.062081, , 
91.53, 0.062214, , 
91.56, 0.062363, , 
91.59, 0.062382, , 
91.62, 0.062329, , 
91.65, 0.062379, , 
91.68, 0.062624, , 
91.71, 0.063090, , 
91.74, 0.063413, , 
91.77, 0.063835, , 
91.80, 0.064178, , 
91.83, 0.064428, , 
91.86, 0.064460, , 
91.89, 0.064409, , 
91.92, 0.064454, , 
91.95, 0.064543, , 
91.98, 0.064650, , 
92.01, 0.064860, , 
92.04, 0.064933, , 
92.07, 0.064831, , 
92.10, 0.064489, , 
92.13, 0.064387, , 
92.16, 0.064419, , 
92.19, 0.064406, , 
92.22, 0.064232, , 
92.25, 0.063949, , 
92.28, 0.063692, , 
92.31, 0.063410, , 
92.34, 0.063115, , 
92.38, 0.063087, , 
92.40, 0.063122, , 
92.43, 0.063160, , 
92.46, 0.063134, , 
92.49, 0.063058, , 
92.52, 0.062820, , 
92.55, 0.062611, , 
92.58, 0.062449, , 
92.61, 0.062401, , 
92.64, 0.062287, , 
92.67, 0.062145, , 
92.70, 0.061995, , 
92.73, 0.061831, , 
92.76, 0.061700, , 
92.79, 0.061602, , 
92.82, 0.061466, , 
92.85, 0.061250, , 
92.88, 0.061082, , 
92.91, 0.060578, , 
92.94, 0.060356, , 
92.97, 0.060111, , 
93.00, 0.059842, , 
93.03, 0.059597, , 
93.06, 0.059302, , 
93.09, 0.059128, , 
93.12, 0.059071, , 
93.15, 0.059141, , 
93.18, 0.059176, , 
93.21, 0.059382, , 
93.24, 0.059636, , 
93.27, 0.059873, , 
93.30, 0.060089, , 
93.33, 0.060226, , 
93.37, 0.060279, , 
93.39, 0.060298, , 
93.42, 0.060206, , 
93.45, 0.060083, , 
93.48, 0.059956, , 
93.51, 0.059845, , 
93.54, 0.059823, , 
93.57, 0.059766, , 
93.60, 0.059674, , 
93.63, 0.059436, , 
93.66, 0.059153, , 
93.69, 0.058722, , 
93.72, 0.058329, , 
93.75, 0.057815, , 
93.78, 0.057412, , 
93.81, 0.057076, , 
93.84, 0.056682, , 
93.87, 0.056432, , 
93.90, 0.056270, , 
93.93, 0.056140, , 
93.96, 0.056042, , 
93.99, 0.055836, , 
94.02, 0.055756, , 
94.05, 0.055683, , 
94.08, 0.055569, , 
94.11, 0.055426, , 
94.14, 0.055388, , 
94.17, 0.055236, , 
94.20, 0.055135, , 
94.23, 0.054932, , 
94.26, 0.054798, , 
94.29, 0.054757, , 
94.32, 0.054646, , 
94.35, 0.054481, , 
94.38, 0.054323, , 
94.41, 0.054275, , 
94.44, 0.054246, , 
94.47, 0.054132, , 
94.50, 0.054018, , 
94.53, 0.053926, , 
94.56, 0.053831, , 
94.59, 0.053720, , 
94.62, 0.053580, , 
94.65, 0.053485, , 
94.68, 0.053333, , 
94.72, 0.053228, , 
94.74, 0.053177, , 
94.77, 0.053019, , 
94.80, 0.052911, , 
94.83, 0.052775, , 
94.86, 0.052702, , 
94.89, 0.052597, , 
94.92, 0.052489, , 
94.95, 0.052324, , 
94.98, 0.052191, , 
95.01, 0.052124, , 
95.04, 0.051982, , 
95.07, 0.051810, , 
95.10, 0.051728, , 
95.13, 0.051658, , 
95.16, 0.051531, , 
95.19, 0.051357, , 
95.22, 0.051293, , 
95.25, 0.051214, , 
95.28, 0.051071, , 
95.31, 0.050871, , 
95.34, 0.050773, , 
95.37, 0.050703, , 
95.40, 0.050665, , 
95.43, 0.050630, , 
95.46, 0.050621, , 
95.49, 0.050592, , 
95.52, 0.050421, , 
95.55, 0.050301, , 
95.58, 0.050218, , 
95.61, 0.050186, , 
95.64, 0.050170, , 
95.67, 0.050123, , 
95.70, 0.050091, , 
95.73, 0.050101, , 
95.76, 0.050120, , 
95.79, 0.050034, , 
95.82, 0.049898, , 
95.85, 0.049841, , 
95.88, 0.049704, , 
95.91, 0.049631, , 
95.94, 0.049603, , 
95.97, 0.049625, , 
96.00, 0.049609, , 
