Gradient Profiler Text Data File: 5-C5_eIF3b_DMSO_061825.csv
Date: 2025-06-18
Time: 15:13:16

User: Karen
Experiment name: 
UV Unit: EM-1
Rotor Manufacturer: Beckman
Rotor Model: SW28.1
Speed: 28 rpm
Gradient: sucrose 10.0% to 50.0% w/v
Time: 4
w2t:  x 10^0
Sample Volume: 18 ml
Number of Tubes: 6
Volume per mm: 0.183 ml/mm

Absorbance Units Full Scale (AUFS): 2.00
Event Mark-triggered gradient; (with distance; auto start and stop)
Delay: No Delay
UV Wavelength: 254 nm
Samples / sec: 10 Hz
EM1 Speed: 0.30 mm/sec
Distance: 3.20 mm
Number: 30
Dead Volume: 0.000000 ml; Distance due to Dead Volume: 0.00 mm
Total Distance: 96.00 mm

Data Columns:
Distance(mm), Absorbance, Fraction Number, Fraction Volume(ml)
0.00, 0.079432, 0, 0.000
0.03, 0.079451, , 
0.06, 0.079463, , 
0.09, 0.079422, , 
0.12, 0.079406, , 
0.15, 0.079419, , 
0.18, 0.079641, , 
0.21, 0.080209, , 
0.24, 0.081052, , 
0.27, 0.082093, , 
0.30, 0.082800, , 
0.33, 0.083504, , 
0.36, 0.083983, , 
0.39, 0.084434, , 
0.42, 0.084868, , 
0.45, 0.085135, , 
0.48, 0.085452, , 
0.51, 0.085709, , 
0.55, 0.086454, , 
0.57, 0.088763, , 
0.60, 0.095884, , 
0.63, 0.113641, , 
0.66, 0.158197, , 
0.69, 0.219634, , 
0.72, 0.312074, , 
0.75, 0.387046, , 
0.78, 0.483086, , 
0.81, 0.599864, , 
0.84, 0.702358, , 
0.87, 0.823196, , 
0.90, 0.927496, , 
0.93, 1.032255, , 
0.96, 1.137396, , 
0.99, 1.242821, , 
1.02, 1.365778, , 
1.05, 1.471207, , 
1.08, 1.576119, , 
1.11, 1.695536, , 
1.14, 1.791017, , 
1.17, 1.872390, , 
1.20, 1.933649, , 
1.23, 1.974536, , 
1.26, 2.002525, , 
1.29, 2.015568, , 
1.32, 2.023672, , 
1.35, 2.027301, , 
1.38, 2.029036, , 
1.41, 2.030384, , 
1.44, 2.031107, , 
1.47, 2.031583, , 
1.50, 2.031935, , 
1.53, 2.032068, , 
1.56, 2.032278, , 
1.59, 2.032506, , 
1.62, 2.032585, , 
1.65, 2.032642, , 
1.68, 2.032731, , 
1.71, 2.032849, , 
1.74, 2.032925, , 
1.77, 2.032925, , 
1.80, 2.033010, , 
1.83, 2.033118, , 
1.86, 2.033144, , 
1.89, 2.033144, , 
1.92, 2.033229, , 
1.95, 2.033274, , 
1.98, 2.033248, , 
2.01, 2.033248, , 
2.04, 2.033324, , 
2.07, 2.033372, , 
2.10, 2.033353, , 
2.13, 2.033385, , 
2.16, 2.033451, , 
2.19, 2.033480, , 
2.22, 2.033458, , 
2.25, 2.033467, , 
2.28, 2.033524, , 
2.31, 2.033543, , 
2.34, 2.033531, , 
2.37, 2.033562, , 
2.40, 2.033562, , 
2.43, 2.033550, , 
2.46, 2.033578, , 
2.49, 2.033603, , 
2.52, 2.033661, , 
2.55, 2.033657, , 
2.58, 2.033629, , 
2.61, 2.033664, , 
2.64, 2.033711, , 
2.67, 2.033699, , 
2.70, 2.033692, , 
2.73, 2.033702, , 
2.76, 2.033740, , 
2.79, 2.033730, , 
2.82, 2.033676, , 
2.85, 2.033730, , 
2.88, 2.033778, , 
2.91, 2.033768, , 
2.94, 2.033753, , 
2.97, 2.033702, , 
3.00, 2.033778, , 
3.03, 2.033759, , 
3.06, 2.033746, , 
3.09, 2.033768, , 
3.12, 2.033765, , 
3.15, 2.033775, , 
3.18, 2.033759, , 
3.19, 2.033756, 1, 0.584
3.21, 2.033787, , 
3.24, 2.033845, , 
3.27, 2.033800, , 
3.30, 2.033794, , 
3.33, 2.033860, , 
3.36, 2.033870, , 
3.39, 2.033857, , 
3.42, 2.033768, , 
3.45, 2.033810, , 
3.48, 2.033873, , 
3.51, 2.033870, , 
3.54, 2.033848, , 
3.57, 2.033867, , 
3.60, 2.033740, , 
3.63, 2.033172, , 
3.66, 2.031926, , 
3.69, 2.029857, , 
3.72, 2.026175, , 
3.76, 2.021683, , 
3.78, 2.015895, , 
3.81, 2.008872, , 
3.84, 2.000606, , 
3.87, 1.989548, , 
3.90, 1.978929, , 
3.93, 1.967351, , 
3.96, 1.952488, , 
3.99, 1.940970, , 
4.02, 1.923566, , 
4.05, 1.907535, , 
4.08, 1.887672, , 
4.11, 1.869649, , 
4.14, 1.850986, , 
4.17, 1.831945, , 
4.20, 1.812745, , 
4.23, 1.790262, , 
4.26, 1.771202, , 
4.29, 1.752370, , 
4.32, 1.730550, , 
4.36, 1.712026, , 
4.38, 1.693655, , 
4.41, 1.675511, , 
4.44, 1.654599, , 
4.47, 1.637067, , 
4.50, 1.619951, , 
4.53, 1.600527, , 
4.56, 1.586767, , 
4.59, 1.567668, , 
4.62, 1.551181, , 
4.65, 1.531781, , 
4.69, 1.514964, , 
4.71, 1.498095, , 
4.74, 1.481233, , 
4.77, 1.464216, , 
4.80, 1.444271, , 
4.83, 1.427260, , 
4.86, 1.407774, , 
4.89, 1.394113, , 
4.92, 1.377901, , 
4.95, 1.359101, , 
4.98, 1.343064, , 
5.01, 1.326960, , 
5.04, 1.310742, , 
5.07, 1.291663, , 
5.10, 1.275356, , 
5.13, 1.259036, , 
5.16, 1.240141, , 
5.19, 1.224259, , 
5.22, 1.206135, , 
5.25, 1.193574, , 
5.28, 1.179005, , 
5.31, 1.162714, , 
5.34, 1.149265, , 
5.37, 1.134033, , 
5.40, 1.121330, , 
5.43, 1.108893, , 
5.46, 1.096693, , 
5.49, 1.084570, , 
5.52, 1.070537, , 
5.55, 1.058681, , 
5.58, 1.046970, , 
5.61, 1.033531, , 
5.64, 1.022229, , 
5.67, 1.011175, , 
5.70, 1.000241, , 
5.73, 0.989231, , 
5.76, 0.976344, , 
5.79, 0.965232, , 
5.82, 0.952094, , 
5.85, 0.940821, , 
5.88, 0.929523, , 
5.91, 0.918256, , 
5.94, 0.907056, , 
5.97, 0.895843, , 
6.00, 0.882794, , 
6.03, 0.871733, , 
6.06, 0.860749, , 
6.09, 0.849841, , 
6.12, 0.837327, , 
6.15, 0.826965, , 
6.18, 0.816843, , 
6.21, 0.805323, , 
6.24, 0.797393, , 
6.27, 0.786668, , 
6.30, 0.777682, , 
6.33, 0.768766, , 
6.36, 0.758387, , 
6.39, 0.751038, 2, 0.584
6.39, 0.749579, , 
6.42, 0.739695, , 
6.45, 0.732945, , 
6.48, 0.723740, , 
6.51, 0.715868, , 
6.54, 0.707992, , 
6.57, 0.700078, , 
6.60, 0.692303, , 
6.63, 0.683447, , 
6.66, 0.675933, , 
6.69, 0.667115, , 
6.72, 0.659575, , 
6.75, 0.651975, , 
6.78, 0.644283, , 
6.81, 0.636639, , 
6.84, 0.627913, , 
6.87, 0.620494, , 
6.90, 0.613075, , 
6.93, 0.605453, , 
6.96, 0.596276, , 
6.99, 0.588254, , 
7.02, 0.580252, , 
7.05, 0.572328, , 
7.08, 0.563167, , 
7.11, 0.555491, , 
7.14, 0.546705, , 
7.17, 0.539219, , 
7.20, 0.533101, , 
7.23, 0.524717, , 
7.26, 0.517599, , 
7.29, 0.509527, , 
7.32, 0.502793, , 
7.35, 0.496224, , 
7.38, 0.488725, , 
7.41, 0.483527, , 
7.44, 0.476678, , 
7.47, 0.471197, , 
7.50, 0.465967, , 
7.53, 0.460061, , 
7.56, 0.455103, , 
7.59, 0.449466, , 
7.62, 0.445400, , 
7.65, 0.440544, , 
7.68, 0.435088, , 
7.71, 0.430520, , 
7.74, 0.425128, , 
7.77, 0.420545, , 
7.80, 0.416063, , 
7.83, 0.411590, , 
7.86, 0.407146, , 
7.89, 0.402722, , 
7.92, 0.397605, , 
7.95, 0.393206, , 
7.98, 0.387934, , 
8.01, 0.383303, , 
8.04, 0.378719, , 
8.07, 0.374231, , 
8.10, 0.369781, , 
8.13, 0.364589, , 
8.16, 0.360202, , 
8.19, 0.355802, , 
8.22, 0.351412, , 
8.25, 0.346347, , 
8.28, 0.342106, , 
8.31, 0.337887, , 
8.34, 0.333012, , 
8.37, 0.329650, , 
8.40, 0.325111, , 
8.43, 0.321355, , 
8.46, 0.317774, , 
8.49, 0.313819, , 
8.52, 0.310685, , 
8.55, 0.307678, , 
8.58, 0.304591, , 
8.61, 0.301461, , 
8.64, 0.297784, , 
8.67, 0.294651, , 
8.70, 0.291025, , 
8.73, 0.288043, , 
8.76, 0.285125, , 
8.79, 0.282251, , 
8.82, 0.279447, , 
8.85, 0.276260, , 
8.88, 0.273516, , 
8.91, 0.270664, , 
8.94, 0.267156, , 
8.97, 0.263959, , 
9.00, 0.260704, , 
9.03, 0.257361, , 
9.06, 0.253311, , 
9.09, 0.249844, , 
9.12, 0.246497, , 
9.15, 0.242615, , 
9.18, 0.239833, , 
9.21, 0.236163, , 
9.24, 0.233166, , 
9.27, 0.230251, , 
9.30, 0.226895, , 
9.33, 0.224123, , 
9.37, 0.221065, , 
9.39, 0.218981, , 
9.42, 0.216573, , 
9.45, 0.213991, , 
9.48, 0.212037, , 
9.51, 0.209820, , 
9.54, 0.207958, , 
9.57, 0.206249, , 
9.59, 0.205440, 3, 0.586
9.60, 0.204625, , 
9.63, 0.202969, , 
9.66, 0.201018, , 
9.69, 0.199486, , 
9.72, 0.197999, , 
9.75, 0.196187, , 
9.78, 0.194909, , 
9.81, 0.193136, , 
9.84, 0.191531, , 
9.87, 0.189859, , 
9.90, 0.188140, , 
9.93, 0.186123, , 
9.96, 0.184375, , 
9.99, 0.182326, , 
10.02, 0.180543, , 
10.05, 0.178989, , 
10.08, 0.176797, , 
10.11, 0.174494, , 
10.14, 0.172534, , 
10.17, 0.170698, , 
10.20, 0.168934, , 
10.23, 0.167224, , 
10.26, 0.165312, , 
10.29, 0.163761, , 
10.32, 0.162260, , 
10.35, 0.160579, , 
10.39, 0.159253, , 
10.41, 0.158096, , 
10.44, 0.157017, , 
10.47, 0.155910, , 
10.50, 0.154654, , 
10.53, 0.153699, , 
10.56, 0.152738, , 
10.60, 0.151913, , 
10.62, 0.151228, , 
10.65, 0.150289, , 
10.68, 0.149506, , 
10.71, 0.148624, , 
10.74, 0.147907, , 
10.77, 0.147260, , 
10.80, 0.146588, , 
10.83, 0.145788, , 
10.86, 0.144954, , 
10.89, 0.144285, , 
10.92, 0.143552, , 
10.95, 0.142661, , 
10.98, 0.142033, , 
11.01, 0.141205, , 
11.04, 0.140425, , 
11.07, 0.139556, , 
11.10, 0.138645, , 
11.13, 0.137938, , 
11.16, 0.137062, , 
11.19, 0.136273, , 
11.22, 0.135673, , 
11.25, 0.134953, , 
11.28, 0.134319, , 
11.31, 0.133573, , 
11.34, 0.132990, , 
11.37, 0.132511, , 
11.40, 0.131978, , 
11.43, 0.131594, , 
11.46, 0.131236, , 
11.49, 0.130972, , 
11.52, 0.130582, , 
11.55, 0.130091, , 
11.58, 0.129732, , 
11.61, 0.129358, , 
11.64, 0.129079, , 
11.67, 0.128803, , 
11.70, 0.128559, , 
11.73, 0.128349, , 
11.76, 0.128051, , 
11.79, 0.127826, , 
11.82, 0.127651, , 
11.85, 0.127385, , 
11.88, 0.127036, , 
11.91, 0.126582, , 
11.94, 0.126173, , 
11.97, 0.125748, , 
12.00, 0.125218, , 
12.03, 0.124762, , 
12.06, 0.124343, , 
12.09, 0.123896, , 
12.12, 0.123423, , 
12.15, 0.122932, , 
12.18, 0.122532, , 
12.21, 0.122097, , 
12.25, 0.121552, , 
12.27, 0.121203, , 
12.30, 0.120832, , 
12.33, 0.120543, , 
12.36, 0.120232, , 
12.39, 0.119956, , 
12.42, 0.119744, , 
12.45, 0.119525, , 
12.48, 0.119268, , 
12.51, 0.119119, , 
12.54, 0.119030, , 
12.57, 0.118944, , 
12.60, 0.118732, , 
12.63, 0.118608, , 
12.66, 0.118526, , 
12.69, 0.118342, , 
12.72, 0.118151, , 
12.75, 0.118015, , 
12.78, 0.117879, , 
12.79, 0.117828, 4, 0.586
12.81, 0.117695, , 
12.84, 0.117463, , 
12.87, 0.117314, , 
12.90, 0.117082, , 
12.93, 0.116826, , 
12.96, 0.116603, , 
12.99, 0.116353, , 
13.02, 0.116058, , 
13.05, 0.115608, , 
13.08, 0.115347, , 
13.11, 0.115084, , 
13.14, 0.114738, , 
13.17, 0.114364, , 
13.20, 0.113933, , 
13.23, 0.113692, , 
13.26, 0.113400, , 
13.29, 0.113029, , 
13.32, 0.112731, , 
13.35, 0.112439, , 
13.38, 0.112112, , 
13.41, 0.111782, , 
13.44, 0.111459, , 
13.47, 0.111179, , 
13.50, 0.110900, , 
13.53, 0.110590, , 
13.56, 0.110282, , 
13.59, 0.109904, , 
13.62, 0.109562, , 
13.65, 0.109213, , 
13.68, 0.108858, , 
13.71, 0.108537, , 
13.74, 0.108182, , 
13.77, 0.107725, , 
13.80, 0.107275, , 
13.83, 0.106831, , 
13.86, 0.106390, , 
13.89, 0.105930, , 
13.92, 0.105416, , 
13.95, 0.105026, , 
13.98, 0.104588, , 
14.01, 0.104109, , 
14.04, 0.103649, , 
14.07, 0.103196, , 
14.10, 0.102748, , 
14.13, 0.102209, , 
14.16, 0.101800, , 
14.19, 0.101483, , 
14.22, 0.100960, , 
14.25, 0.100506, , 
14.28, 0.100024, , 
14.31, 0.099592, , 
14.34, 0.099164, , 
14.37, 0.098723, , 
14.40, 0.098371, , 
14.43, 0.098045, , 
14.46, 0.097677, , 
14.49, 0.097274, , 
14.52, 0.096858, , 
14.55, 0.096531, , 
14.58, 0.096221, , 
14.61, 0.095792, , 
14.64, 0.095494, , 
14.67, 0.095057, , 
14.70, 0.094638, , 
14.73, 0.094175, , 
14.76, 0.093731, , 
14.79, 0.093388, , 
14.82, 0.093061, , 
14.85, 0.092678, , 
14.88, 0.092319, , 
14.91, 0.092005, , 
14.94, 0.091485, , 
14.97, 0.091057, , 
15.00, 0.090581, , 
15.03, 0.090197, , 
15.06, 0.089842, , 
15.09, 0.089531, , 
15.12, 0.089160, , 
15.15, 0.088770, , 
15.18, 0.088332, , 
15.21, 0.087977, , 
15.25, 0.087691, , 
15.27, 0.087365, , 
15.30, 0.087025, , 
15.33, 0.086771, , 
15.36, 0.086445, , 
15.39, 0.086124, , 
15.42, 0.085858, , 
15.45, 0.085591, , 
15.48, 0.085347, , 
15.51, 0.085122, , 
15.54, 0.084871, , 
15.57, 0.084580, , 
15.60, 0.084408, , 
15.63, 0.084164, , 
15.66, 0.083904, , 
15.69, 0.083714, , 
15.72, 0.083482, , 
15.75, 0.083301, , 
15.78, 0.083054, , 
15.81, 0.082851, , 
15.84, 0.082718, , 
15.87, 0.082531, , 
15.90, 0.082242, , 
15.93, 0.081975, , 
15.96, 0.081798, , 
15.99, 0.081636, 5, 0.585
15.99, 0.081595, , 
16.02, 0.081398, , 
16.05, 0.081195, , 
16.08, 0.080983, , 
16.11, 0.080802, , 
16.14, 0.080659, , 
16.17, 0.080529, , 
16.20, 0.080370, , 
16.23, 0.080190, , 
16.26, 0.079984, , 
16.30, 0.079869, , 
16.32, 0.079768, , 
16.35, 0.079644, , 
16.38, 0.079587, , 
16.41, 0.079590, , 
16.44, 0.079549, , 
16.47, 0.079413, , 
16.51, 0.079254, , 
16.53, 0.079194, , 
16.56, 0.079146, , 
16.59, 0.079073, , 
16.62, 0.079054, , 
16.65, 0.079054, , 
16.68, 0.079067, , 
16.71, 0.079035, , 
16.74, 0.079048, , 
16.77, 0.079083, , 
16.80, 0.079054, , 
16.83, 0.079054, , 
16.86, 0.079203, , 
16.89, 0.079378, , 
16.92, 0.079419, , 
16.95, 0.079460, , 
16.98, 0.079495, , 
17.01, 0.079558, , 
17.04, 0.079546, , 
17.07, 0.079527, , 
17.10, 0.079606, , 
17.13, 0.079730, , 
17.16, 0.079847, , 
17.19, 0.079926, , 
17.22, 0.080022, , 
17.25, 0.080206, , 
17.28, 0.080329, , 
17.31, 0.080418, , 
17.34, 0.080510, , 
17.37, 0.080751, , 
17.40, 0.080976, , 
17.43, 0.081135, , 
17.46, 0.081392, , 
17.49, 0.081734, , 
17.52, 0.081995, , 
17.55, 0.082217, , 
17.58, 0.082584, , 
17.61, 0.082889, , 
17.64, 0.083152, , 
17.67, 0.083431, , 
17.70, 0.083844, , 
17.73, 0.084243, , 
17.76, 0.084611, , 
17.79, 0.085017, , 
17.82, 0.085455, , 
17.85, 0.086026, , 
17.88, 0.086568, , 
17.91, 0.087174, , 
17.94, 0.087736, , 
17.97, 0.088237, , 
18.00, 0.088938, , 
18.03, 0.089579, , 
18.06, 0.090349, , 
18.09, 0.091009, , 
18.12, 0.091685, , 
18.16, 0.092617, , 
18.18, 0.093328, , 
18.21, 0.094216, , 
18.24, 0.095187, , 
18.27, 0.096027, , 
18.30, 0.096915, , 
18.33, 0.097949, , 
18.36, 0.098793, , 
18.39, 0.099827, , 
18.42, 0.100817, , 
18.45, 0.101648, , 
18.48, 0.102761, , 
18.51, 0.103773, , 
18.54, 0.104836, , 
18.57, 0.105860, , 
18.60, 0.107002, , 
18.63, 0.108030, , 
18.66, 0.109292, , 
18.69, 0.110342, , 
18.72, 0.111344, , 
18.76, 0.112569, , 
18.78, 0.113451, , 
18.81, 0.114634, , 
18.84, 0.115614, , 
18.87, 0.116594, , 
18.90, 0.117527, , 
18.93, 0.118538, , 
18.96, 0.119407, , 
18.99, 0.120461, , 
19.02, 0.121339, , 
19.05, 0.122218, , 
19.08, 0.123036, , 
19.11, 0.123915, , 
19.14, 0.124860, , 
19.17, 0.125586, , 
19.18, 0.125808, 6, 0.585
19.20, 0.126284, , 
19.23, 0.126988, , 
19.26, 0.127772, , 
19.29, 0.128340, , 
19.32, 0.128892, , 
19.35, 0.129526, , 
19.38, 0.130217, , 
19.41, 0.130655, , 
19.44, 0.131242, , 
19.47, 0.131629, , 
19.50, 0.132016, , 
19.53, 0.132305, , 
19.56, 0.132669, , 
19.59, 0.133053, , 
19.62, 0.133383, , 
19.65, 0.133608, , 
19.68, 0.133846, , 
19.71, 0.134170, , 
19.75, 0.134376, , 
19.77, 0.134458, , 
19.80, 0.134544, , 
19.83, 0.134718, , 
19.86, 0.134902, , 
19.89, 0.134991, , 
19.92, 0.135039, , 
19.95, 0.135061, , 
19.98, 0.135102, , 
20.01, 0.135055, , 
20.04, 0.134994, , 
20.07, 0.134940, , 
20.10, 0.134842, , 
20.13, 0.134715, , 
20.16, 0.134652, , 
20.19, 0.134576, , 
20.22, 0.134382, , 
20.25, 0.134255, , 
20.28, 0.134122, , 
20.31, 0.133973, , 
20.34, 0.133770, , 
20.37, 0.133532, , 
20.40, 0.133326, , 
20.43, 0.133069, , 
20.46, 0.132787, , 
20.49, 0.132466, , 
20.52, 0.132213, , 
20.55, 0.131956, , 
20.58, 0.131597, , 
20.61, 0.131264, , 
20.64, 0.130982, , 
20.67, 0.130671, , 
20.70, 0.130198, , 
20.73, 0.129770, , 
20.76, 0.129317, , 
20.79, 0.128838, , 
20.82, 0.128454, , 
20.85, 0.127975, , 
20.88, 0.127509, , 
20.91, 0.127118, , 
20.94, 0.126782, , 
20.97, 0.126364, , 
21.00, 0.126053, , 
21.03, 0.125637, , 
21.06, 0.125225, , 
21.09, 0.124746, , 
21.12, 0.124264, , 
21.15, 0.123947, , 
21.18, 0.123429, , 
21.21, 0.122985, , 
21.24, 0.122617, , 
21.27, 0.122278, , 
21.30, 0.121955, , 
21.33, 0.121596, , 
21.36, 0.121374, , 
21.39, 0.121117, , 
21.42, 0.120759, , 
21.45, 0.120473, , 
21.48, 0.120172, , 
21.51, 0.119969, , 
21.54, 0.119782, , 
21.57, 0.119468, , 
21.60, 0.119252, , 
21.63, 0.119055, , 
21.66, 0.118897, , 
21.69, 0.118732, , 
21.72, 0.118554, , 
21.75, 0.118481, , 
21.78, 0.118351, , 
21.81, 0.118300, , 
21.84, 0.118285, , 
21.87, 0.118285, , 
21.90, 0.118231, , 
21.94, 0.118221, , 
21.96, 0.118250, , 
21.99, 0.118335, , 
22.02, 0.118478, , 
22.05, 0.118646, , 
22.08, 0.118900, , 
22.11, 0.119103, , 
22.14, 0.119357, , 
22.17, 0.119706, , 
22.20, 0.120083, , 
22.23, 0.120556, , 
22.26, 0.120978, , 
22.29, 0.121466, , 
22.32, 0.122170, , 
22.35, 0.122662, , 
22.38, 0.123464, , 
22.39, 0.123705, 7, 0.588
22.41, 0.124261, , 
22.44, 0.125174, , 
22.47, 0.126132, , 
22.50, 0.127318, , 
22.53, 0.128327, , 
22.56, 0.129951, , 
22.59, 0.131331, , 
22.62, 0.132815, , 
22.65, 0.134506, , 
22.68, 0.136377, , 
22.71, 0.138747, , 
22.74, 0.140910, , 
22.77, 0.143267, , 
22.80, 0.146280, , 
22.83, 0.149094, , 
22.86, 0.152101, , 
22.89, 0.155320, , 
22.92, 0.158771, , 
22.95, 0.163129, , 
22.98, 0.167142, , 
23.01, 0.172166, , 
23.05, 0.176699, , 
23.07, 0.181400, , 
23.10, 0.186329, , 
23.13, 0.191534, , 
23.16, 0.197012, , 
23.19, 0.203692, , 
23.22, 0.209655, , 
23.25, 0.215822, , 
23.28, 0.223311, , 
23.31, 0.229940, , 
23.34, 0.236687, , 
23.37, 0.243516, , 
23.40, 0.250469, , 
23.43, 0.257425, , 
23.46, 0.265719, , 
23.49, 0.272939, , 
23.52, 0.281338, , 
23.55, 0.288526, , 
23.58, 0.295707, , 
23.62, 0.304065, , 
23.64, 0.309961, , 
23.67, 0.317914, , 
23.70, 0.324562, , 
23.73, 0.331220, , 
23.76, 0.338851, , 
23.79, 0.345087, , 
23.82, 0.351057, , 
23.85, 0.356801, , 
23.88, 0.362340, , 
23.91, 0.368468, , 
23.94, 0.373483, , 
23.97, 0.378244, , 
24.00, 0.382694, , 
24.03, 0.387585, , 
24.06, 0.391499, , 
24.09, 0.395683, , 
24.12, 0.398918, , 
24.15, 0.401897, , 
24.18, 0.404615, , 
24.21, 0.407406, , 
24.24, 0.409173, , 
24.27, 0.411321, , 
24.30, 0.412748, , 
24.33, 0.414226, , 
24.36, 0.415374, , 
24.39, 0.416085, , 
24.42, 0.416672, , 
24.45, 0.416983, , 
24.48, 0.416989, , 
24.51, 0.416700, , 
24.54, 0.416272, , 
24.57, 0.415701, , 
24.60, 0.414651, , 
24.63, 0.413544, , 
24.66, 0.412342, , 
24.69, 0.410753, , 
24.72, 0.409230, , 
24.75, 0.407464, , 
24.78, 0.405801, , 
24.81, 0.403686, , 
24.84, 0.401221, , 
24.87, 0.398941, , 
24.90, 0.396568, , 
24.93, 0.393688, , 
24.96, 0.391122, , 
24.99, 0.388530, , 
25.02, 0.385907, , 
25.05, 0.383236, , 
25.08, 0.379991, , 
25.11, 0.377168, , 
25.14, 0.374399, , 
25.17, 0.371139, , 
25.20, 0.368309, , 
25.23, 0.365429, , 
25.26, 0.362527, , 
25.29, 0.359675, , 
25.32, 0.356817, , 
25.35, 0.353541, , 
25.38, 0.350727, , 
25.41, 0.347514, , 
25.44, 0.344742, , 
25.47, 0.342030, , 
25.50, 0.339315, , 
25.53, 0.336593, , 
25.56, 0.333852, , 
25.59, 0.331115, 8, 0.585
25.59, 0.330662, , 
25.62, 0.328003, , 
25.65, 0.325415, , 
25.68, 0.322338, , 
25.71, 0.319712, , 
25.74, 0.317197, , 
25.77, 0.314323, , 
25.80, 0.311814, , 
25.83, 0.309318, , 
25.86, 0.306869, , 
25.89, 0.304477, , 
25.92, 0.301632, , 
25.95, 0.299186, , 
25.98, 0.296462, , 
26.01, 0.294222, , 
26.04, 0.291986, , 
26.07, 0.289322, , 
26.10, 0.287431, , 
26.13, 0.285160, , 
26.16, 0.282461, , 
26.19, 0.280221, , 
26.22, 0.278039, , 
26.25, 0.275866, , 
26.28, 0.273389, , 
26.31, 0.271289, , 
26.34, 0.269237, , 
26.37, 0.266785, , 
26.40, 0.264641, , 
26.43, 0.262474, , 
26.46, 0.260286, , 
26.49, 0.257805, , 
26.52, 0.255604, , 
26.55, 0.253092, , 
26.59, 0.251014, , 
26.61, 0.249292, , 
26.64, 0.246894, , 
26.67, 0.244785, , 
26.70, 0.242650, , 
26.73, 0.240179, , 
26.76, 0.238104, , 
26.79, 0.236027, , 
26.82, 0.233642, , 
26.85, 0.231986, , 
26.88, 0.229632, , 
26.91, 0.227609, , 
26.94, 0.225655, , 
26.97, 0.223364, , 
27.00, 0.221369, , 
27.03, 0.219070, , 
27.06, 0.217474, , 
27.09, 0.215514, , 
27.12, 0.213214, , 
27.15, 0.211359, , 
27.18, 0.209291, , 
27.21, 0.207473, , 
27.24, 0.205573, , 
27.27, 0.203660, , 
27.30, 0.201833, , 
27.33, 0.199718, , 
27.36, 0.197919, , 
27.39, 0.195880, , 
27.42, 0.194164, , 
27.45, 0.192730, , 
27.48, 0.190643, , 
27.51, 0.188860, , 
27.54, 0.187141, , 
27.57, 0.185111, , 
27.60, 0.183347, , 
27.63, 0.181340, , 
27.66, 0.179712, , 
27.69, 0.178342, , 
27.72, 0.176401, , 
27.75, 0.174789, , 
27.78, 0.172947, , 
27.81, 0.171357, , 
27.84, 0.169841, , 
27.87, 0.168395, , 
27.90, 0.166695, , 
27.93, 0.165213, , 
27.96, 0.163672, , 
27.99, 0.162162, , 
28.02, 0.160500, , 
28.05, 0.159063, , 
28.08, 0.157686, , 
28.11, 0.156138, , 
28.15, 0.154800, , 
28.17, 0.153471, , 
28.20, 0.152142, , 
28.23, 0.150876, , 
28.26, 0.149493, , 
28.29, 0.148326, , 
28.32, 0.146842, , 
28.35, 0.145788, , 
28.38, 0.144542, , 
28.41, 0.143118, , 
28.44, 0.141900, , 
28.47, 0.140590, , 
28.50, 0.139492, , 
28.53, 0.138382, , 
28.56, 0.137246, , 
28.59, 0.136152, , 
28.62, 0.134909, , 
28.65, 0.133811, , 
28.68, 0.132723, , 
28.71, 0.131569, , 
28.74, 0.130633, , 
28.77, 0.129834, , 
28.78, 0.129336, 9, 0.585
28.80, 0.128676, , 
28.83, 0.127724, , 
28.86, 0.126592, , 
28.89, 0.125612, , 
28.92, 0.124498, , 
28.95, 0.123642, , 
28.98, 0.123023, , 
29.01, 0.122119, , 
29.04, 0.121339, , 
29.07, 0.120549, , 
29.10, 0.119633, , 
29.13, 0.118887, , 
29.16, 0.118129, , 
29.19, 0.117304, , 
29.22, 0.116588, , 
29.25, 0.115845, , 
29.28, 0.115087, , 
29.31, 0.114405, , 
29.34, 0.113549, , 
29.37, 0.112784, , 
29.40, 0.112033, , 
29.43, 0.111252, , 
29.46, 0.110520, , 
29.49, 0.109746, , 
29.52, 0.109016, , 
29.55, 0.108366, , 
29.58, 0.107598, , 
29.61, 0.106910, , 
29.64, 0.106241, , 
29.67, 0.105505, , 
29.71, 0.104902, , 
29.73, 0.104274, , 
29.76, 0.103652, , 
29.79, 0.103094, , 
29.82, 0.102434, , 
29.85, 0.101930, , 
29.88, 0.101296, , 
29.92, 0.100731, , 
29.94, 0.100262, , 
29.97, 0.099624, , 
30.00, 0.099101, , 
30.03, 0.098584, , 
30.06, 0.098149, , 
30.09, 0.097699, , 
30.12, 0.097255, , 
30.15, 0.096833, , 
30.18, 0.096313, , 
30.21, 0.095859, , 
30.24, 0.095424, , 
30.27, 0.095003, , 
30.30, 0.094584, , 
30.33, 0.094045, , 
30.36, 0.093601, , 
30.39, 0.093093, , 
30.42, 0.092674, , 
30.45, 0.092218, , 
30.48, 0.091780, , 
30.51, 0.091374, , 
30.54, 0.090920, , 
30.57, 0.090603, , 
30.60, 0.090292, , 
30.63, 0.089867, , 
30.66, 0.089455, , 
30.69, 0.089033, , 
30.72, 0.088760, , 
30.75, 0.088491, , 
30.78, 0.088053, , 
30.81, 0.087685, , 
30.84, 0.087349, , 
30.87, 0.087076, , 
30.90, 0.086784, , 
30.93, 0.086521, , 
30.96, 0.086327, , 
30.99, 0.086102, , 
31.02, 0.085864, , 
31.05, 0.085620, , 
31.08, 0.085369, , 
31.11, 0.085208, , 
31.14, 0.085059, , 
31.17, 0.084881, , 
31.20, 0.084741, , 
31.23, 0.084627, , 
31.26, 0.084516, , 
31.29, 0.084469, , 
31.32, 0.084494, , 
31.35, 0.084465, , 
31.38, 0.084453, , 
31.41, 0.084450, , 
31.44, 0.084459, , 
31.47, 0.084465, , 
31.50, 0.084443, , 
31.53, 0.084456, , 
31.56, 0.084608, , 
31.59, 0.084767, , 
31.62, 0.084849, , 
31.65, 0.084960, , 
31.68, 0.085201, , 
31.71, 0.085506, , 
31.74, 0.085734, , 
31.77, 0.086010, , 
31.80, 0.086457, , 
31.83, 0.086819, , 
31.86, 0.087073, , 
31.89, 0.087374, , 
31.92, 0.087755, , 
31.95, 0.088256, , 
31.98, 0.088763, , 
31.99, 0.088941, 10, 0.587
32.01, 0.089420, , 
32.04, 0.089985, , 
32.07, 0.090505, , 
32.10, 0.091142, , 
32.13, 0.091831, , 
32.16, 0.092709, , 
32.19, 0.093394, , 
32.22, 0.094099, , 
32.25, 0.094822, , 
32.28, 0.095656, , 
32.31, 0.096728, , 
32.34, 0.097692, , 
32.37, 0.098657, , 
32.40, 0.099856, , 
32.43, 0.100855, , 
32.46, 0.101889, , 
32.49, 0.102948, , 
32.52, 0.104055, , 
32.55, 0.105372, , 
32.58, 0.106504, , 
32.61, 0.107871, , 
32.64, 0.109035, , 
32.67, 0.109996, , 
32.70, 0.111408, , 
32.73, 0.112696, , 
32.76, 0.114212, , 
32.79, 0.115474, , 
32.82, 0.116759, , 
32.85, 0.118285, , 
32.88, 0.119363, , 
32.91, 0.120797, , 
32.94, 0.121955, , 
32.97, 0.123176, , 
33.00, 0.124660, , 
33.03, 0.125900, , 
33.06, 0.127290, , 
33.09, 0.128264, , 
33.12, 0.129424, , 
33.15, 0.130658, , 
33.18, 0.131610, , 
33.21, 0.132717, , 
33.24, 0.133659, , 
33.27, 0.134503, , 
33.30, 0.135369, , 
33.33, 0.136317, , 
33.36, 0.136945, , 
33.39, 0.137744, , 
33.42, 0.138309, , 
33.45, 0.138867, , 
33.48, 0.139403, , 
33.51, 0.139705, , 
33.54, 0.140006, , 
33.57, 0.140228, , 
33.60, 0.140396, , 
33.63, 0.140453, , 
33.66, 0.140479, , 
33.69, 0.140542, , 
33.72, 0.140542, , 
33.75, 0.140456, , 
33.78, 0.140311, , 
33.81, 0.140184, , 
33.84, 0.139898, , 
33.87, 0.139537, , 
33.90, 0.139156, , 
33.93, 0.138718, , 
33.96, 0.138277, , 
33.99, 0.137814, , 
34.02, 0.137402, , 
34.05, 0.136907, , 
34.08, 0.136235, , 
34.11, 0.135641, , 
34.14, 0.135032, , 
34.17, 0.134490, , 
34.20, 0.133941, , 
34.23, 0.133171, , 
34.26, 0.132571, , 
34.29, 0.131924, , 
34.32, 0.131299, , 
34.35, 0.130674, , 
34.39, 0.129929, , 
34.41, 0.129399, , 
34.44, 0.128619, , 
34.47, 0.127969, , 
34.50, 0.127391, , 
34.53, 0.126744, , 
34.56, 0.126103, , 
34.60, 0.125409, , 
34.62, 0.124962, , 
34.65, 0.124381, , 
34.68, 0.123664, , 
34.71, 0.123084, , 
34.74, 0.122430, , 
34.77, 0.121844, , 
34.80, 0.121235, , 
34.83, 0.120695, , 
34.86, 0.120216, , 
34.89, 0.119677, , 
34.92, 0.119001, , 
34.95, 0.118456, , 
34.98, 0.117901, , 
35.01, 0.117514, , 
35.05, 0.116867, , 
35.07, 0.116305, , 
35.10, 0.115772, , 
35.13, 0.115211, , 
35.16, 0.114716, , 
35.19, 0.114310, 11, 0.585
35.19, 0.114240, , 
35.22, 0.113822, , 
35.25, 0.113378, , 
35.28, 0.112715, , 
35.31, 0.112122, , 
35.34, 0.111579, , 
35.37, 0.111141, , 
35.40, 0.110751, , 
35.43, 0.110158, , 
35.46, 0.109739, , 
35.49, 0.109292, , 
35.52, 0.108750, , 
35.55, 0.108309, , 
35.58, 0.107820, , 
35.61, 0.107313, , 
35.64, 0.106847, , 
35.67, 0.106193, , 
35.70, 0.105686, , 
35.73, 0.105137, , 
35.76, 0.104642, , 
35.79, 0.104185, , 
35.82, 0.103672, , 
35.85, 0.103110, , 
35.88, 0.102425, , 
35.91, 0.101911, , 
35.94, 0.101419, , 
35.97, 0.100890, , 
36.00, 0.100306, , 
36.03, 0.099811, , 
36.06, 0.099272, , 
36.09, 0.098796, , 
36.12, 0.098209, , 
36.15, 0.097800, , 
36.18, 0.097344, , 
36.21, 0.096792, , 
36.24, 0.096306, , 
36.27, 0.095834, , 
36.30, 0.095294, , 
36.33, 0.094635, , 
36.36, 0.094114, , 
36.39, 0.093610, , 
36.42, 0.093293, , 
36.45, 0.093020, , 
36.48, 0.092605, , 
36.51, 0.092243, , 
36.54, 0.091777, , 
36.57, 0.091307, , 
36.60, 0.090841, , 
36.63, 0.090470, , 
36.66, 0.089940, , 
36.69, 0.089474, , 
36.72, 0.089081, , 
36.75, 0.088789, , 
36.78, 0.088497, , 
36.81, 0.088069, , 
36.84, 0.087685, , 
36.87, 0.087317, , 
36.90, 0.086981, , 
36.93, 0.086565, , 
36.96, 0.086226, , 
36.99, 0.085893, , 
37.02, 0.085509, , 
37.05, 0.085182, , 
37.08, 0.084868, , 
37.11, 0.084564, , 
37.14, 0.084278, , 
37.17, 0.083958, , 
37.20, 0.083707, , 
37.23, 0.083479, , 
37.26, 0.083257, , 
37.29, 0.083048, , 
37.32, 0.082724, , 
37.35, 0.082461, , 
37.38, 0.082226, , 
37.41, 0.082039, , 
37.44, 0.081871, , 
37.47, 0.081674, , 
37.50, 0.081481, , 
37.53, 0.081195, , 
37.56, 0.080999, , 
37.59, 0.080846, , 
37.62, 0.080672, , 
37.65, 0.080488, , 
37.68, 0.080323, , 
37.71, 0.080231, , 
37.74, 0.080069, , 
37.77, 0.079857, , 
37.80, 0.079746, , 
37.83, 0.079682, , 
37.86, 0.079574, , 
37.89, 0.079498, , 
37.92, 0.079511, , 
37.95, 0.079524, , 
37.98, 0.079498, , 
38.01, 0.079482, , 
38.04, 0.079527, , 
38.07, 0.079524, , 
38.10, 0.079524, , 
38.13, 0.079552, , 
38.16, 0.079714, , 
38.19, 0.079872, , 
38.22, 0.080012, , 
38.25, 0.080240, , 
38.28, 0.080504, , 
38.31, 0.080837, , 
38.34, 0.081233, , 
38.37, 0.081611, , 
38.39, 0.081820, 12, 0.586
38.40, 0.082052, , 
38.43, 0.082562, , 
38.47, 0.082962, , 
38.49, 0.083444, , 
38.52, 0.084082, , 
38.55, 0.084773, , 
38.58, 0.085623, , 
38.61, 0.086445, , 
38.64, 0.087466, , 
38.67, 0.088173, , 
38.70, 0.089084, , 
38.73, 0.090337, , 
38.76, 0.091533, , 
38.79, 0.092966, , 
38.82, 0.094273, , 
38.85, 0.095789, , 
38.88, 0.097378, , 
38.91, 0.098999, , 
38.94, 0.100963, , 
38.97, 0.102802, , 
39.00, 0.104769, , 
39.03, 0.107177, , 
39.06, 0.109273, , 
39.09, 0.111455, , 
39.12, 0.113704, , 
39.15, 0.116026, , 
39.18, 0.118894, , 
39.21, 0.121387, , 
39.24, 0.124270, , 
39.27, 0.126744, , 
39.30, 0.128930, , 
39.33, 0.132089, , 
39.36, 0.134772, , 
39.39, 0.137836, , 
39.42, 0.140469, , 
39.45, 0.143048, , 
39.48, 0.145963, , 
39.51, 0.148012, , 
39.54, 0.150946, , 
39.57, 0.153395, , 
39.60, 0.155694, , 
39.63, 0.157946, , 
39.66, 0.160506, , 
39.69, 0.162603, , 
39.72, 0.164576, , 
39.75, 0.166733, , 
39.78, 0.168522, , 
39.81, 0.170222, , 
39.84, 0.171855, , 
39.87, 0.173473, , 
39.90, 0.174723, , 
39.93, 0.175824, , 
39.96, 0.176927, , 
39.99, 0.177803, , 
40.02, 0.178478, , 
40.05, 0.179265, , 
40.08, 0.179798, , 
40.11, 0.180277, , 
40.14, 0.180524, , 
40.17, 0.180711, , 
40.20, 0.180727, , 
40.23, 0.180562, , 
40.26, 0.180302, , 
40.29, 0.179988, , 
40.32, 0.179563, , 
40.35, 0.179097, , 
40.38, 0.178523, , 
40.41, 0.177987, , 
40.44, 0.177219, , 
40.47, 0.176610, , 
40.50, 0.175722, , 
40.53, 0.174939, , 
40.56, 0.174165, , 
40.59, 0.173045, , 
40.62, 0.172182, , 
40.65, 0.171151, , 
40.69, 0.170139, , 
40.71, 0.169277, , 
40.74, 0.168144, , 
40.77, 0.167170, , 
40.80, 0.165956, , 
40.83, 0.164944, , 
40.86, 0.163960, , 
40.89, 0.162911, , 
40.92, 0.161896, , 
40.95, 0.160865, , 
40.98, 0.159675, , 
41.01, 0.158660, , 
41.04, 0.157632, , 
41.07, 0.156560, , 
41.10, 0.155682, , 
41.13, 0.154844, , 
41.16, 0.153924, , 
41.19, 0.152894, , 
41.22, 0.152040, , 
41.25, 0.151181, , 
41.28, 0.150102, , 
41.31, 0.149357, , 
41.34, 0.148351, , 
41.37, 0.147482, , 
41.40, 0.146470, , 
41.43, 0.145604, , 
41.46, 0.144739, , 
41.49, 0.143768, , 
41.52, 0.143048, , 
41.55, 0.142252, , 
41.58, 0.141452, 13, 0.585
41.59, 0.141313, , 
41.61, 0.140634, , 
41.64, 0.139660, , 
41.67, 0.138810, , 
41.70, 0.138024, , 
41.73, 0.137231, , 
41.76, 0.136450, , 
41.79, 0.135521, , 
41.82, 0.134734, , 
41.85, 0.133754, , 
41.88, 0.132955, , 
41.91, 0.132244, , 
41.94, 0.131534, , 
41.97, 0.130655, , 
42.00, 0.129916, , 
42.03, 0.129196, , 
42.06, 0.128346, , 
42.09, 0.127715, , 
42.12, 0.126973, , 
42.15, 0.126126, , 
42.18, 0.125418, , 
42.21, 0.124606, , 
42.24, 0.123829, , 
42.27, 0.123147, , 
42.30, 0.122545, , 
42.33, 0.121805, , 
42.37, 0.121082, , 
42.39, 0.120403, , 
42.42, 0.119728, , 
42.45, 0.119011, , 
42.48, 0.118205, , 
42.51, 0.117647, , 
42.54, 0.116997, , 
42.57, 0.116483, , 
42.60, 0.115915, , 
42.63, 0.115278, , 
42.66, 0.114646, , 
42.69, 0.113968, , 
42.72, 0.113454, , 
42.75, 0.112991, , 
42.78, 0.112556, , 
42.81, 0.112093, , 
42.84, 0.111554, , 
42.87, 0.111157, , 
42.90, 0.110739, , 
42.93, 0.110263, , 
42.96, 0.109825, , 
42.99, 0.109552, , 
43.02, 0.109159, , 
43.05, 0.108886, , 
43.08, 0.108594, , 
43.11, 0.108299, , 
43.14, 0.108122, , 
43.17, 0.107919, , 
43.20, 0.107732, , 
43.23, 0.107586, , 
43.26, 0.107475, , 
43.29, 0.107383, , 
43.32, 0.107345, , 
43.35, 0.107332, , 
43.38, 0.107338, , 
43.41, 0.107297, , 
43.44, 0.107310, , 
43.47, 0.107332, , 
43.50, 0.107367, , 
43.53, 0.107462, , 
43.56, 0.107630, , 
43.59, 0.107843, , 
43.62, 0.108030, , 
43.65, 0.108226, , 
43.68, 0.108575, , 
43.71, 0.109007, , 
43.74, 0.109521, , 
43.77, 0.110022, , 
43.80, 0.110593, , 
43.83, 0.111332, , 
43.86, 0.112026, , 
43.89, 0.112965, , 
43.92, 0.113949, , 
43.95, 0.114979, , 
43.98, 0.116213, , 
44.01, 0.117165, , 
44.04, 0.118364, , 
44.07, 0.119845, , 
44.10, 0.121152, , 
44.13, 0.122852, , 
44.16, 0.124432, , 
44.19, 0.126116, , 
44.22, 0.127785, , 
44.25, 0.129539, , 
44.28, 0.131737, , 
44.31, 0.133710, , 
44.34, 0.135660, , 
44.37, 0.137998, , 
44.40, 0.140082, , 
44.43, 0.142252, , 
44.46, 0.144491, , 
44.49, 0.146724, , 
44.52, 0.149024, , 
44.55, 0.151758, , 
44.58, 0.154070, , 
44.61, 0.156779, , 
44.64, 0.159139, , 
44.67, 0.161490, , 
44.70, 0.163745, , 
44.73, 0.165962, , 
44.76, 0.168500, , 
44.79, 0.170244, 14, 0.587
44.79, 0.170590, , 
44.82, 0.172598, , 
44.85, 0.174837, , 
44.88, 0.176721, , 
44.91, 0.178513, , 
44.94, 0.180553, , 
44.97, 0.181926, , 
45.00, 0.183814, , 
45.03, 0.185352, , 
45.06, 0.186694, , 
45.09, 0.188191, , 
45.12, 0.189387, , 
45.16, 0.190586, , 
45.18, 0.191328, , 
45.21, 0.192108, , 
45.24, 0.192885, , 
45.27, 0.193425, , 
45.30, 0.193938, , 
45.33, 0.194421, , 
45.36, 0.194811, , 
45.39, 0.194988, , 
45.42, 0.195071, , 
45.45, 0.195131, , 
45.48, 0.195109, , 
45.51, 0.194953, , 
45.54, 0.194586, , 
45.57, 0.194287, , 
45.60, 0.193859, , 
45.63, 0.193387, , 
45.66, 0.192816, , 
45.69, 0.192194, , 
45.72, 0.191579, , 
45.75, 0.190789, , 
45.78, 0.190262, , 
45.81, 0.189571, , 
45.84, 0.188698, , 
45.87, 0.187845, , 
45.90, 0.186814, , 
45.93, 0.185974, , 
45.96, 0.185098, , 
45.99, 0.184201, , 
46.02, 0.183331, , 
46.05, 0.182348, , 
46.08, 0.181485, , 
46.11, 0.180518, , 
46.14, 0.179309, , 
46.17, 0.178358, , 
46.20, 0.177457, , 
46.23, 0.176474, , 
46.26, 0.175424, , 
46.29, 0.174276, , 
46.32, 0.173286, , 
46.35, 0.172052, , 
46.38, 0.171021, , 
46.41, 0.170193, , 
46.44, 0.169032, , 
46.47, 0.168002, , 
46.50, 0.166818, , 
46.53, 0.165819, , 
46.56, 0.164788, , 
46.59, 0.163602, , 
46.62, 0.162812, , 
46.65, 0.161759, , 
46.68, 0.160871, , 
46.71, 0.159948, , 
46.74, 0.158917, , 
46.77, 0.158064, , 
46.80, 0.157185, , 
46.83, 0.156278, , 
46.86, 0.155412, , 
46.89, 0.154400, , 
46.92, 0.153522, , 
46.95, 0.152475, , 
46.98, 0.151606, , 
47.02, 0.150784, , 
47.04, 0.149944, , 
47.07, 0.149043, , 
47.10, 0.148123, , 
47.13, 0.147406, , 
47.16, 0.146623, , 
47.19, 0.145655, , 
47.22, 0.144948, , 
47.25, 0.144047, , 
47.28, 0.143314, , 
47.31, 0.142575, , 
47.34, 0.141817, , 
47.37, 0.141265, , 
47.40, 0.140558, , 
47.43, 0.140035, , 
47.46, 0.139499, , 
47.49, 0.138978, , 
47.52, 0.138487, , 
47.55, 0.137928, , 
47.58, 0.137602, , 
47.61, 0.137294, , 
47.64, 0.137015, , 
47.67, 0.136793, , 
47.70, 0.136685, , 
47.73, 0.136656, , 
47.76, 0.136587, , 
47.79, 0.136552, , 
47.82, 0.136555, , 
47.85, 0.136603, , 
47.88, 0.136679, , 
47.91, 0.136774, , 
47.94, 0.137062, , 
47.97, 0.137310, , 
47.99, 0.137516, 15, 0.586
48.00, 0.137687, , 
48.03, 0.138135, , 
48.06, 0.138607, , 
48.09, 0.139346, , 
48.12, 0.139946, , 
48.15, 0.140761, , 
48.18, 0.141471, , 
48.21, 0.142214, , 
48.25, 0.143165, , 
48.27, 0.143958, , 
48.30, 0.145176, , 
48.33, 0.146248, , 
48.36, 0.147279, , 
48.39, 0.148380, , 
48.42, 0.149614, , 
48.45, 0.151092, , 
48.48, 0.152383, , 
48.51, 0.154007, , 
48.54, 0.155444, , 
48.57, 0.156906, , 
48.60, 0.158333, , 
48.63, 0.159751, , 
48.66, 0.161477, , 
48.69, 0.162949, , 
48.72, 0.164379, , 
48.75, 0.166035, , 
48.78, 0.167523, , 
48.82, 0.169267, , 
48.84, 0.170469, , 
48.87, 0.171802, , 
48.90, 0.173464, , 
48.93, 0.174824, , 
48.96, 0.176103, , 
48.99, 0.177346, , 
49.02, 0.178748, , 
49.05, 0.179871, , 
49.08, 0.180889, , 
49.11, 0.181850, , 
49.14, 0.182967, , 
49.17, 0.183845, , 
49.20, 0.184610, , 
49.23, 0.185460, , 
49.26, 0.186148, , 
49.29, 0.186725, , 
49.32, 0.187246, , 
49.35, 0.187721, , 
49.38, 0.188188, , 
49.41, 0.188505, , 
49.44, 0.188800, , 
49.48, 0.188993, , 
49.50, 0.189142, , 
49.53, 0.189193, , 
49.56, 0.189146, , 
49.59, 0.189063, , 
49.62, 0.189003, , 
49.65, 0.188813, , 
49.68, 0.188552, , 
49.71, 0.188372, , 
49.74, 0.188074, , 
49.77, 0.187747, , 
49.80, 0.187312, , 
49.83, 0.186814, , 
49.86, 0.186421, , 
49.90, 0.185866, , 
49.92, 0.185374, , 
49.95, 0.184816, , 
49.98, 0.184172, , 
50.01, 0.183531, , 
50.05, 0.182742, , 
50.07, 0.182202, , 
50.10, 0.181555, , 
50.13, 0.180743, , 
50.16, 0.179931, , 
50.19, 0.179030, , 
50.22, 0.178336, , 
50.25, 0.177593, , 
50.28, 0.176639, , 
50.31, 0.175966, , 
50.34, 0.175008, , 
50.37, 0.174114, , 
50.40, 0.173245, , 
50.43, 0.172350, , 
50.46, 0.171618, , 
50.49, 0.170704, , 
50.52, 0.169889, , 
50.55, 0.169248, , 
50.58, 0.168373, , 
50.61, 0.167662, , 
50.64, 0.167002, , 
50.67, 0.166241, , 
50.70, 0.165594, , 
50.73, 0.164899, , 
50.76, 0.164122, , 
50.79, 0.163574, , 
50.82, 0.163006, , 
50.85, 0.162375, , 
50.88, 0.161772, , 
50.91, 0.161198, , 
50.94, 0.160738, , 
50.97, 0.160249, , 
51.00, 0.159748, , 
51.03, 0.159425, , 
51.06, 0.159152, , 
51.09, 0.158825, , 
51.12, 0.158581, , 
51.15, 0.158413, , 
51.18, 0.158251, , 
51.19, 0.158235, 16, 0.585
51.21, 0.158140, , 
51.24, 0.158032, , 
51.27, 0.158054, , 
51.30, 0.158073, , 
51.33, 0.158143, , 
51.36, 0.158302, , 
51.39, 0.158546, , 
51.42, 0.158838, , 
51.46, 0.159199, , 
51.48, 0.159526, , 
51.51, 0.160040, , 
51.54, 0.160554, , 
51.57, 0.161071, , 
51.60, 0.161775, , 
51.63, 0.162479, , 
51.67, 0.163351, , 
51.69, 0.163964, , 
51.72, 0.164700, , 
51.75, 0.165604, , 
51.78, 0.166374, , 
51.81, 0.167377, , 
51.84, 0.168363, , 
51.87, 0.168956, , 
51.90, 0.170282, , 
51.93, 0.171227, , 
51.96, 0.172449, , 
51.99, 0.173460, , 
52.02, 0.174418, , 
52.05, 0.175484, , 
52.08, 0.176328, , 
52.11, 0.177562, , 
52.14, 0.178504, , 
52.17, 0.179398, , 
52.20, 0.180489, , 
52.23, 0.181403, , 
52.26, 0.182275, , 
52.29, 0.183090, , 
52.32, 0.184001, , 
52.35, 0.184724, , 
52.38, 0.185393, , 
52.41, 0.186145, , 
52.44, 0.186767, , 
52.47, 0.187392, , 
52.50, 0.187807, , 
52.53, 0.188343, , 
52.56, 0.188797, , 
52.59, 0.189311, , 
52.62, 0.189694, , 
52.65, 0.190027, , 
52.68, 0.190326, , 
52.71, 0.190551, , 
52.74, 0.190643, , 
52.77, 0.190703, , 
52.80, 0.190795, , 
52.83, 0.190798, , 
52.86, 0.190675, , 
52.89, 0.190551, , 
52.92, 0.190481, , 
52.95, 0.190316, , 
52.98, 0.190059, , 
53.01, 0.189786, , 
53.04, 0.189526, , 
53.07, 0.189244, , 
53.10, 0.188832, , 
53.13, 0.188533, , 
53.16, 0.188223, , 
53.19, 0.187664, , 
53.22, 0.187239, , 
53.25, 0.186716, , 
53.28, 0.186307, , 
53.31, 0.185879, , 
53.34, 0.185415, , 
53.37, 0.184959, , 
53.40, 0.184543, , 
53.43, 0.184017, , 
53.46, 0.183455, , 
53.49, 0.182786, , 
53.52, 0.182282, , 
53.55, 0.181809, , 
53.58, 0.181317, , 
53.61, 0.180845, , 
53.64, 0.180394, , 
53.67, 0.179969, , 
53.70, 0.179506, , 
53.73, 0.178948, , 
53.76, 0.178542, , 
53.79, 0.178145, , 
53.82, 0.177619, , 
53.85, 0.177254, , 
53.88, 0.176851, , 
53.91, 0.176578, , 
53.94, 0.176309, , 
53.97, 0.176007, , 
54.00, 0.175801, , 
54.03, 0.175627, , 
54.06, 0.175544, , 
54.09, 0.175484, , 
54.12, 0.175443, , 
54.15, 0.175456, , 
54.18, 0.175437, , 
54.21, 0.175509, , 
54.24, 0.175712, , 
54.27, 0.175928, , 
54.30, 0.176065, , 
54.33, 0.176315, , 
54.36, 0.176645, , 
54.38, 0.176905, 17, 0.584
54.39, 0.177007, , 
54.42, 0.177429, , 
54.45, 0.177965, , 
54.48, 0.178608, , 
54.51, 0.179179, , 
54.54, 0.179839, , 
54.57, 0.180416, , 
54.60, 0.180968, , 
54.63, 0.181847, , 
54.66, 0.182538, , 
54.69, 0.183230, , 
54.72, 0.184124, , 
54.75, 0.184911, , 
54.78, 0.185787, , 
54.81, 0.186529, , 
54.84, 0.187293, , 
54.87, 0.188070, , 
54.90, 0.188822, , 
54.93, 0.189682, , 
54.96, 0.190440, , 
54.99, 0.191093, , 
55.02, 0.191835, , 
55.05, 0.192536, , 
55.08, 0.193250, , 
55.11, 0.193872, , 
55.14, 0.194446, , 
55.17, 0.195068, , 
55.20, 0.195597, , 
55.23, 0.196149, , 
55.26, 0.196546, , 
55.29, 0.196936, , 
55.32, 0.197485, , 
55.35, 0.197910, , 
55.38, 0.198274, , 
55.41, 0.198595, , 
55.44, 0.198928, , 
55.47, 0.199096, , 
55.50, 0.199169, , 
55.53, 0.199232, , 
55.56, 0.199274, , 
55.59, 0.199299, , 
55.62, 0.199289, , 
55.65, 0.199312, , 
55.68, 0.199302, , 
55.71, 0.199198, , 
55.74, 0.199067, , 
55.77, 0.198953, , 
55.80, 0.198795, , 
55.83, 0.198522, , 
55.86, 0.198290, , 
55.89, 0.198046, , 
55.92, 0.197834, , 
55.95, 0.197561, , 
55.98, 0.197240, , 
56.01, 0.196990, , 
56.04, 0.196733, , 
56.07, 0.196413, , 
56.10, 0.196079, , 
56.13, 0.195740, , 
56.16, 0.195490, , 
56.19, 0.195118, , 
56.22, 0.194820, , 
56.25, 0.194573, , 
56.28, 0.194294, , 
56.31, 0.193967, , 
56.34, 0.193628, , 
56.37, 0.193399, , 
56.40, 0.193203, , 
56.43, 0.192977, , 
56.46, 0.192806, , 
56.49, 0.192689, , 
56.52, 0.192546, , 
56.55, 0.192444, , 
56.58, 0.192343, , 
56.61, 0.192346, , 
56.64, 0.192340, , 
56.67, 0.192327, , 
56.70, 0.192352, , 
56.73, 0.192463, , 
56.76, 0.192600, , 
56.79, 0.192765, , 
56.82, 0.193019, , 
56.85, 0.193244, , 
56.88, 0.193488, , 
56.91, 0.193799, , 
56.94, 0.194081, , 
56.97, 0.194363, , 
57.00, 0.194849, , 
57.03, 0.195344, , 
57.06, 0.195962, , 
57.09, 0.196438, , 
57.12, 0.196926, , 
57.15, 0.197516, , 
57.18, 0.197986, , 
57.21, 0.198642, , 
57.24, 0.199217, , 
57.27, 0.199759, , 
57.30, 0.200431, , 
57.33, 0.201031, , 
57.36, 0.201719, , 
57.39, 0.202179, , 
57.42, 0.202741, , 
57.45, 0.203457, , 
57.48, 0.204066, , 
57.51, 0.204691, , 
57.54, 0.205205, , 
57.57, 0.205709, , 
57.59, 0.205957, 18, 0.587
57.60, 0.206144, , 
57.63, 0.206553, , 
57.66, 0.207080, , 
57.69, 0.207511, , 
57.72, 0.207825, , 
57.75, 0.208139, , 
57.78, 0.208421, , 
57.81, 0.208796, , 
57.84, 0.209065, , 
57.87, 0.209272, , 
57.90, 0.209468, , 
57.93, 0.209586, , 
57.96, 0.209624, , 
57.99, 0.209624, , 
58.02, 0.209659, , 
58.05, 0.209681, , 
58.08, 0.209684, , 
58.11, 0.209674, , 
58.14, 0.209671, , 
58.17, 0.209678, , 
58.20, 0.209576, , 
58.23, 0.209424, , 
58.26, 0.209345, , 
58.29, 0.209249, , 
58.32, 0.209040, , 
58.35, 0.208827, , 
58.38, 0.208644, , 
58.41, 0.208441, , 
58.44, 0.208218, , 
58.47, 0.207971, , 
58.50, 0.207746, , 
58.54, 0.207530, , 
58.56, 0.207378, , 
58.59, 0.207200, , 
58.62, 0.207019, , 
58.65, 0.206845, , 
58.68, 0.206582, , 
58.71, 0.206433, , 
58.75, 0.206369, , 
58.77, 0.206322, , 
58.80, 0.206179, , 
58.83, 0.205992, , 
58.86, 0.205928, , 
58.89, 0.205862, , 
58.92, 0.205782, , 
58.95, 0.205767, , 
58.98, 0.205795, , 
59.01, 0.205849, , 
59.04, 0.205928, , 
59.07, 0.206068, , 
59.10, 0.206201, , 
59.13, 0.206404, , 
59.16, 0.206537, , 
59.19, 0.206731, , 
59.22, 0.207077, , 
59.25, 0.207349, , 
59.28, 0.207606, , 
59.31, 0.207835, , 
59.34, 0.208272, , 
59.37, 0.208675, , 
59.40, 0.209005, , 
59.43, 0.209341, , 
59.46, 0.209674, , 
59.49, 0.210049, , 
59.53, 0.210458, , 
59.55, 0.210785, , 
59.58, 0.211308, , 
59.61, 0.211723, , 
59.64, 0.212228, , 
59.67, 0.212688, , 
59.70, 0.213138, , 
59.73, 0.213471, , 
59.76, 0.213925, , 
59.79, 0.214277, , 
59.82, 0.214623, , 
59.85, 0.214940, , 
59.88, 0.215254, , 
59.91, 0.215501, , 
59.94, 0.215777, , 
59.97, 0.216015, , 
60.00, 0.216202, , 
60.03, 0.216389, , 
60.06, 0.216567, , 
60.09, 0.216754, , 
60.12, 0.216881, , 
60.15, 0.216964, , 
60.18, 0.217065, , 
60.21, 0.217068, , 
60.24, 0.217027, , 
60.27, 0.217008, , 
60.30, 0.216960, , 
60.33, 0.216849, , 
60.36, 0.216726, , 
60.39, 0.216624, , 
60.42, 0.216567, , 
60.45, 0.216412, , 
60.48, 0.216205, , 
60.51, 0.216031, , 
60.55, 0.215853, , 
60.57, 0.215720, , 
60.60, 0.215523, , 
60.63, 0.215346, , 
60.66, 0.215178, , 
60.69, 0.214975, , 
60.72, 0.214778, , 
60.75, 0.214638, , 
60.78, 0.214486, 19, 0.585
60.79, 0.214442, , 
60.81, 0.214324, , 
60.84, 0.214131, , 
60.87, 0.213988, , 
60.90, 0.213899, , 
60.93, 0.213684, , 
60.96, 0.213525, , 
60.99, 0.213373, , 
61.02, 0.213268, , 
61.05, 0.213214, , 
61.08, 0.213151, , 
61.11, 0.213154, , 
61.14, 0.213173, , 
61.17, 0.213151, , 
61.20, 0.213100, , 
61.23, 0.213116, , 
61.26, 0.213170, , 
61.29, 0.213176, , 
61.32, 0.213256, , 
61.35, 0.213367, , 
61.38, 0.213500, , 
61.41, 0.213563, , 
61.44, 0.213668, , 
61.47, 0.213836, , 
61.50, 0.214058, , 
61.53, 0.214236, , 
61.56, 0.214382, , 
61.59, 0.214537, , 
61.62, 0.214696, , 
61.65, 0.214835, , 
61.68, 0.214956, , 
61.71, 0.215140, , 
61.74, 0.215343, , 
61.77, 0.215425, , 
61.80, 0.215479, , 
61.83, 0.215555, , 
61.86, 0.215657, , 
61.89, 0.215784, , 
61.92, 0.215891, , 
61.95, 0.215993, , 
61.98, 0.216047, , 
62.01, 0.216066, , 
62.04, 0.216060, , 
62.07, 0.216082, , 
62.10, 0.216113, , 
62.13, 0.216002, , 
62.16, 0.215809, , 
62.19, 0.215739, , 
62.22, 0.215676, , 
62.25, 0.215581, , 
62.28, 0.215416, , 
62.31, 0.215330, , 
62.34, 0.215222, , 
62.37, 0.214994, , 
62.40, 0.214892, , 
62.43, 0.214762, , 
62.46, 0.214597, , 
62.49, 0.214423, , 
62.52, 0.214201, , 
62.55, 0.214020, , 
62.58, 0.213766, , 
62.61, 0.213576, , 
62.64, 0.213373, , 
62.67, 0.213164, , 
62.70, 0.212957, , 
62.73, 0.212675, , 
62.76, 0.212469, , 
62.79, 0.212240, , 
62.82, 0.212047, , 
62.85, 0.211768, , 
62.88, 0.211555, , 
62.91, 0.211409, , 
62.95, 0.211241, , 
62.97, 0.211076, , 
63.00, 0.210883, , 
63.03, 0.210832, , 
63.06, 0.210778, , 
63.09, 0.210588, , 
63.12, 0.210439, , 
63.15, 0.210366, , 
63.18, 0.210318, , 
63.21, 0.210172, , 
63.24, 0.209982, , 
63.27, 0.209890, , 
63.30, 0.209846, , 
63.33, 0.209763, , 
63.36, 0.209744, , 
63.39, 0.209744, , 
63.42, 0.209712, , 
63.45, 0.209576, , 
63.48, 0.209411, , 
63.51, 0.209357, , 
63.54, 0.209310, , 
63.57, 0.209275, , 
63.60, 0.209246, , 
63.63, 0.209224, , 
63.66, 0.209059, , 
63.69, 0.208885, , 
63.72, 0.208837, , 
63.75, 0.208815, , 
63.78, 0.208793, , 
63.81, 0.208748, , 
63.84, 0.208621, , 
63.87, 0.208526, , 
63.90, 0.208377, , 
63.93, 0.208234, , 
63.96, 0.208066, , 
63.99, 0.207965, 20, 0.587
63.99, 0.207955, , 
64.02, 0.207812, , 
64.05, 0.207587, , 
64.08, 0.207381, , 
64.11, 0.207229, , 
64.14, 0.207019, , 
64.17, 0.206845, , 
64.20, 0.206674, , 
64.23, 0.206544, , 
64.26, 0.206347, , 
64.29, 0.206090, , 
64.32, 0.205871, , 
64.35, 0.205564, , 
64.39, 0.205246, , 
64.41, 0.205002, , 
64.44, 0.204698, , 
64.47, 0.204504, , 
64.50, 0.204216, , 
64.53, 0.203962, , 
64.56, 0.203746, , 
64.59, 0.203578, , 
64.62, 0.203350, , 
64.65, 0.203064, , 
64.68, 0.202826, , 
64.71, 0.202661, , 
64.74, 0.202385, , 
64.77, 0.202144, , 
64.80, 0.201811, , 
64.83, 0.201580, , 
64.86, 0.201304, , 
64.89, 0.201025, , 
64.92, 0.200796, , 
64.95, 0.200549, , 
64.98, 0.200355, , 
65.01, 0.200133, , 
65.04, 0.199908, , 
65.07, 0.199715, , 
65.10, 0.199439, , 
65.13, 0.199185, , 
65.16, 0.198991, , 
65.19, 0.198776, , 
65.22, 0.198563, , 
65.25, 0.198262, , 
65.28, 0.198065, , 
65.31, 0.197846, , 
65.34, 0.197599, , 
65.37, 0.197370, , 
65.40, 0.197171, , 
65.43, 0.196999, , 
65.46, 0.196768, , 
65.49, 0.196470, , 
65.52, 0.196273, , 
65.55, 0.196010, , 
65.58, 0.195759, , 
65.61, 0.195591, , 
65.64, 0.195337, , 
65.67, 0.195134, , 
65.70, 0.194855, , 
65.73, 0.194630, , 
65.76, 0.194452, , 
65.80, 0.194202, , 
65.82, 0.194024, , 
65.85, 0.193720, , 
65.88, 0.193409, , 
65.91, 0.193161, , 
65.94, 0.192854, , 
65.97, 0.192590, , 
66.00, 0.192397, , 
66.03, 0.192178, , 
66.06, 0.191931, , 
66.09, 0.191709, , 
66.12, 0.191471, , 
66.15, 0.191207, , 
66.18, 0.190973, , 
66.21, 0.190709, , 
66.24, 0.190459, , 
66.27, 0.190154, , 
66.30, 0.189904, , 
66.33, 0.189577, , 
66.36, 0.189396, , 
66.39, 0.189184, , 
66.42, 0.188905, , 
66.45, 0.188657, , 
66.48, 0.188470, , 
66.51, 0.188245, , 
66.54, 0.188029, , 
66.57, 0.187801, , 
66.60, 0.187591, , 
66.63, 0.187373, , 
66.66, 0.187084, , 
66.69, 0.186856, , 
66.72, 0.186640, , 
66.75, 0.186389, , 
66.78, 0.186148, , 
66.81, 0.185783, , 
66.84, 0.185511, , 
66.87, 0.185314, , 
66.90, 0.185105, , 
66.93, 0.184797, , 
66.96, 0.184591, , 
66.99, 0.184340, , 
67.02, 0.183988, , 
67.05, 0.183699, , 
67.08, 0.183420, , 
67.11, 0.183249, , 
67.14, 0.182979, , 
67.17, 0.182681, , 
67.18, 0.182627, 21, 0.585
67.20, 0.182504, , 
67.23, 0.182304, , 
67.26, 0.182075, , 
67.29, 0.181847, , 
67.32, 0.181641, , 
67.35, 0.181412, , 
67.38, 0.181152, , 
67.41, 0.180914, , 
67.44, 0.180721, , 
67.47, 0.180461, , 
67.51, 0.180207, , 
67.53, 0.179972, , 
67.56, 0.179776, , 
67.59, 0.179541, , 
67.62, 0.179281, , 
67.65, 0.179103, , 
67.68, 0.178903, , 
67.71, 0.178716, , 
67.74, 0.178425, , 
67.77, 0.178206, , 
67.80, 0.177965, , 
67.83, 0.177749, , 
67.86, 0.177549, , 
67.89, 0.177276, , 
67.92, 0.177076, , 
67.95, 0.176810, , 
67.98, 0.176616, , 
68.01, 0.176490, , 
68.04, 0.176325, , 
68.07, 0.176201, , 
68.10, 0.175938, , 
68.13, 0.175703, , 
68.16, 0.175494, , 
68.19, 0.175224, , 
68.22, 0.174992, , 
68.25, 0.174777, , 
68.28, 0.174656, , 
68.31, 0.174529, , 
68.34, 0.174295, , 
68.37, 0.174123, , 
68.40, 0.173898, , 
68.43, 0.173705, , 
68.47, 0.173552, , 
68.49, 0.173381, , 
68.52, 0.173242, , 
68.55, 0.172997, , 
68.58, 0.172782, , 
68.61, 0.172626, , 
68.64, 0.172461, , 
68.67, 0.172353, , 
68.70, 0.172090, , 
68.73, 0.171989, , 
68.76, 0.171852, , 
68.79, 0.171646, , 
68.82, 0.171415, , 
68.85, 0.171231, , 
68.88, 0.171078, , 
68.91, 0.170936, , 
68.94, 0.170726, , 
68.97, 0.170555, , 
69.00, 0.170352, , 
69.03, 0.170133, , 
69.06, 0.169965, , 
69.09, 0.169803, , 
69.12, 0.169686, , 
69.15, 0.169549, , 
69.18, 0.169337, , 
69.21, 0.169181, , 
69.24, 0.169067, , 
69.27, 0.168934, , 
69.30, 0.168734, , 
69.33, 0.168630, , 
69.36, 0.168509, , 
69.39, 0.168239, , 
69.42, 0.168122, , 
69.45, 0.168005, , 
69.48, 0.167808, , 
69.51, 0.167643, , 
69.54, 0.167535, , 
69.57, 0.167481, , 
69.60, 0.167399, , 
69.63, 0.167190, , 
69.66, 0.167056, , 
69.69, 0.166987, , 
69.72, 0.166923, , 
69.75, 0.166726, , 
69.78, 0.166577, , 
69.81, 0.166489, , 
69.84, 0.166301, , 
69.87, 0.166124, , 
69.90, 0.165981, , 
69.93, 0.165895, , 
69.96, 0.165756, , 
69.99, 0.165585, , 
70.02, 0.165426, , 
70.05, 0.165258, , 
70.08, 0.165109, , 
70.11, 0.164982, , 
70.14, 0.164792, , 
70.17, 0.164674, , 
70.20, 0.164550, , 
70.23, 0.164351, , 
70.26, 0.164192, , 
70.29, 0.164097, , 
70.32, 0.163957, , 
70.35, 0.163789, , 
70.38, 0.163640, , 
70.39, 0.163608, 22, 0.586
70.41, 0.163520, , 
70.44, 0.163298, , 
70.47, 0.163142, , 
70.50, 0.162885, , 
70.53, 0.162701, , 
70.56, 0.162422, , 
70.59, 0.162178, , 
70.62, 0.162057, , 
70.65, 0.161934, , 
70.68, 0.161746, , 
70.71, 0.161493, , 
70.74, 0.161359, , 
70.77, 0.161134, , 
70.80, 0.161004, , 
70.83, 0.160757, , 
70.86, 0.160595, , 
70.89, 0.160440, , 
70.92, 0.160249, , 
70.95, 0.160024, , 
70.98, 0.159859, , 
71.01, 0.159675, , 
71.04, 0.159548, , 
71.07, 0.159421, , 
71.10, 0.159193, , 
71.13, 0.159057, , 
71.16, 0.158803, , 
71.19, 0.158632, , 
71.22, 0.158524, , 
71.25, 0.158359, , 
71.28, 0.158213, , 
71.31, 0.158038, , 
71.34, 0.157883, , 
71.37, 0.157728, , 
71.40, 0.157601, , 
71.43, 0.157426, , 
71.46, 0.157261, , 
71.49, 0.157074, , 
71.52, 0.156827, , 
71.55, 0.156646, , 
71.58, 0.156503, , 
71.61, 0.156383, , 
71.64, 0.156154, , 
71.67, 0.155926, , 
71.70, 0.155732, , 
71.73, 0.155568, , 
71.76, 0.155463, , 
71.79, 0.155225, , 
71.82, 0.155028, , 
71.85, 0.154854, , 
71.88, 0.154616, , 
71.91, 0.154372, , 
71.94, 0.154172, , 
71.97, 0.154086, , 
72.00, 0.153905, , 
72.03, 0.153671, , 
72.06, 0.153455, , 
72.09, 0.153262, , 
72.12, 0.153109, , 
72.15, 0.152941, , 
72.18, 0.152760, , 
72.21, 0.152665, , 
72.24, 0.152497, , 
72.27, 0.152316, , 
72.30, 0.152151, , 
72.33, 0.151980, , 
72.36, 0.151733, , 
72.39, 0.151568, , 
72.42, 0.151400, , 
72.45, 0.151314, , 
72.48, 0.151149, , 
72.51, 0.150946, , 
72.54, 0.150803, , 
72.57, 0.150676, , 
72.60, 0.150531, , 
72.63, 0.150362, , 
72.66, 0.150236, , 
72.69, 0.150064, , 
72.72, 0.149788, , 
72.75, 0.149538, , 
72.78, 0.149357, , 
72.81, 0.149132, , 
72.84, 0.148887, , 
72.87, 0.148723, , 
72.90, 0.148621, , 
72.93, 0.148478, , 
72.96, 0.148259, , 
72.99, 0.148009, , 
73.02, 0.147828, , 
73.05, 0.147622, , 
73.08, 0.147397, , 
73.11, 0.147248, , 
73.14, 0.147108, , 
73.17, 0.146949, , 
73.20, 0.146781, , 
73.23, 0.146508, , 
73.26, 0.146356, , 
73.29, 0.146226, , 
73.32, 0.146020, , 
73.35, 0.145823, , 
73.38, 0.145601, , 
73.41, 0.145446, , 
73.44, 0.145262, , 
73.47, 0.145084, , 
73.50, 0.144948, , 
73.53, 0.144748, , 
73.56, 0.144501, , 
73.58, 0.144352, 23, 0.584
73.59, 0.144263, , 
73.62, 0.144117, , 
73.65, 0.143939, , 
73.68, 0.143660, , 
73.71, 0.143454, , 
73.74, 0.143302, , 
73.77, 0.143099, , 
73.80, 0.142908, , 
73.83, 0.142693, , 
73.86, 0.142486, , 
73.89, 0.142283, , 
73.92, 0.142039, , 
73.95, 0.141817, , 
73.98, 0.141636, , 
74.01, 0.141364, , 
74.04, 0.141113, , 
74.07, 0.140881, , 
74.10, 0.140656, , 
74.13, 0.140444, , 
74.16, 0.140295, , 
74.19, 0.140114, , 
74.22, 0.139917, , 
74.25, 0.139733, , 
74.28, 0.139479, , 
74.31, 0.139324, , 
74.34, 0.139223, , 
74.37, 0.139080, , 
74.40, 0.138842, , 
74.43, 0.138756, , 
74.46, 0.138588, , 
74.49, 0.138411, , 
74.52, 0.138255, , 
74.55, 0.138116, , 
74.58, 0.137947, , 
74.61, 0.137729, , 
74.64, 0.137481, , 
74.67, 0.137291, , 
74.71, 0.137221, , 
74.73, 0.137078, , 
74.76, 0.136818, , 
74.79, 0.136603, , 
74.82, 0.136419, , 
74.85, 0.136276, , 
74.88, 0.136082, , 
74.92, 0.135873, , 
74.94, 0.135730, , 
74.97, 0.135457, , 
75.00, 0.135223, , 
75.03, 0.134982, , 
75.06, 0.134820, , 
75.09, 0.134677, , 
75.12, 0.134455, , 
75.15, 0.134281, , 
75.18, 0.134122, , 
75.21, 0.133887, , 
75.24, 0.133732, , 
75.27, 0.133586, , 
75.30, 0.133408, , 
75.33, 0.133237, , 
75.36, 0.132971, , 
75.39, 0.132752, , 
75.42, 0.132587, , 
75.45, 0.132301, , 
75.48, 0.132038, , 
75.51, 0.131860, , 
75.54, 0.131673, , 
75.57, 0.131439, , 
75.60, 0.131191, , 
75.63, 0.130918, , 
75.66, 0.130642, , 
75.69, 0.130328, , 
75.72, 0.130040, , 
75.75, 0.129811, , 
75.78, 0.129513, , 
75.81, 0.129218, , 
75.85, 0.128926, , 
75.87, 0.128704, , 
75.90, 0.128419, , 
75.93, 0.128070, , 
75.96, 0.127769, , 
76.00, 0.127499, , 
76.02, 0.127296, , 
76.05, 0.127080, , 
76.08, 0.126804, , 
76.11, 0.126570, , 
76.14, 0.126395, , 
76.17, 0.126084, , 
76.20, 0.125866, , 
76.23, 0.125666, , 
76.26, 0.125479, , 
76.29, 0.125301, , 
76.32, 0.125092, , 
76.35, 0.124949, , 
76.38, 0.124854, , 
76.41, 0.124670, , 
76.44, 0.124470, , 
76.47, 0.124343, , 
76.50, 0.124245, , 
76.53, 0.124172, , 
76.56, 0.124121, , 
76.59, 0.124105, , 
76.62, 0.124058, , 
76.65, 0.123899, , 
76.68, 0.123744, , 
76.71, 0.123591, , 
76.74, 0.123477, , 
76.77, 0.123236, , 
76.78, 0.123157, 24, 0.586
76.80, 0.123043, , 
76.83, 0.122900, , 
76.86, 0.122744, , 
76.89, 0.122529, , 
76.92, 0.122335, , 
76.96, 0.122107, , 
76.98, 0.121945, , 
77.01, 0.121634, , 
77.04, 0.121346, , 
77.07, 0.120990, , 
77.10, 0.120654, , 
77.13, 0.120331, , 
77.16, 0.120036, , 
77.19, 0.119934, , 
77.22, 0.119845, , 
77.25, 0.119671, , 
77.28, 0.119528, , 
77.31, 0.119350, , 
77.34, 0.119135, , 
77.38, 0.118871, , 
77.40, 0.118691, , 
77.43, 0.118526, , 
77.46, 0.118348, , 
77.49, 0.118189, , 
77.52, 0.117996, , 
77.55, 0.117831, , 
77.59, 0.117625, , 
77.61, 0.117416, , 
77.64, 0.117282, , 
77.67, 0.117117, , 
77.70, 0.116889, , 
77.73, 0.116670, , 
77.76, 0.116451, , 
77.79, 0.116296, , 
77.82, 0.116080, , 
77.85, 0.115652, , 
77.88, 0.115408, , 
77.91, 0.115163, , 
77.94, 0.114948, , 
77.97, 0.114602, , 
78.00, 0.114355, , 
78.03, 0.114101, , 
78.06, 0.113828, , 
78.09, 0.113565, , 
78.12, 0.113292, , 
78.15, 0.113083, , 
78.18, 0.112845, , 
78.21, 0.112597, , 
78.24, 0.112404, , 
78.27, 0.112185, , 
78.30, 0.111957, , 
78.33, 0.111687, , 
78.36, 0.111341, , 
78.39, 0.111103, , 
78.42, 0.110888, , 
78.45, 0.110583, , 
78.48, 0.110358, , 
78.51, 0.110066, , 
78.54, 0.109771, , 
78.57, 0.109502, , 
78.60, 0.109232, , 
78.63, 0.109000, , 
78.66, 0.108728, , 
78.69, 0.108410, , 
78.72, 0.108131, , 
78.75, 0.107900, , 
78.78, 0.107662, , 
78.81, 0.107354, , 
78.84, 0.107012, , 
78.87, 0.106742, , 
78.90, 0.106485, , 
78.93, 0.106212, , 
78.96, 0.105971, , 
78.99, 0.105711, , 
79.02, 0.105483, , 
79.05, 0.105270, , 
79.08, 0.105035, , 
79.11, 0.104867, , 
79.14, 0.104595, , 
79.17, 0.104344, , 
79.20, 0.104078, , 
79.23, 0.103884, , 
79.26, 0.103576, , 
79.29, 0.103262, , 
79.32, 0.103009, , 
79.35, 0.102755, , 
79.38, 0.102523, , 
79.41, 0.102228, , 
79.44, 0.101914, , 
79.47, 0.101683, , 
79.50, 0.101369, , 
79.53, 0.101105, , 
79.56, 0.100893, , 
79.59, 0.100677, , 
79.62, 0.100455, , 
79.65, 0.100192, , 
79.68, 0.100005, , 
79.71, 0.099843, , 
79.74, 0.099535, , 
79.77, 0.099234, , 
79.80, 0.099082, , 
79.83, 0.098895, , 
79.86, 0.098600, , 
79.89, 0.098355, , 
79.92, 0.098130, , 
79.95, 0.097930, , 
79.98, 0.097661, , 
79.99, 0.097619, 25, 0.587
80.01, 0.097442, , 
80.04, 0.097207, , 
80.07, 0.097058, , 
80.10, 0.096792, , 
80.13, 0.096570, , 
80.16, 0.096290, , 
80.19, 0.096075, , 
80.22, 0.095837, , 
80.25, 0.095564, , 
80.28, 0.095390, , 
80.31, 0.095206, , 
80.34, 0.094942, , 
80.37, 0.094711, , 
80.40, 0.094467, , 
80.43, 0.094276, , 
80.46, 0.094038, , 
80.49, 0.093750, , 
80.52, 0.093582, , 
80.55, 0.093337, , 
80.58, 0.093103, , 
80.61, 0.092884, , 
80.64, 0.092595, , 
80.67, 0.092278, , 
80.70, 0.091939, , 
80.73, 0.091767, , 
80.76, 0.091580, , 
80.79, 0.091288, , 
80.82, 0.091047, , 
80.85, 0.090778, , 
80.88, 0.090584, , 
80.91, 0.090387, , 
80.94, 0.090162, , 
80.97, 0.089975, , 
81.00, 0.089826, , 
81.03, 0.089655, , 
81.06, 0.089452, , 
81.09, 0.089182, , 
81.12, 0.089036, , 
81.15, 0.088770, , 
81.18, 0.088538, , 
81.21, 0.088310, , 
81.24, 0.087989, , 
81.27, 0.087717, , 
81.30, 0.087399, , 
81.33, 0.087187, , 
81.36, 0.087013, , 
81.39, 0.086765, , 
81.42, 0.086502, , 
81.45, 0.086248, , 
81.48, 0.086055, , 
81.51, 0.085823, , 
81.54, 0.085563, , 
81.57, 0.085376, , 
81.60, 0.085160, , 
81.63, 0.084954, , 
81.66, 0.084710, , 
81.69, 0.084462, , 
81.72, 0.084266, , 
81.75, 0.084113, , 
81.78, 0.083936, , 
81.81, 0.083733, , 
81.84, 0.083571, , 
81.87, 0.083412, , 
81.90, 0.083168, , 
81.93, 0.082971, , 
81.96, 0.082759, , 
81.99, 0.082550, , 
82.02, 0.082337, , 
82.05, 0.082213, , 
82.08, 0.082048, , 
82.12, 0.081864, , 
82.14, 0.081677, , 
82.17, 0.081462, , 
82.20, 0.081249, , 
82.23, 0.081087, , 
82.26, 0.080770, , 
82.29, 0.080659, , 
82.32, 0.080558, , 
82.35, 0.080370, , 
82.38, 0.080215, , 
82.41, 0.080003, , 
82.44, 0.079876, , 
82.47, 0.079711, , 
82.50, 0.079419, , 
82.53, 0.079279, , 
82.56, 0.079114, , 
82.59, 0.078937, , 
82.62, 0.078772, , 
82.65, 0.078648, , 
82.68, 0.078591, , 
82.71, 0.078426, , 
82.74, 0.078299, , 
82.77, 0.078185, , 
82.80, 0.078042, , 
82.83, 0.077842, , 
82.86, 0.077639, , 
82.89, 0.077592, , 
82.92, 0.077525, , 
82.95, 0.077389, , 
82.98, 0.077211, , 
83.01, 0.077145, , 
83.04, 0.077113, , 
83.07, 0.076970, , 
83.10, 0.076758, , 
83.13, 0.076640, , 
83.16, 0.076602, , 
83.18, 0.076548, 26, 0.585
83.19, 0.076532, , 
83.22, 0.076482, , 
83.25, 0.076383, , 
83.28, 0.076282, , 
83.31, 0.076171, , 
83.34, 0.076107, , 
83.37, 0.076050, , 
83.40, 0.075965, , 
83.43, 0.075850, , 
83.46, 0.075749, , 
83.49, 0.075692, , 
83.52, 0.075622, , 
83.55, 0.075568, , 
83.58, 0.075559, , 
83.61, 0.075540, , 
83.64, 0.075419, , 
83.67, 0.075276, , 
83.70, 0.075143, , 
83.73, 0.075118, , 
83.76, 0.075092, , 
83.79, 0.075061, , 
83.82, 0.075048, , 
83.85, 0.075057, , 
83.88, 0.075026, , 
83.91, 0.074972, , 
83.94, 0.075004, , 
83.97, 0.075153, , 
84.00, 0.075299, , 
84.03, 0.075356, , 
84.06, 0.075368, , 
84.09, 0.075400, , 
84.12, 0.075391, , 
84.15, 0.075378, , 
84.18, 0.075384, , 
84.21, 0.075340, , 
84.24, 0.075226, , 
84.28, 0.075073, , 
84.30, 0.074962, , 
84.33, 0.074981, , 
84.36, 0.075105, , 
84.39, 0.075213, , 
84.42, 0.075286, , 
84.45, 0.075359, , 
84.48, 0.075375, , 
84.51, 0.075384, , 
84.54, 0.075387, , 
84.57, 0.075391, , 
84.60, 0.075406, , 
84.63, 0.075365, , 
84.66, 0.075438, , 
84.69, 0.075543, , 
84.72, 0.075720, , 
84.75, 0.075797, , 
84.78, 0.075835, , 
84.81, 0.075930, , 
84.84, 0.076053, , 
84.87, 0.076177, , 
84.90, 0.076304, , 
84.93, 0.076371, , 
84.96, 0.076383, , 
84.99, 0.076447, , 
85.02, 0.076580, , 
85.05, 0.076761, , 
85.08, 0.076837, , 
85.11, 0.076853, , 
85.14, 0.076929, , 
85.17, 0.077062, , 
85.20, 0.077205, , 
85.23, 0.077272, , 
85.26, 0.077354, , 
85.29, 0.077411, , 
85.32, 0.077395, , 
85.35, 0.077370, , 
85.38, 0.077405, , 
85.41, 0.077579, , 
85.44, 0.077725, , 
85.47, 0.077811, , 
85.50, 0.077865, , 
85.53, 0.077890, , 
85.56, 0.077906, , 
85.59, 0.077884, , 
85.62, 0.077928, , 
85.65, 0.077957, , 
85.68, 0.077941, , 
85.71, 0.077915, , 
85.74, 0.077931, , 
85.77, 0.077985, , 
85.80, 0.078064, , 
85.83, 0.078214, , 
85.86, 0.078325, , 
85.89, 0.078417, , 
85.92, 0.078432, , 
85.95, 0.078407, , 
85.98, 0.078432, , 
86.01, 0.078451, , 
86.04, 0.078423, , 
86.07, 0.078391, , 
86.11, 0.078404, , 
86.13, 0.078442, , 
86.16, 0.078417, , 
86.19, 0.078404, , 
86.22, 0.078429, , 
86.25, 0.078439, , 
86.28, 0.078426, , 
86.31, 0.078394, , 
86.34, 0.078401, , 
86.37, 0.078436, , 
86.38, 0.078436, 27, 0.585
86.40, 0.078429, , 
86.43, 0.078388, , 
86.46, 0.078429, , 
86.49, 0.078467, , 
86.52, 0.078426, , 
86.55, 0.078407, , 
86.58, 0.078401, , 
86.61, 0.078448, , 
86.64, 0.078474, , 
86.67, 0.078436, , 
86.70, 0.078439, , 
86.73, 0.078426, , 
86.76, 0.078388, , 
86.79, 0.078445, , 
86.82, 0.078582, , 
86.85, 0.078775, , 
86.88, 0.078813, , 
86.91, 0.078877, , 
86.94, 0.078911, , 
86.97, 0.078946, , 
87.00, 0.078908, , 
87.03, 0.078908, , 
87.06, 0.078930, , 
87.09, 0.078943, , 
87.12, 0.078918, , 
87.15, 0.078883, , 
87.18, 0.078911, , 
87.21, 0.078930, , 
87.24, 0.078927, , 
87.27, 0.079032, , 
87.30, 0.079184, , 
87.33, 0.079295, , 
87.37, 0.079327, , 
87.39, 0.079349, , 
87.43, 0.079387, , 
87.45, 0.079397, , 
87.48, 0.079390, , 
87.51, 0.079406, , 
87.54, 0.079416, , 
87.57, 0.079387, , 
87.60, 0.079368, , 
87.63, 0.079413, , 
87.66, 0.079549, , 
87.69, 0.079695, , 
87.72, 0.079758, , 
87.75, 0.079857, , 
87.78, 0.079933, , 
87.81, 0.079930, , 
87.84, 0.079911, , 
87.87, 0.079907, , 
87.90, 0.079933, , 
87.93, 0.079917, , 
87.96, 0.079907, , 
87.99, 0.080018, , 
88.02, 0.080234, , 
88.05, 0.080278, , 
88.08, 0.080339, , 
88.11, 0.080361, , 
88.14, 0.080405, , 
88.17, 0.080405, , 
88.20, 0.080370, , 
88.23, 0.080361, , 
88.26, 0.080291, , 
88.29, 0.080155, , 
88.32, 0.080028, , 
88.35, 0.079895, , 
88.38, 0.079803, , 
88.41, 0.079666, , 
88.44, 0.079625, , 
88.47, 0.079822, , 
88.50, 0.080313, , 
88.53, 0.080846, , 
88.56, 0.081522, , 
88.59, 0.082112, , 
88.62, 0.082676, , 
88.65, 0.083232, , 
88.68, 0.083593, , 
88.71, 0.084028, , 
88.74, 0.084377, , 
88.77, 0.085109, , 
88.80, 0.088608, , 
88.84, 0.093873, , 
88.86, 0.100899, , 
88.89, 0.110364, , 
88.92, 0.120870, , 
88.95, 0.132263, , 
88.98, 0.140082, , 
89.01, 0.145979, , 
89.04, 0.148282, , 
89.07, 0.149417, , 
89.10, 0.149052, , 
89.13, 0.147733, , 
89.16, 0.145513, , 
89.19, 0.143470, , 
89.22, 0.141332, , 
89.25, 0.139118, , 
89.28, 0.136850, , 
89.31, 0.132888, , 
89.34, 0.127052, , 
89.37, 0.119522, , 
89.40, 0.107738, , 
89.43, 0.095700, , 
89.46, 0.083895, , 
89.49, 0.073399, , 
89.52, 0.065041, , 
89.55, 0.058215, , 
89.58, 0.054421, , 
89.61, 0.051871, , 
89.64, 0.050846, , 
89.67, 0.050554, , 
89.70, 0.050611, , 
89.73, 0.050843, , 
89.76, 0.051224, , 
89.79, 0.051493, , 
89.82, 0.051998, , 
89.86, 0.052505, , 
89.88, 0.052879, , 
89.91, 0.053396, , 
89.94, 0.053929, , 
89.97, 0.054262, , 
90.00, 0.054529, , 
90.03, 0.054735, , 
90.06, 0.054935, , 
90.09, 0.055157, , 
90.12, 0.055417, , 
90.15, 0.055582, , 
90.18, 0.055610, , 
90.22, 0.055553, , 
90.24, 0.055471, , 
90.27, 0.055401, , 
90.30, 0.055350, , 
90.33, 0.055287, , 
90.36, 0.055284, , 
90.39, 0.055334, , 
90.42, 0.055331, , 
90.45, 0.055319, , 
90.48, 0.055322, , 
90.51, 0.055344, , 
90.54, 0.055334, , 
90.57, 0.055328, , 
90.60, 0.055344, , 
90.63, 0.055452, , 
90.66, 0.055591, , 
90.69, 0.055709, , 
90.72, 0.055912, , 
90.75, 0.056194, , 
90.78, 0.056397, , 
90.81, 0.056581, , 
90.84, 0.056730, , 
90.87, 0.056816, , 
90.90, 0.056822, , 
90.93, 0.056793, , 
90.96, 0.056746, , 
90.99, 0.056556, , 
91.02, 0.056264, , 
91.05, 0.056010, , 
91.08, 0.055937, , 
91.11, 0.055883, , 
91.14, 0.055829, , 
91.17, 0.055813, , 
91.20, 0.055817, , 
91.23, 0.055817, , 
91.26, 0.055759, , 
91.29, 0.055747, , 
91.32, 0.055801, , 
91.35, 0.055988, , 
91.38, 0.056080, , 
91.41, 0.056134, , 
91.44, 0.056207, , 
91.47, 0.056318, , 
91.50, 0.056413, , 
91.53, 0.056657, , 
91.56, 0.056939, , 
91.59, 0.057187, , 
91.62, 0.057456, , 
91.65, 0.057726, , 
91.68, 0.058005, , 
91.71, 0.058104, , 
91.74, 0.058157, , 
91.77, 0.058205, , 
91.80, 0.058284, , 
91.83, 0.058408, , 
91.86, 0.058484, , 
91.89, 0.058595, , 
91.92, 0.058709, , 
91.95, 0.058741, , 
91.98, 0.058798, , 
92.01, 0.058985, , 
92.04, 0.059061, , 
92.07, 0.058979, , 
92.10, 0.058824, , 
92.13, 0.058579, , 
92.16, 0.058303, , 
92.19, 0.058053, , 
92.22, 0.057758, , 
92.25, 0.057567, , 
92.28, 0.057345, , 
92.31, 0.057069, , 
92.34, 0.056816, , 
92.37, 0.056606, , 
92.40, 0.056467, , 
92.43, 0.056343, , 
92.46, 0.056232, , 
92.49, 0.056235, , 
92.52, 0.056254, , 
92.55, 0.056264, , 
92.58, 0.056346, , 
92.61, 0.056473, , 
92.64, 0.056740, , 
92.67, 0.057000, , 
92.70, 0.057241, , 
92.73, 0.057501, , 
92.76, 0.057659, , 
92.79, 0.057840, , 
92.82, 0.058027, , 
92.85, 0.058268, , 
92.88, 0.058652, , 
92.91, 0.058973, , 
92.94, 0.059195, , 
92.97, 0.059344, , 
93.00, 0.059433, , 
93.03, 0.059601, , 
93.06, 0.059813, , 
93.09, 0.060200, , 
93.12, 0.060809, , 
93.15, 0.061380, , 
93.18, 0.061929, , 
93.22, 0.062217, , 
93.24, 0.062252, , 
93.27, 0.062106, , 
93.30, 0.062037, , 
93.33, 0.062186, , 
93.36, 0.062427, , 
93.39, 0.062662, , 
93.42, 0.062855, , 
93.45, 0.063134, , 
93.48, 0.063537, , 
93.51, 0.063946, , 
93.54, 0.064365, , 
93.57, 0.064742, , 
93.60, 0.064930, , 
93.63, 0.064942, , 
93.66, 0.064771, , 
93.69, 0.064571, , 
93.72, 0.064473, , 
93.75, 0.064577, , 
93.78, 0.064774, , 
93.81, 0.065212, , 
93.84, 0.065535, , 
93.87, 0.065738, , 
93.90, 0.065891, , 
93.93, 0.066002, , 
93.96, 0.066017, , 
93.99, 0.065976, , 
94.02, 0.065881, , 
94.05, 0.065773, , 
94.08, 0.065770, , 
94.11, 0.065811, , 
94.14, 0.065976, , 
94.17, 0.066205, , 
94.20, 0.066411, , 
94.23, 0.066677, , 
94.26, 0.066988, , 
94.29, 0.067232, , 
94.32, 0.067407, , 
94.35, 0.067610, , 
94.38, 0.067746, , 
94.41, 0.067908, , 
94.44, 0.068003, , 
94.47, 0.067990, , 
94.50, 0.067990, , 
94.53, 0.068063, , 
94.57, 0.067984, , 
94.59, 0.067822, , 
94.62, 0.067695, , 
94.65, 0.067657, , 
94.68, 0.067591, , 
94.71, 0.067537, , 
94.74, 0.067543, , 
94.77, 0.067534, , 
94.80, 0.067432, , 
94.83, 0.067308, , 
94.86, 0.067201, , 
94.89, 0.067153, , 
94.92, 0.067020, , 
94.95, 0.066823, , 
94.98, 0.066699, , 
95.01, 0.066696, , 
95.04, 0.066617, , 
95.07, 0.066538, , 
95.10, 0.066531, , 
95.13, 0.066512, , 
95.16, 0.066379, , 
95.19, 0.066249, , 
95.22, 0.066176, , 
95.25, 0.066189, , 
95.28, 0.066094, , 
95.31, 0.065897, , 
95.35, 0.065770, , 
95.37, 0.065726, , 
95.40, 0.065688, , 
95.43, 0.065640, , 
95.46, 0.065621, , 
95.49, 0.065558, , 
95.52, 0.065351, , 
95.55, 0.065266, , 
95.58, 0.065228, , 
95.61, 0.065186, , 
95.64, 0.065148, , 
95.67, 0.065044, , 
95.70, 0.064942, , 
95.73, 0.064860, , 
95.76, 0.064733, , 
95.79, 0.064654, , 
95.82, 0.064638, , 
95.85, 0.064543, , 
95.88, 0.064381, , 
95.91, 0.064279, , 
95.94, 0.064216, , 
95.97, 0.064168, , 
96.00, 0.064079, , 
