Gradient Profiler Text Data File: 1-C1_SH_30_012126.csv
Date: 2026-01-21
Time: 15:28:19

User: Karen
Experiment name: 
UV Unit: EM-1
Rotor Manufacturer: Beckman
Rotor Model: SW28.1
Speed: 28 rpm
Gradient: sucrose 10.0% to 50.0% w/v
Time: 4
w2t:  x 10^0
Sample Volume: 18 ml
Number of Tubes: 6
Volume per mm: 0.183 ml/mm

Absorbance Units Full Scale (AUFS): 2.00
Event Mark-triggered gradient; (with distance; auto start and stop)
Delay: No Delay
UV Wavelength: 254 nm
Samples / sec: 10 Hz
EM1 Speed: 0.30 mm/sec
Distance: 3.20 mm
Number: 30
Dead Volume: 0.000000 ml; Distance due to Dead Volume: 0.00 mm
Total Distance: 96.00 mm

Data Columns:
Distance(mm), Absorbance, Fraction Number, Fraction Volume(ml)
0.00, 0.080272, 0, 0.000
0.03, 0.080275, , 
0.06, 0.080237, , 
0.09, 0.080310, , 
0.12, 0.080294, , 
0.15, 0.080237, , 
0.18, 0.080336, , 
0.21, 0.081509, , 
0.24, 0.084516, , 
0.27, 0.087875, , 
0.30, 0.090473, , 
0.33, 0.092230, , 
0.36, 0.092808, , 
0.39, 0.092963, , 
0.42, 0.092896, , 
0.45, 0.092766, , 
0.48, 0.092509, , 
0.51, 0.092421, , 
0.54, 0.092833, , 
0.57, 0.095164, , 
0.60, 0.102939, , 
0.63, 0.122319, , 
0.66, 0.158207, , 
0.69, 0.218959, , 
0.72, 0.281893, , 
0.75, 0.349801, , 
0.78, 0.432611, , 
0.81, 0.505965, , 
0.84, 0.580953, , 
0.87, 0.657612, , 
0.90, 0.735841, , 
0.93, 0.828500, , 
0.96, 0.908693, , 
0.99, 1.002791, , 
1.02, 1.083844, , 
1.05, 1.151365, , 
1.08, 1.245435, , 
1.11, 1.323861, , 
1.14, 1.406553, , 
1.17, 1.463397, , 
1.20, 1.504601, , 
1.23, 1.536780, , 
1.26, 1.552421, , 
1.29, 1.567840, , 
1.32, 1.577511, , 
1.35, 1.585454, , 
1.38, 1.593304, , 
1.41, 1.599251, , 
1.44, 1.605487, , 
1.47, 1.609671, , 
1.50, 1.614626, , 
1.53, 1.620507, , 
1.56, 1.625728, , 
1.59, 1.632046, , 
1.62, 1.637311, , 
1.66, 1.642237, , 
1.68, 1.646574, , 
1.71, 1.650456, , 
1.74, 1.654694, , 
1.77, 1.658081, , 
1.80, 1.661263, , 
1.83, 1.664682, , 
1.86, 1.666715, , 
1.89, 1.668910, , 
1.92, 1.670341, , 
1.95, 1.671533, , 
1.98, 1.672596, , 
2.01, 1.672942, , 
2.04, 1.672818, , 
2.07, 1.672453, , 
2.10, 1.671832, , 
2.13, 1.670991, , 
2.16, 1.670214, , 
2.19, 1.669465, , 
2.22, 1.668761, , 
2.25, 1.667883, , 
2.28, 1.666871, , 
2.31, 1.665865, , 
2.34, 1.664742, , 
2.37, 1.664016, , 
2.40, 1.663521, , 
2.43, 1.662998, , 
2.46, 1.662459, , 
2.49, 1.661846, , 
2.52, 1.661231, , 
2.55, 1.660774, , 
2.58, 1.660089, , 
2.61, 1.659046, , 
2.64, 1.657187, , 
2.67, 1.655227, , 
2.70, 1.653396, , 
2.73, 1.650586, , 
2.76, 1.648118, , 
2.79, 1.645137, , 
2.82, 1.642342, , 
2.85, 1.639208, , 
2.88, 1.635208, , 
2.91, 1.632205, , 
2.94, 1.627628, , 
2.97, 1.623520, , 
3.00, 1.619285, , 
3.03, 1.613969, , 
3.06, 1.609072, , 
3.10, 1.602972, , 
3.12, 1.598433, , 
3.15, 1.592873, , 
3.18, 1.587068, 1, 0.582
3.18, 1.586069, , 
3.21, 1.579950, , 
3.24, 1.572553, , 
3.27, 1.565933, , 
3.30, 1.560221, , 
3.33, 1.551996, , 
3.36, 1.544754, , 
3.39, 1.536063, , 
3.42, 1.528279, , 
3.45, 1.520261, , 
3.48, 1.510656, , 
3.51, 1.503592, , 
3.54, 1.493448, , 
3.57, 1.484507, , 
3.60, 1.475387, , 
3.63, 1.464479, , 
3.66, 1.454833, , 
3.69, 1.443348, , 
3.72, 1.435015, , 
3.75, 1.424890, , 
3.78, 1.412792, , 
3.81, 1.402204, , 
3.84, 1.389723, , 
3.87, 1.378862, , 
3.90, 1.367770, , 
3.93, 1.356690, , 
3.96, 1.345646, , 
3.99, 1.332596, , 
4.02, 1.321317, , 
4.05, 1.309977, , 
4.08, 1.296700, , 
4.11, 1.285258, , 
4.14, 1.275686, , 
4.17, 1.262275, , 
4.20, 1.250840, , 
4.23, 1.237394, , 
4.26, 1.225823, , 
4.29, 1.212374, , 
4.33, 1.200879, , 
4.35, 1.191277, , 
4.38, 1.177847, , 
4.41, 1.166339, , 
4.44, 1.154857, , 
4.47, 1.141389, , 
4.50, 1.129824, , 
4.53, 1.118358, , 
4.56, 1.107034, , 
4.59, 1.095739, , 
4.62, 1.082607, , 
4.65, 1.071416, , 
4.68, 1.058500, , 
4.71, 1.047573, , 
4.74, 1.038520, , 
4.77, 1.026035, , 
4.80, 1.015406, , 
4.83, 1.002972, , 
4.86, 0.992337, , 
4.89, 0.981863, , 
4.92, 0.969762, , 
4.95, 0.961103, , 
4.98, 0.949024, , 
5.01, 0.938839, , 
5.04, 0.928730, , 
5.07, 0.916924, , 
5.10, 0.906834, , 
5.13, 0.895180, , 
5.16, 0.886959, , 
5.19, 0.877132, , 
5.22, 0.865732, , 
5.25, 0.856102, , 
5.28, 0.844880, , 
5.31, 0.835240, , 
5.34, 0.825617, , 
5.37, 0.816075, , 
5.40, 0.806525, , 
5.43, 0.795429, , 
5.46, 0.786050, , 
5.49, 0.776724, , 
5.52, 0.765889, , 
5.55, 0.756617, , 
5.58, 0.747482, , 
5.61, 0.738553, , 
5.64, 0.729662, , 
5.67, 0.719347, , 
5.70, 0.710555, , 
5.73, 0.700376, , 
5.76, 0.693090, , 
5.79, 0.684367, , 
5.82, 0.674376, , 
5.85, 0.666056, , 
5.88, 0.656502, , 
5.91, 0.648426, , 
5.94, 0.640547, , 
5.97, 0.632896, , 
6.00, 0.625391, , 
6.03, 0.616757, , 
6.06, 0.609633, , 
6.09, 0.602658, , 
6.12, 0.594554, , 
6.15, 0.587791, , 
6.18, 0.581327, , 
6.21, 0.574989, , 
6.24, 0.568696, , 
6.27, 0.561474, , 
6.30, 0.555415, , 
6.33, 0.548383, , 
6.36, 0.542318, , 
6.38, 0.539286, 2, 0.586
6.39, 0.537294, , 
6.42, 0.530398, , 
6.45, 0.524552, , 
6.48, 0.517698, , 
6.51, 0.511931, , 
6.54, 0.506203, , 
6.57, 0.499497, , 
6.60, 0.494717, , 
6.63, 0.488047, , 
6.66, 0.482366, , 
6.69, 0.476590, , 
6.72, 0.469773, , 
6.75, 0.464092, , 
6.78, 0.457688, , 
6.81, 0.453177, , 
6.84, 0.447795, , 
6.87, 0.441609, , 
6.90, 0.436414, , 
6.93, 0.430466, , 
6.96, 0.425480, , 
7.00, 0.420630, , 
7.02, 0.415933, , 
7.05, 0.411327, , 
7.08, 0.405963, , 
7.11, 0.401488, , 
7.14, 0.397177, , 
7.17, 0.392178, , 
7.20, 0.388540, , 
7.23, 0.383487, , 
7.26, 0.379205, , 
7.29, 0.374802, , 
7.32, 0.369546, , 
7.35, 0.365074, , 
7.38, 0.359916, , 
7.41, 0.356211, , 
7.44, 0.351761, , 
7.47, 0.346632, , 
7.50, 0.342258, , 
7.53, 0.337158, , 
7.56, 0.332822, , 
7.59, 0.328657, , 
7.62, 0.324575, , 
7.65, 0.320410, , 
7.68, 0.315617, , 
7.71, 0.311643, , 
7.74, 0.307792, , 
7.77, 0.303377, , 
7.80, 0.299738, , 
7.83, 0.296306, , 
7.86, 0.292998, , 
7.89, 0.289731, , 
7.92, 0.285997, , 
7.95, 0.282933, , 
7.98, 0.279400, , 
8.01, 0.276304, , 
8.04, 0.273795, , 
8.07, 0.270373, , 
8.10, 0.267419, , 
8.13, 0.264016, , 
8.16, 0.261241, , 
8.19, 0.258544, , 
8.22, 0.255398, , 
8.25, 0.253165, , 
8.28, 0.250021, , 
8.31, 0.247484, , 
8.34, 0.245016, , 
8.37, 0.242025, , 
8.40, 0.239468, , 
8.43, 0.236956, , 
8.46, 0.234438, , 
8.49, 0.231929, , 
8.52, 0.228995, , 
8.55, 0.226549, , 
8.58, 0.223707, , 
8.61, 0.221230, , 
8.64, 0.219190, , 
8.67, 0.216367, , 
8.70, 0.213880, , 
8.73, 0.211010, , 
8.76, 0.208688, , 
8.79, 0.206477, , 
8.82, 0.203829, , 
8.85, 0.201960, , 
8.88, 0.199445, , 
8.91, 0.197364, , 
8.94, 0.195306, , 
8.97, 0.192882, , 
9.00, 0.190957, , 
9.03, 0.188876, , 
9.06, 0.187433, , 
9.09, 0.185780, , 
9.12, 0.184007, , 
9.15, 0.182548, , 
9.18, 0.180784, , 
9.21, 0.179252, , 
9.24, 0.177876, , 
9.27, 0.176518, , 
9.30, 0.175138, , 
9.33, 0.173568, , 
9.36, 0.172265, , 
9.39, 0.170923, , 
9.42, 0.169340, , 
9.45, 0.167992, , 
9.48, 0.166752, , 
9.51, 0.165439, , 
9.54, 0.164068, , 
9.57, 0.162520, 3, 0.584
9.58, 0.162336, , 
9.60, 0.161283, , 
9.63, 0.159735, , 
9.66, 0.158660, , 
9.69, 0.157461, , 
9.72, 0.156081, , 
9.75, 0.154901, , 
9.78, 0.153712, , 
9.81, 0.152440, , 
9.84, 0.151412, , 
9.87, 0.150372, , 
9.90, 0.149284, , 
9.93, 0.148117, , 
9.96, 0.147232, , 
9.99, 0.146388, , 
10.02, 0.145408, , 
10.05, 0.144555, , 
10.08, 0.143946, , 
10.11, 0.143105, , 
10.14, 0.142299, , 
10.17, 0.141437, , 
10.20, 0.140751, , 
10.23, 0.139993, , 
10.26, 0.139083, , 
10.29, 0.138487, , 
10.32, 0.137694, , 
10.35, 0.136904, , 
10.38, 0.136105, , 
10.41, 0.135245, , 
10.44, 0.134553, , 
10.47, 0.133627, , 
10.50, 0.132920, , 
10.53, 0.132247, , 
10.56, 0.131464, , 
10.59, 0.130633, , 
10.62, 0.129688, , 
10.65, 0.128974, , 
10.68, 0.128254, , 
10.71, 0.127547, , 
10.74, 0.126839, , 
10.77, 0.126097, , 
10.80, 0.125450, , 
10.83, 0.124787, , 
10.86, 0.124013, , 
10.89, 0.123560, , 
10.92, 0.122881, , 
10.95, 0.122231, , 
10.98, 0.121717, , 
11.01, 0.121158, , 
11.04, 0.120686, , 
11.07, 0.120121, , 
11.10, 0.119782, , 
11.13, 0.119344, , 
11.16, 0.118805, , 
11.19, 0.118402, , 
11.22, 0.117866, , 
11.25, 0.117422, , 
11.28, 0.116943, , 
11.31, 0.116375, , 
11.34, 0.115922, , 
11.37, 0.115490, , 
11.40, 0.115078, , 
11.43, 0.114634, , 
11.46, 0.114104, , 
11.49, 0.113577, , 
11.52, 0.113022, , 
11.55, 0.112458, , 
11.58, 0.111998, , 
11.61, 0.111484, , 
11.64, 0.111068, , 
11.67, 0.110609, , 
11.70, 0.110339, , 
11.73, 0.110076, , 
11.76, 0.109559, , 
11.79, 0.109159, , 
11.82, 0.108788, , 
11.85, 0.108474, , 
11.88, 0.108185, , 
11.91, 0.107900, , 
11.94, 0.107741, , 
11.97, 0.107500, , 
12.00, 0.107243, , 
12.03, 0.107012, , 
12.06, 0.106869, , 
12.09, 0.106736, , 
12.13, 0.106504, , 
12.15, 0.106345, , 
12.18, 0.106234, , 
12.21, 0.106095, , 
12.24, 0.105879, , 
12.27, 0.105619, , 
12.30, 0.105499, , 
12.33, 0.105400, , 
12.36, 0.105172, , 
12.39, 0.104997, , 
12.42, 0.104779, , 
12.45, 0.104591, , 
12.48, 0.104338, , 
12.51, 0.104116, , 
12.54, 0.103951, , 
12.57, 0.103672, , 
12.60, 0.103475, , 
12.63, 0.103319, , 
12.66, 0.103205, , 
12.69, 0.103069, , 
12.72, 0.102853, , 
12.75, 0.102761, , 
12.78, 0.102650, 4, 0.587
12.79, 0.102606, , 
12.81, 0.102441, , 
12.84, 0.102323, , 
12.87, 0.102330, , 
12.90, 0.102298, , 
12.93, 0.102111, , 
12.96, 0.101927, , 
12.99, 0.101841, , 
13.02, 0.101832, , 
13.05, 0.101791, , 
13.08, 0.101749, , 
13.11, 0.101695, , 
13.14, 0.101610, , 
13.17, 0.101442, , 
13.20, 0.101343, , 
13.23, 0.101312, , 
13.26, 0.101286, , 
13.29, 0.101115, , 
13.32, 0.100969, , 
13.35, 0.100880, , 
13.38, 0.100699, , 
13.41, 0.100484, , 
13.44, 0.100303, , 
13.47, 0.100128, , 
13.50, 0.100002, , 
13.53, 0.099821, , 
13.56, 0.099599, , 
13.59, 0.099427, , 
13.62, 0.099202, , 
13.65, 0.098952, , 
13.68, 0.098717, , 
13.71, 0.098584, , 
13.74, 0.098339, , 
13.77, 0.098057, , 
13.80, 0.097927, , 
13.83, 0.097769, , 
13.86, 0.097572, , 
13.89, 0.097340, , 
13.92, 0.097166, , 
13.95, 0.097020, , 
13.98, 0.096696, , 
14.01, 0.096465, , 
14.04, 0.096284, , 
14.07, 0.096008, , 
14.10, 0.095735, , 
14.13, 0.095472, , 
14.16, 0.095237, , 
14.19, 0.094968, , 
14.22, 0.094632, , 
14.25, 0.094356, , 
14.28, 0.094007, , 
14.31, 0.093702, , 
14.34, 0.093344, , 
14.37, 0.092884, , 
14.40, 0.092617, , 
14.43, 0.092268, , 
14.46, 0.091875, , 
14.49, 0.091491, , 
14.52, 0.091095, , 
14.55, 0.090816, , 
14.58, 0.090441, , 
14.61, 0.090070, , 
14.64, 0.089750, , 
14.67, 0.089299, , 
14.70, 0.088916, , 
14.73, 0.088605, , 
14.76, 0.088329, , 
14.79, 0.088012, , 
14.82, 0.087653, , 
14.85, 0.087365, , 
14.88, 0.087041, , 
14.91, 0.086762, , 
14.94, 0.086505, , 
14.97, 0.086096, , 
15.00, 0.085804, , 
15.03, 0.085408, , 
15.06, 0.085049, , 
15.09, 0.084748, , 
15.12, 0.084389, , 
15.15, 0.084091, , 
15.18, 0.083679, , 
15.21, 0.083419, , 
15.24, 0.083127, , 
15.27, 0.082664, , 
15.30, 0.082194, , 
15.33, 0.081849, , 
15.36, 0.081646, , 
15.39, 0.081268, , 
15.42, 0.080846, , 
15.45, 0.080481, , 
15.48, 0.080196, , 
15.51, 0.079844, , 
15.54, 0.079495, , 
15.57, 0.079279, , 
15.60, 0.079029, , 
15.63, 0.078604, , 
15.66, 0.078347, , 
15.69, 0.078118, , 
15.72, 0.077833, , 
15.76, 0.077557, , 
15.78, 0.077319, , 
15.81, 0.077154, , 
15.84, 0.076996, , 
15.87, 0.076761, , 
15.90, 0.076567, , 
15.93, 0.076387, , 
15.96, 0.076218, , 
15.98, 0.076066, 5, 0.585
15.99, 0.075981, , 
16.02, 0.075717, , 
16.05, 0.075536, , 
16.08, 0.075324, , 
16.11, 0.075153, , 
16.14, 0.075013, , 
16.17, 0.074874, , 
16.20, 0.074699, , 
16.23, 0.074353, , 
16.26, 0.074211, , 
16.29, 0.074065, , 
16.32, 0.073814, , 
16.35, 0.073649, , 
16.38, 0.073583, , 
16.41, 0.073449, , 
16.44, 0.073272, , 
16.47, 0.073088, , 
16.50, 0.073046, , 
16.53, 0.072964, , 
16.56, 0.072761, , 
16.59, 0.072625, , 
16.62, 0.072577, , 
16.65, 0.072501, , 
16.68, 0.072434, , 
16.71, 0.072387, , 
16.74, 0.072406, , 
16.77, 0.072441, , 
16.80, 0.072399, , 
16.83, 0.072361, , 
16.86, 0.072434, , 
16.89, 0.072437, , 
16.92, 0.072377, , 
16.95, 0.072406, , 
16.99, 0.072457, , 
17.01, 0.072460, , 
17.04, 0.072390, , 
17.07, 0.072431, , 
17.10, 0.072568, , 
17.13, 0.072698, , 
17.16, 0.072764, , 
17.19, 0.072815, , 
17.22, 0.072901, , 
17.25, 0.072951, , 
17.28, 0.072904, , 
17.31, 0.072894, , 
17.34, 0.072967, , 
17.37, 0.072951, , 
17.40, 0.072916, , 
17.43, 0.072935, , 
17.46, 0.072983, , 
17.49, 0.072980, , 
17.52, 0.072996, , 
17.55, 0.073151, , 
17.58, 0.073329, , 
17.61, 0.073376, , 
17.64, 0.073364, , 
17.67, 0.073449, , 
17.70, 0.073586, , 
17.73, 0.073744, , 
17.76, 0.073789, , 
17.79, 0.073970, , 
17.82, 0.074185, , 
17.85, 0.074249, , 
17.88, 0.074414, , 
17.91, 0.074610, , 
17.94, 0.074766, , 
17.97, 0.074845, , 
18.00, 0.074912, , 
18.03, 0.075045, , 
18.06, 0.075267, , 
18.09, 0.075337, , 
18.12, 0.075492, , 
18.15, 0.075698, , 
18.18, 0.075822, , 
18.22, 0.075863, , 
18.24, 0.075927, , 
18.27, 0.076145, , 
18.30, 0.076291, , 
18.33, 0.076374, , 
18.36, 0.076526, , 
18.39, 0.076777, , 
18.42, 0.076815, , 
18.45, 0.076926, , 
18.48, 0.077135, , 
18.51, 0.077421, , 
18.54, 0.077592, , 
18.57, 0.077744, , 
18.60, 0.077903, , 
18.63, 0.078109, , 
18.66, 0.078274, , 
18.69, 0.078442, , 
18.72, 0.078740, , 
18.75, 0.078959, , 
18.78, 0.079175, , 
18.81, 0.079355, , 
18.84, 0.079616, , 
18.87, 0.079841, , 
18.90, 0.080044, , 
18.93, 0.080301, , 
18.96, 0.080627, , 
18.99, 0.080932, , 
19.02, 0.081157, , 
19.05, 0.081411, , 
19.08, 0.081877, , 
19.11, 0.082270, , 
19.14, 0.082676, , 
19.17, 0.083022, , 
19.18, 0.083228, 6, 0.586
19.20, 0.083546, , 
19.23, 0.084059, , 
19.26, 0.084488, , 
19.29, 0.085097, , 
19.32, 0.085674, , 
19.35, 0.086216, , 
19.38, 0.086724, , 
19.41, 0.087279, , 
19.44, 0.088040, , 
19.47, 0.088694, , 
19.50, 0.089388, , 
19.53, 0.090194, , 
19.56, 0.090936, , 
19.59, 0.091675, , 
19.62, 0.092471, , 
19.65, 0.093287, , 
19.68, 0.094270, , 
19.71, 0.095136, , 
19.74, 0.096157, , 
19.77, 0.097014, , 
19.80, 0.097784, , 
19.83, 0.098736, , 
19.86, 0.099583, , 
19.89, 0.100712, , 
19.92, 0.101756, , 
19.95, 0.102682, , 
19.98, 0.103735, , 
20.01, 0.104553, , 
20.04, 0.105775, , 
20.07, 0.106774, , 
20.10, 0.107662, , 
20.13, 0.108769, , 
20.16, 0.109711, , 
20.19, 0.110504, , 
20.22, 0.111379, , 
20.25, 0.112331, , 
20.28, 0.113371, , 
20.31, 0.114190, , 
20.34, 0.115176, , 
20.37, 0.116061, , 
20.40, 0.116708, , 
20.43, 0.117730, , 
20.46, 0.118488, , 
20.49, 0.119309, , 
20.52, 0.120023, , 
20.55, 0.120578, , 
20.58, 0.121254, , 
20.61, 0.121815, , 
20.64, 0.122491, , 
20.67, 0.122979, , 
20.70, 0.123436, , 
20.73, 0.123997, , 
20.76, 0.124384, , 
20.79, 0.124717, , 
20.82, 0.124946, , 
20.85, 0.125212, , 
20.88, 0.125513, , 
20.91, 0.125685, , 
20.94, 0.125964, , 
20.97, 0.126195, , 
21.00, 0.126338, , 
21.03, 0.126392, , 
21.06, 0.126449, , 
21.09, 0.126538, , 
21.12, 0.126525, , 
21.15, 0.126506, , 
21.18, 0.126484, , 
21.21, 0.126408, , 
21.24, 0.126249, , 
21.27, 0.126113, , 
21.30, 0.125996, , 
21.33, 0.125831, , 
21.36, 0.125577, , 
21.39, 0.125317, , 
21.42, 0.125111, , 
21.45, 0.124946, , 
21.48, 0.124609, , 
21.51, 0.124289, , 
21.54, 0.123959, , 
21.57, 0.123655, , 
21.60, 0.123271, , 
21.63, 0.122928, , 
21.66, 0.122675, , 
21.69, 0.122319, , 
21.72, 0.121926, , 
21.75, 0.121558, , 
21.78, 0.121257, , 
21.81, 0.120962, , 
21.84, 0.120575, , 
21.87, 0.120172, , 
21.90, 0.119794, , 
21.93, 0.119268, , 
21.96, 0.118811, , 
21.99, 0.118437, , 
22.02, 0.118145, , 
22.05, 0.117910, , 
22.08, 0.117488, , 
22.11, 0.117051, , 
22.14, 0.116699, , 
22.17, 0.116197, , 
22.20, 0.115709, , 
22.23, 0.115189, , 
22.26, 0.114862, , 
22.29, 0.114351, , 
22.32, 0.113872, , 
22.35, 0.113460, , 
22.38, 0.113064, 7, 0.585
22.38, 0.112997, , 
22.41, 0.112556, , 
22.44, 0.112058, , 
22.47, 0.111655, , 
22.50, 0.111303, , 
22.53, 0.110770, , 
22.56, 0.110275, , 
22.59, 0.109854, , 
22.62, 0.109378, , 
22.65, 0.108880, , 
22.68, 0.108404, , 
22.71, 0.108030, , 
22.74, 0.107611, , 
22.77, 0.107075, , 
22.80, 0.106583, , 
22.83, 0.106111, , 
22.87, 0.105714, , 
22.89, 0.105321, , 
22.92, 0.104788, , 
22.95, 0.104382, , 
22.98, 0.103862, , 
23.01, 0.103446, , 
23.04, 0.102967, , 
23.07, 0.102558, , 
23.10, 0.102174, , 
23.13, 0.101638, , 
23.16, 0.101274, , 
23.19, 0.100972, , 
23.22, 0.100645, , 
23.25, 0.100227, , 
23.28, 0.099814, , 
23.31, 0.099475, , 
23.34, 0.099158, , 
23.37, 0.098790, , 
23.40, 0.098435, , 
23.43, 0.098038, , 
23.46, 0.097781, , 
23.49, 0.097445, , 
23.52, 0.097077, , 
23.55, 0.096814, , 
23.58, 0.096516, , 
23.61, 0.096164, , 
23.64, 0.095891, , 
23.67, 0.095605, , 
23.70, 0.095377, , 
23.73, 0.095076, , 
23.76, 0.094857, , 
23.79, 0.094666, , 
23.82, 0.094387, , 
23.85, 0.094156, , 
23.88, 0.094032, , 
23.91, 0.093927, , 
23.94, 0.093696, , 
23.97, 0.093521, , 
24.00, 0.093458, , 
24.03, 0.093372, , 
24.06, 0.093210, , 
24.09, 0.093061, , 
24.12, 0.092988, , 
24.15, 0.092976, , 
24.18, 0.092893, , 
24.21, 0.092868, , 
24.24, 0.092957, , 
24.27, 0.093106, , 
24.31, 0.093198, , 
24.33, 0.093271, , 
24.36, 0.093474, , 
24.39, 0.093702, , 
24.42, 0.093889, , 
24.45, 0.094095, , 
24.48, 0.094409, , 
24.51, 0.094679, , 
24.54, 0.095015, , 
24.57, 0.095510, , 
24.60, 0.096084, , 
24.63, 0.096833, , 
24.66, 0.097537, , 
24.69, 0.098422, , 
24.72, 0.099431, , 
24.75, 0.100512, , 
24.78, 0.102003, , 
24.81, 0.103519, , 
24.84, 0.105156, , 
24.87, 0.107246, , 
24.90, 0.109245, , 
24.93, 0.111503, , 
24.96, 0.114094, , 
24.99, 0.116927, , 
25.02, 0.120537, , 
25.05, 0.123969, , 
25.08, 0.128378, , 
25.11, 0.132536, , 
25.14, 0.136311, , 
25.17, 0.142096, , 
25.20, 0.147501, , 
25.23, 0.154273, , 
25.26, 0.160551, , 
25.29, 0.167367, , 
25.32, 0.175830, , 
25.35, 0.182072, , 
25.38, 0.191372, , 
25.41, 0.199832, , 
25.44, 0.208637, , 
25.47, 0.219352, , 
25.50, 0.228890, , 
25.54, 0.240322, , 
25.56, 0.248762, , 
25.58, 0.253885, 8, 0.585
25.59, 0.259049, , 
25.62, 0.271229, , 
25.65, 0.281877, , 
25.68, 0.294435, , 
25.71, 0.305197, , 
25.75, 0.315988, , 
25.77, 0.326833, , 
25.80, 0.337592, , 
25.83, 0.349969, , 
25.86, 0.360519, , 
25.89, 0.370945, , 
25.92, 0.382789, , 
25.95, 0.390037, , 
25.98, 0.402255, , 
26.01, 0.411587, , 
26.04, 0.420589, , 
26.07, 0.430631, , 
26.10, 0.438977, , 
26.13, 0.448226, , 
26.16, 0.454494, , 
26.19, 0.461691, , 
26.22, 0.469760, , 
26.25, 0.476310, , 
26.28, 0.483336, , 
26.31, 0.488960, , 
26.34, 0.494305, , 
26.37, 0.499285, , 
26.40, 0.503862, , 
26.43, 0.508797, , 
26.46, 0.512712, , 
26.49, 0.516197, , 
26.52, 0.519791, , 
26.55, 0.522614, , 
26.58, 0.525165, , 
26.61, 0.527518, , 
26.64, 0.529583, , 
26.67, 0.531477, , 
26.70, 0.532885, , 
26.73, 0.534208, , 
26.77, 0.534994, , 
26.79, 0.535534, , 
26.82, 0.536193, , 
26.85, 0.536549, , 
26.88, 0.536688, , 
26.91, 0.536669, , 
26.94, 0.536438, , 
26.98, 0.535781, , 
27.00, 0.535112, , 
27.03, 0.534049, , 
27.06, 0.533075, , 
27.09, 0.531959, , 
27.12, 0.530328, , 
27.15, 0.528800, , 
27.18, 0.527176, , 
27.21, 0.525406, , 
27.24, 0.523461, , 
27.27, 0.521066, , 
27.30, 0.518916, , 
27.33, 0.516654, , 
27.36, 0.513777, , 
27.39, 0.511636, , 
27.42, 0.508461, , 
27.45, 0.505654, , 
27.48, 0.502742, , 
27.51, 0.499247, , 
27.54, 0.496202, , 
27.57, 0.492475, , 
27.60, 0.489756, , 
27.63, 0.486473, , 
27.66, 0.482613, , 
27.69, 0.479200, , 
27.72, 0.475137, , 
27.75, 0.471686, , 
27.78, 0.468174, , 
27.81, 0.464520, , 
27.84, 0.460885, , 
27.87, 0.456708, , 
27.90, 0.453101, , 
27.93, 0.449444, , 
27.96, 0.445061, , 
27.99, 0.441635, , 
28.02, 0.437610, , 
28.05, 0.433810, , 
28.08, 0.429968, , 
28.11, 0.425553, , 
28.14, 0.421652, , 
28.17, 0.417106, , 
28.21, 0.413303, , 
28.23, 0.410163, , 
28.26, 0.405741, , 
28.29, 0.401910, , 
28.32, 0.397453, , 
28.35, 0.393685, , 
28.38, 0.389948, , 
28.41, 0.386221, , 
28.44, 0.382545, , 
28.47, 0.378399, , 
28.50, 0.374859, , 
28.53, 0.371386, , 
28.56, 0.367408, , 
28.59, 0.364091, , 
28.62, 0.360757, , 
28.65, 0.357464, , 
28.68, 0.354280, , 
28.71, 0.350642, , 
28.74, 0.347530, , 
28.77, 0.343908, 9, 0.585
28.78, 0.343397, , 
28.80, 0.340897, , 
28.83, 0.338376, , 
28.86, 0.334852, , 
28.89, 0.331889, , 
28.92, 0.328457, , 
28.95, 0.325510, , 
28.98, 0.322621, , 
29.01, 0.319217, , 
29.04, 0.316838, , 
29.07, 0.313571, , 
29.10, 0.310697, , 
29.13, 0.307865, , 
29.16, 0.304614, , 
29.19, 0.301857, , 
29.22, 0.298555, , 
29.25, 0.296233, , 
29.28, 0.293499, , 
29.31, 0.290305, , 
29.34, 0.287612, , 
29.37, 0.284519, , 
29.40, 0.281963, , 
29.43, 0.279432, , 
29.46, 0.276913, , 
29.49, 0.274468, , 
29.52, 0.271651, , 
29.55, 0.269247, , 
29.58, 0.266868, , 
29.61, 0.264216, , 
29.65, 0.261967, , 
29.67, 0.259617, , 
29.70, 0.257231, , 
29.73, 0.254843, , 
29.76, 0.252112, , 
29.79, 0.249815, , 
29.82, 0.247151, , 
29.85, 0.245279, , 
29.88, 0.243110, , 
29.91, 0.240572, , 
29.94, 0.238279, , 
29.97, 0.235614, , 
30.00, 0.233359, , 
30.03, 0.231123, , 
30.06, 0.228852, , 
30.09, 0.226660, , 
30.12, 0.224148, , 
30.15, 0.222124, , 
30.18, 0.219720, , 
30.21, 0.217274, , 
30.24, 0.215263, , 
30.27, 0.213252, , 
30.30, 0.211229, , 
30.33, 0.209297, , 
30.36, 0.207067, , 
30.39, 0.205177, , 
30.42, 0.203039, , 
30.45, 0.201297, , 
30.48, 0.199826, , 
30.51, 0.197713, , 
30.54, 0.195997, , 
30.57, 0.193989, , 
30.60, 0.192289, , 
30.63, 0.190595, , 
30.67, 0.188638, , 
30.69, 0.187306, , 
30.72, 0.185415, , 
30.75, 0.183829, , 
30.78, 0.182202, , 
30.81, 0.180464, , 
30.84, 0.178891, , 
30.87, 0.177226, , 
30.90, 0.175684, , 
30.93, 0.174165, , 
30.96, 0.172366, , 
30.99, 0.170831, , 
31.02, 0.169115, , 
31.05, 0.167694, , 
31.09, 0.166140, , 
31.11, 0.164569, , 
31.14, 0.163079, , 
31.17, 0.161455, , 
31.20, 0.160043, , 
31.23, 0.158654, , 
31.26, 0.157020, , 
31.29, 0.155847, , 
31.32, 0.154251, , 
31.35, 0.152944, , 
31.38, 0.151749, , 
31.41, 0.150308, , 
31.44, 0.149046, , 
31.47, 0.147631, , 
31.50, 0.146689, , 
31.53, 0.145598, , 
31.56, 0.144288, , 
31.59, 0.143121, , 
31.62, 0.141852, , 
31.65, 0.140796, , 
31.68, 0.139673, , 
31.71, 0.138648, , 
31.74, 0.137529, , 
31.77, 0.136523, , 
31.80, 0.135289, , 
31.83, 0.134236, , 
31.86, 0.133079, , 
31.89, 0.132054, , 
31.92, 0.130963, , 
31.95, 0.129837, , 
31.98, 0.128949, 10, 0.586
31.98, 0.128774, , 
32.01, 0.127626, , 
32.04, 0.126659, , 
32.07, 0.125545, , 
32.11, 0.124562, , 
32.13, 0.123715, , 
32.16, 0.122554, , 
32.19, 0.121723, , 
32.22, 0.120768, , 
32.25, 0.119775, , 
32.28, 0.118916, , 
32.31, 0.118193, , 
32.34, 0.117466, , 
32.37, 0.116734, , 
32.40, 0.115874, , 
32.43, 0.115246, , 
32.46, 0.114561, , 
32.49, 0.113911, , 
32.52, 0.113263, , 
32.55, 0.112677, , 
32.58, 0.112049, , 
32.61, 0.111335, , 
32.64, 0.110701, , 
32.67, 0.110164, , 
32.70, 0.109565, , 
32.73, 0.109073, , 
32.76, 0.108356, , 
32.79, 0.107811, , 
32.82, 0.107268, , 
32.85, 0.106574, , 
32.88, 0.105990, , 
32.91, 0.105337, , 
32.94, 0.104801, , 
32.97, 0.104227, , 
33.00, 0.103637, , 
33.03, 0.103097, , 
33.06, 0.102444, , 
33.09, 0.101870, , 
33.12, 0.101353, , 
33.15, 0.100899, , 
33.18, 0.100433, , 
33.21, 0.099846, , 
33.24, 0.099421, , 
33.27, 0.099021, , 
33.30, 0.098539, , 
33.33, 0.098171, , 
33.36, 0.097873, , 
33.39, 0.097604, , 
33.42, 0.097223, , 
33.45, 0.096763, , 
33.48, 0.096462, , 
33.51, 0.096113, , 
33.55, 0.095815, , 
33.57, 0.095555, , 
33.60, 0.095272, , 
33.63, 0.095079, , 
33.66, 0.094762, , 
33.69, 0.094508, , 
33.72, 0.094352, , 
33.75, 0.094140, , 
33.78, 0.093870, , 
33.81, 0.093556, , 
33.84, 0.093379, , 
33.87, 0.093242, , 
33.90, 0.092935, , 
33.93, 0.092817, , 
33.96, 0.092722, , 
33.99, 0.092532, , 
34.02, 0.092364, , 
34.05, 0.092265, , 
34.08, 0.092173, , 
34.11, 0.092024, , 
34.14, 0.091859, , 
34.17, 0.091821, , 
34.20, 0.091812, , 
34.23, 0.091812, , 
34.26, 0.091767, , 
34.29, 0.091755, , 
34.32, 0.091789, , 
34.35, 0.091866, , 
34.38, 0.091945, , 
34.41, 0.092031, , 
34.44, 0.092176, , 
34.47, 0.092224, , 
34.50, 0.092221, , 
34.53, 0.092326, , 
34.57, 0.092541, , 
34.59, 0.092678, , 
34.62, 0.092833, , 
34.65, 0.093096, , 
34.68, 0.093325, , 
34.71, 0.093524, , 
34.74, 0.093645, , 
34.77, 0.093867, , 
34.80, 0.094035, , 
34.83, 0.094197, , 
34.86, 0.094406, , 
34.89, 0.094600, , 
34.92, 0.094863, , 
34.95, 0.095114, , 
34.99, 0.095348, , 
35.01, 0.095716, , 
35.04, 0.096097, , 
35.07, 0.096389, , 
35.10, 0.096690, , 
35.13, 0.097058, , 
35.16, 0.097508, , 
35.19, 0.097762, 11, 0.588
35.19, 0.097819, , 
35.22, 0.098238, , 
35.25, 0.098803, , 
35.28, 0.099221, , 
35.31, 0.099691, , 
35.34, 0.100141, , 
35.37, 0.100569, , 
35.40, 0.100994, , 
35.43, 0.101407, , 
35.46, 0.101908, , 
35.49, 0.102381, , 
35.52, 0.102815, , 
35.55, 0.103310, , 
35.58, 0.103706, , 
35.61, 0.104189, , 
35.64, 0.104620, , 
35.67, 0.105061, , 
35.70, 0.105619, , 
35.73, 0.106187, , 
35.76, 0.106834, , 
35.79, 0.107316, , 
35.82, 0.107751, , 
35.85, 0.108306, , 
35.88, 0.108642, , 
35.91, 0.108965, , 
35.94, 0.109324, , 
35.97, 0.109752, , 
36.01, 0.110199, , 
36.03, 0.110517, , 
36.06, 0.110986, , 
36.09, 0.111332, , 
36.12, 0.111665, , 
36.15, 0.111966, , 
36.18, 0.112267, , 
36.21, 0.112578, , 
36.24, 0.112762, , 
36.27, 0.112937, , 
36.30, 0.113270, , 
36.33, 0.113463, , 
36.36, 0.113600, , 
36.39, 0.113771, , 
36.42, 0.113917, , 
36.45, 0.114031, , 
36.48, 0.114041, , 
36.51, 0.114047, , 
36.54, 0.114085, , 
36.57, 0.113961, , 
36.60, 0.113809, , 
36.63, 0.113723, , 
36.66, 0.113603, , 
36.69, 0.113441, , 
36.72, 0.113238, , 
36.75, 0.112880, , 
36.78, 0.112597, , 
36.81, 0.112233, , 
36.84, 0.111979, , 
36.87, 0.111684, , 
36.90, 0.111313, , 
36.93, 0.110929, , 
36.96, 0.110437, , 
36.99, 0.109993, , 
37.02, 0.109590, , 
37.05, 0.109153, , 
37.08, 0.108674, , 
37.11, 0.108188, , 
37.14, 0.107751, , 
37.17, 0.107196, , 
37.20, 0.106495, , 
37.24, 0.106000, , 
37.26, 0.105511, , 
37.29, 0.105067, , 
37.32, 0.104591, , 
37.35, 0.104027, , 
37.38, 0.103567, , 
37.41, 0.102894, , 
37.44, 0.102412, , 
37.47, 0.101914, , 
37.50, 0.101353, , 
37.53, 0.100779, , 
37.56, 0.100065, , 
37.59, 0.099538, , 
37.62, 0.098983, , 
37.65, 0.098355, , 
37.68, 0.097746, , 
37.71, 0.097071, , 
37.74, 0.096522, , 
37.77, 0.095805, , 
37.81, 0.095301, , 
37.83, 0.094879, , 
37.86, 0.094206, , 
37.89, 0.093610, , 
37.92, 0.093001, , 
37.95, 0.092535, , 
37.98, 0.092097, , 
38.01, 0.091586, , 
38.04, 0.091142, , 
38.07, 0.090673, , 
38.10, 0.090200, , 
38.13, 0.089731, , 
38.16, 0.089268, , 
38.19, 0.088878, , 
38.22, 0.088443, , 
38.25, 0.087970, , 
38.28, 0.087536, , 
38.31, 0.087200, , 
38.34, 0.086829, , 
38.37, 0.086435, 12, 0.583
38.38, 0.086365, , 
38.40, 0.086061, , 
38.43, 0.085766, , 
38.46, 0.085316, , 
38.49, 0.084871, , 
38.52, 0.084335, , 
38.55, 0.083926, , 
38.58, 0.083498, , 
38.61, 0.082937, , 
38.64, 0.082562, , 
38.67, 0.082093, , 
38.70, 0.081668, , 
38.73, 0.081316, , 
38.76, 0.080983, , 
38.79, 0.080694, , 
38.83, 0.080237, , 
38.85, 0.079911, , 
38.88, 0.079638, , 
38.91, 0.079276, , 
38.94, 0.078956, , 
38.97, 0.078604, , 
39.00, 0.078363, , 
39.03, 0.078210, , 
39.06, 0.077881, , 
39.09, 0.077560, , 
39.12, 0.077275, , 
39.15, 0.077027, , 
39.18, 0.076739, , 
39.21, 0.076444, , 
39.24, 0.076260, , 
39.27, 0.075942, , 
39.30, 0.075644, , 
39.33, 0.075352, , 
39.36, 0.075064, , 
39.39, 0.074905, , 
39.42, 0.074667, , 
39.45, 0.074426, , 
39.48, 0.074188, , 
39.51, 0.073824, , 
39.54, 0.073538, , 
39.57, 0.073253, , 
39.60, 0.073027, , 
39.63, 0.072875, , 
39.66, 0.072615, , 
39.69, 0.072301, , 
39.72, 0.072133, , 
39.75, 0.072012, , 
39.78, 0.071822, , 
39.81, 0.071641, , 
39.84, 0.071527, , 
39.87, 0.071362, , 
39.90, 0.071178, , 
39.93, 0.071067, , 
39.96, 0.070950, , 
39.99, 0.070763, , 
40.02, 0.070582, , 
40.06, 0.070461, , 
40.08, 0.070433, , 
40.11, 0.070306, , 
40.14, 0.070131, , 
40.17, 0.070039, , 
40.20, 0.069998, , 
40.23, 0.069881, , 
40.26, 0.069792, , 
40.29, 0.069687, , 
40.32, 0.069633, , 
40.35, 0.069500, , 
40.38, 0.069424, , 
40.41, 0.069367, , 
40.44, 0.069319, , 
40.47, 0.069183, , 
40.50, 0.068999, , 
40.53, 0.068958, , 
40.56, 0.068958, , 
40.59, 0.068891, , 
40.62, 0.068840, , 
40.65, 0.068755, , 
40.68, 0.068691, , 
40.71, 0.068615, , 
40.74, 0.068580, , 
40.77, 0.068676, , 
40.80, 0.068809, , 
40.83, 0.068806, , 
40.87, 0.068872, , 
40.89, 0.068964, , 
40.92, 0.069158, , 
40.95, 0.069300, , 
40.98, 0.069443, , 
41.01, 0.069713, , 
41.04, 0.069963, , 
41.07, 0.070147, , 
41.10, 0.070300, , 
41.13, 0.070576, , 
41.16, 0.070858, , 
41.19, 0.071131, , 
41.22, 0.071416, , 
41.25, 0.071771, , 
41.28, 0.072035, , 
41.31, 0.072352, , 
41.34, 0.072583, , 
41.37, 0.072916, , 
41.40, 0.073354, , 
41.43, 0.073732, , 
41.46, 0.074138, , 
41.49, 0.074442, , 
41.52, 0.074905, , 
41.55, 0.075340, , 
41.58, 0.075771, , 
41.59, 0.075863, 13, 0.588
41.61, 0.076437, , 
41.64, 0.076970, , 
41.67, 0.077516, , 
41.70, 0.078172, , 
41.73, 0.078911, , 
41.76, 0.079755, , 
41.79, 0.080523, , 
41.82, 0.081395, , 
41.85, 0.082420, , 
41.88, 0.083232, , 
41.91, 0.084085, , 
41.94, 0.084944, , 
41.97, 0.085852, , 
42.00, 0.086940, , 
42.03, 0.087891, , 
42.06, 0.089071, , 
42.10, 0.090105, , 
42.12, 0.090936, , 
42.15, 0.092148, , 
42.18, 0.093261, , 
42.21, 0.094530, , 
42.24, 0.095596, , 
42.27, 0.096728, , 
42.30, 0.097905, , 
42.33, 0.099053, , 
42.36, 0.100322, , 
42.39, 0.101391, , 
42.42, 0.102514, , 
42.45, 0.103802, , 
42.48, 0.104867, , 
42.51, 0.105917, , 
42.54, 0.106973, , 
42.57, 0.108046, , 
42.60, 0.109213, , 
42.63, 0.110164, , 
42.66, 0.111205, , 
42.69, 0.112011, , 
42.72, 0.112623, , 
42.75, 0.113470, , 
42.78, 0.114221, , 
42.81, 0.115062, , 
42.84, 0.115633, , 
42.87, 0.116197, , 
42.90, 0.116826, , 
42.93, 0.117197, , 
42.96, 0.117657, , 
42.99, 0.118040, , 
43.02, 0.118361, , 
43.05, 0.118675, , 
43.08, 0.118818, , 
43.11, 0.118941, , 
43.14, 0.119024, , 
43.17, 0.119071, , 
43.20, 0.119014, , 
43.23, 0.119024, , 
43.26, 0.118929, , 
43.29, 0.118786, , 
43.32, 0.118532, , 
43.35, 0.118247, , 
43.38, 0.117961, , 
43.41, 0.117488, , 
43.44, 0.117054, , 
43.47, 0.116642, , 
43.50, 0.116182, , 
43.53, 0.115779, , 
43.56, 0.115097, , 
43.59, 0.114554, , 
43.62, 0.114056, , 
43.65, 0.113327, , 
43.68, 0.112689, , 
43.71, 0.111969, , 
43.74, 0.111494, , 
43.77, 0.110853, , 
43.80, 0.109996, , 
43.83, 0.109359, , 
43.86, 0.108601, , 
43.89, 0.107950, , 
43.92, 0.107218, , 
43.95, 0.106621, , 
43.98, 0.106047, , 
44.01, 0.105213, , 
44.04, 0.104579, , 
44.07, 0.103963, , 
44.10, 0.103237, , 
44.13, 0.102545, , 
44.16, 0.101864, , 
44.19, 0.101226, , 
44.22, 0.100595, , 
44.25, 0.099792, , 
44.28, 0.099107, , 
44.31, 0.098400, , 
44.35, 0.097800, , 
44.37, 0.097277, , 
44.40, 0.096560, , 
44.43, 0.095992, , 
44.46, 0.095371, , 
44.49, 0.094758, , 
44.52, 0.094149, , 
44.55, 0.093604, , 
44.58, 0.093027, , 
44.61, 0.092275, , 
44.64, 0.091688, , 
44.67, 0.091228, , 
44.70, 0.090635, , 
44.73, 0.090118, , 
44.76, 0.089693, , 
44.78, 0.089414, 14, 0.585
44.79, 0.089293, , 
44.82, 0.088862, , 
44.85, 0.088342, , 
44.88, 0.087869, , 
44.91, 0.087415, , 
44.94, 0.086974, , 
44.97, 0.086578, , 
45.00, 0.086172, , 
45.03, 0.085915, , 
45.06, 0.085522, , 
45.09, 0.085106, , 
45.12, 0.084799, , 
45.15, 0.084475, , 
45.18, 0.084202, , 
45.21, 0.083755, , 
45.24, 0.083412, , 
45.27, 0.083149, , 
45.30, 0.082816, , 
45.33, 0.082439, , 
45.36, 0.082188, , 
45.39, 0.081947, , 
45.42, 0.081630, , 
45.45, 0.081309, , 
45.48, 0.080986, , 
45.51, 0.080732, , 
45.54, 0.080462, , 
45.57, 0.080278, , 
45.60, 0.080044, , 
45.63, 0.079879, , 
45.66, 0.079574, , 
45.69, 0.079317, , 
45.72, 0.079213, , 
45.75, 0.079007, , 
45.78, 0.078845, , 
45.81, 0.078648, , 
45.84, 0.078553, , 
45.87, 0.078496, , 
45.90, 0.078325, , 
45.93, 0.078198, , 
45.96, 0.078103, , 
45.99, 0.078068, , 
46.02, 0.077966, , 
46.05, 0.077922, , 
46.08, 0.077928, , 
46.11, 0.077903, , 
46.14, 0.077887, , 
46.17, 0.077884, , 
46.20, 0.077909, , 
46.23, 0.078011, , 
46.26, 0.078099, , 
46.29, 0.078204, , 
46.32, 0.078318, , 
46.35, 0.078385, , 
46.38, 0.078359, , 
46.41, 0.078366, , 
46.44, 0.078407, , 
46.47, 0.078385, , 
46.50, 0.078470, , 
46.53, 0.078616, , 
46.56, 0.078807, , 
46.59, 0.078915, , 
46.62, 0.079064, , 
46.65, 0.079235, , 
46.68, 0.079416, , 
46.71, 0.079558, , 
46.74, 0.079701, , 
46.77, 0.079961, , 
46.80, 0.080304, , 
46.83, 0.080675, , 
46.86, 0.081119, , 
46.89, 0.081516, , 
46.92, 0.082014, , 
46.95, 0.082581, , 
46.98, 0.083121, , 
47.01, 0.083663, , 
47.04, 0.084440, , 
47.07, 0.085046, , 
47.10, 0.085845, , 
47.13, 0.086613, , 
47.16, 0.087552, , 
47.19, 0.088338, , 
47.22, 0.089030, , 
47.25, 0.090172, , 
47.28, 0.091218, , 
47.31, 0.092408, , 
47.34, 0.093458, , 
47.37, 0.094584, , 
47.41, 0.095916, , 
47.43, 0.096830, , 
47.46, 0.098178, , 
47.49, 0.099377, , 
47.52, 0.100592, , 
47.55, 0.102009, , 
47.58, 0.103218, , 
47.61, 0.104477, , 
47.64, 0.105711, , 
47.67, 0.106859, , 
47.70, 0.108261, , 
47.73, 0.109511, , 
47.76, 0.110865, , 
47.79, 0.111979, , 
47.82, 0.112886, , 
47.85, 0.114186, , 
47.88, 0.115281, , 
47.91, 0.116413, , 
47.94, 0.117371, , 
47.97, 0.118326, , 
47.98, 0.118484, 15, 0.584
48.00, 0.119350, , 
48.03, 0.120045, , 
48.06, 0.121054, , 
48.09, 0.121840, , 
48.12, 0.122513, , 
48.15, 0.123192, , 
48.18, 0.123721, , 
48.21, 0.124337, , 
48.24, 0.124711, , 
48.27, 0.125165, , 
48.30, 0.125644, , 
48.33, 0.126046, , 
48.36, 0.126268, , 
48.39, 0.126449, , 
48.42, 0.126693, , 
48.45, 0.126808, , 
48.48, 0.126833, , 
48.51, 0.126782, , 
48.54, 0.126719, , 
48.57, 0.126655, , 
48.60, 0.126490, , 
48.64, 0.126167, , 
48.66, 0.125954, , 
48.69, 0.125742, , 
48.72, 0.125406, , 
48.75, 0.124933, , 
48.78, 0.124568, , 
48.81, 0.124102, , 
48.84, 0.123671, , 
48.87, 0.123122, , 
48.90, 0.122557, , 
48.93, 0.122028, , 
48.96, 0.121285, , 
48.99, 0.120657, , 
49.02, 0.120061, , 
49.05, 0.119338, , 
49.08, 0.118605, , 
49.11, 0.117745, , 
49.14, 0.117051, , 
49.17, 0.116286, , 
49.20, 0.115316, , 
49.23, 0.114615, , 
49.26, 0.113914, , 
49.29, 0.113137, , 
49.32, 0.112312, , 
49.35, 0.111430, , 
49.38, 0.110732, , 
49.41, 0.109860, , 
49.44, 0.109016, , 
49.47, 0.108363, , 
49.50, 0.107570, , 
49.53, 0.106802, , 
49.56, 0.105876, , 
49.59, 0.105156, , 
49.62, 0.104474, , 
49.66, 0.103738, , 
49.68, 0.102977, , 
49.71, 0.102187, , 
49.74, 0.101562, , 
49.77, 0.100874, , 
49.80, 0.100071, , 
49.83, 0.099462, , 
49.86, 0.098828, , 
49.89, 0.098222, , 
49.92, 0.097623, , 
49.95, 0.097042, , 
49.98, 0.096474, , 
50.01, 0.095751, , 
50.04, 0.095225, , 
50.07, 0.094841, , 
50.10, 0.094321, , 
50.13, 0.093804, , 
50.16, 0.093271, , 
50.19, 0.092877, , 
50.22, 0.092408, , 
50.25, 0.091859, , 
50.28, 0.091548, , 
50.31, 0.091193, , 
50.34, 0.090936, , 
50.37, 0.090663, , 
50.40, 0.090346, , 
50.43, 0.090067, , 
50.47, 0.089775, , 
50.49, 0.089594, , 
50.52, 0.089353, , 
50.55, 0.089198, , 
50.58, 0.089071, , 
50.61, 0.088947, , 
50.64, 0.088922, , 
50.68, 0.088928, , 
50.70, 0.088925, , 
50.73, 0.088871, , 
50.76, 0.088827, , 
50.79, 0.088865, , 
50.82, 0.088884, , 
50.85, 0.088944, , 
50.88, 0.089055, , 
50.91, 0.089195, , 
50.94, 0.089334, , 
50.97, 0.089458, , 
51.00, 0.089709, , 
51.03, 0.089959, , 
51.06, 0.090153, , 
51.09, 0.090257, , 
51.12, 0.090571, , 
51.15, 0.091082, , 
51.18, 0.091472, 16, 0.587
51.19, 0.091539, , 
51.21, 0.091818, , 
51.24, 0.092392, , 
51.27, 0.092855, , 
51.30, 0.093321, , 
51.33, 0.093953, , 
51.36, 0.094451, , 
51.39, 0.095244, , 
51.42, 0.095919, , 
51.45, 0.096655, , 
51.48, 0.097581, , 
51.51, 0.098336, , 
51.54, 0.099196, , 
51.57, 0.099846, , 
51.60, 0.100779, , 
51.63, 0.101813, , 
51.66, 0.102745, , 
51.69, 0.103595, , 
51.72, 0.104959, , 
51.75, 0.105939, , 
51.78, 0.106932, , 
51.81, 0.108096, , 
51.84, 0.108721, , 
51.87, 0.110206, , 
51.90, 0.111179, , 
51.93, 0.112182, , 
51.96, 0.113428, , 
51.99, 0.114225, , 
52.02, 0.115496, , 
52.05, 0.116264, , 
52.08, 0.117200, , 
52.11, 0.118228, , 
52.14, 0.118881, , 
52.17, 0.120007, , 
52.20, 0.120809, , 
52.23, 0.121530, , 
52.26, 0.122199, , 
52.29, 0.122757, , 
52.32, 0.123709, , 
52.35, 0.124302, , 
52.38, 0.124800, , 
52.41, 0.125390, , 
52.44, 0.125770, , 
52.47, 0.126297, , 
52.50, 0.126681, , 
52.53, 0.127052, , 
52.56, 0.127455, , 
52.59, 0.127616, , 
52.62, 0.127813, , 
52.65, 0.127946, , 
52.68, 0.127975, , 
52.71, 0.127991, , 
52.74, 0.128026, , 
52.77, 0.128057, , 
52.80, 0.128038, , 
52.83, 0.127877, , 
52.86, 0.127661, , 
52.89, 0.127575, , 
52.92, 0.127233, , 
52.95, 0.126928, , 
52.98, 0.126595, , 
53.01, 0.126348, , 
53.04, 0.126043, , 
53.07, 0.125507, , 
53.10, 0.124977, , 
53.13, 0.124397, , 
53.16, 0.123877, , 
53.19, 0.123322, , 
53.22, 0.122757, , 
53.25, 0.122208, , 
53.28, 0.121418, , 
53.31, 0.120749, , 
53.34, 0.120112, , 
53.37, 0.119468, , 
53.40, 0.118694, , 
53.44, 0.117986, , 
53.46, 0.117463, , 
53.49, 0.116832, , 
53.52, 0.116042, , 
53.55, 0.115506, , 
53.58, 0.114770, , 
53.61, 0.114088, , 
53.64, 0.113260, , 
53.67, 0.112553, , 
53.70, 0.111969, , 
53.73, 0.111233, , 
53.76, 0.110574, , 
53.79, 0.109914, , 
53.82, 0.109308, , 
53.85, 0.108715, , 
53.88, 0.108052, , 
53.91, 0.107624, , 
53.94, 0.106964, , 
53.97, 0.106333, , 
54.00, 0.105749, , 
54.03, 0.105245, , 
54.06, 0.104890, , 
54.09, 0.104484, , 
54.12, 0.104141, , 
54.15, 0.103821, , 
54.18, 0.103538, , 
54.21, 0.103300, , 
54.24, 0.102983, , 
54.27, 0.102745, , 
54.30, 0.102587, , 
54.33, 0.102412, , 
54.36, 0.102238, , 
54.38, 0.102117, 17, 0.585
54.39, 0.102060, , 
54.42, 0.102051, , 
54.45, 0.102095, , 
54.48, 0.102130, , 
54.51, 0.102209, , 
54.54, 0.102304, , 
54.57, 0.102403, , 
54.60, 0.102514, , 
54.63, 0.102736, , 
54.66, 0.103082, , 
54.69, 0.103386, , 
54.72, 0.103608, , 
54.75, 0.103992, , 
54.78, 0.104309, , 
54.81, 0.104744, , 
54.84, 0.105365, , 
54.87, 0.105901, , 
54.90, 0.106577, , 
54.93, 0.107173, , 
54.96, 0.107744, , 
54.99, 0.108448, , 
55.02, 0.109203, , 
55.05, 0.109993, , 
55.08, 0.110653, , 
55.11, 0.111259, , 
55.14, 0.112394, , 
55.17, 0.113041, , 
55.20, 0.114009, , 
55.23, 0.114897, , 
55.26, 0.115807, , 
55.29, 0.116810, , 
55.32, 0.117638, , 
55.35, 0.118748, , 
55.38, 0.119439, , 
55.41, 0.120251, , 
55.44, 0.121171, , 
55.47, 0.121974, , 
55.50, 0.122862, , 
55.53, 0.123525, , 
55.56, 0.124248, , 
55.59, 0.124974, , 
55.62, 0.125609, , 
55.65, 0.126338, , 
55.68, 0.127001, , 
55.71, 0.127474, , 
55.74, 0.128194, , 
55.77, 0.128647, , 
55.80, 0.129066, , 
55.83, 0.129497, , 
55.86, 0.129796, , 
55.89, 0.130075, , 
55.92, 0.130268, , 
55.95, 0.130617, , 
55.98, 0.130788, , 
56.01, 0.130814, , 
56.04, 0.130890, , 
56.07, 0.130979, , 
56.10, 0.130995, , 
56.13, 0.130969, , 
56.16, 0.130985, , 
56.19, 0.130953, , 
56.22, 0.130760, , 
56.25, 0.130550, , 
56.28, 0.130395, , 
56.31, 0.130148, , 
56.34, 0.129732, , 
56.37, 0.129390, , 
56.40, 0.129085, , 
56.43, 0.128774, , 
56.46, 0.128346, , 
56.49, 0.127810, , 
56.52, 0.127401, , 
56.55, 0.126925, , 
56.58, 0.126411, , 
56.61, 0.125904, , 
56.64, 0.125437, , 
56.67, 0.124800, , 
56.70, 0.124181, , 
56.73, 0.123598, , 
56.76, 0.123033, , 
56.80, 0.122443, , 
56.82, 0.121996, , 
56.85, 0.121418, , 
56.88, 0.120993, , 
56.91, 0.120581, , 
56.94, 0.120013, , 
56.97, 0.119563, , 
57.00, 0.119119, , 
57.03, 0.118741, , 
57.06, 0.118300, , 
57.09, 0.117958, , 
57.12, 0.117682, , 
57.15, 0.117301, , 
57.18, 0.116978, , 
57.21, 0.116676, , 
57.24, 0.116486, , 
57.27, 0.116293, , 
57.30, 0.116175, , 
57.33, 0.116086, , 
57.36, 0.116099, , 
57.39, 0.116093, , 
57.42, 0.116042, , 
57.45, 0.116077, , 
57.48, 0.116125, , 
57.51, 0.116204, , 
57.54, 0.116334, , 
57.57, 0.116603, , 
57.58, 0.116661, 18, 0.585
57.60, 0.116933, , 
57.63, 0.117209, , 
57.66, 0.117561, , 
57.69, 0.118069, , 
57.72, 0.118532, , 
57.75, 0.118989, , 
57.78, 0.119414, , 
57.81, 0.119937, , 
57.84, 0.120553, , 
57.87, 0.121060, , 
57.90, 0.121679, , 
57.93, 0.122335, , 
57.96, 0.123001, , 
57.99, 0.123718, , 
58.02, 0.124359, , 
58.05, 0.125088, , 
58.08, 0.125843, , 
58.11, 0.126532, , 
58.14, 0.127325, , 
58.17, 0.128022, , 
58.20, 0.128800, , 
58.23, 0.129386, , 
58.26, 0.129840, , 
58.29, 0.130516, , 
58.32, 0.131020, , 
58.35, 0.131569, , 
58.38, 0.132067, , 
58.41, 0.132520, , 
58.45, 0.133034, , 
58.47, 0.133323, , 
58.50, 0.133726, , 
58.53, 0.134087, , 
58.56, 0.134411, , 
58.59, 0.134617, , 
58.62, 0.134715, , 
58.65, 0.134833, , 
58.68, 0.134915, , 
58.71, 0.134909, , 
58.74, 0.134931, , 
58.77, 0.134959, , 
58.80, 0.134944, , 
58.83, 0.134909, , 
58.86, 0.134893, , 
58.89, 0.134820, , 
58.92, 0.134661, , 
58.95, 0.134423, , 
58.98, 0.134220, , 
59.01, 0.134040, , 
59.04, 0.133786, , 
59.07, 0.133564, , 
59.10, 0.133256, , 
59.13, 0.133018, , 
59.16, 0.132752, , 
59.19, 0.132362, , 
59.22, 0.132038, , 
59.25, 0.131680, , 
59.28, 0.131404, , 
59.31, 0.131061, , 
59.34, 0.130712, , 
59.37, 0.130354, , 
59.40, 0.129929, , 
59.43, 0.129612, , 
59.46, 0.129383, , 
59.49, 0.129088, , 
59.52, 0.128749, , 
59.55, 0.128463, , 
59.58, 0.128276, , 
59.61, 0.128114, , 
59.64, 0.127832, , 
59.67, 0.127683, , 
59.70, 0.127616, , 
59.73, 0.127616, , 
59.76, 0.127597, , 
59.79, 0.127563, , 
59.82, 0.127632, , 
59.85, 0.127800, , 
59.88, 0.127854, , 
59.91, 0.127943, , 
59.94, 0.128187, , 
59.97, 0.128476, , 
60.00, 0.128822, , 
60.03, 0.129114, , 
60.06, 0.129450, , 
60.09, 0.129792, , 
60.12, 0.130113, , 
60.15, 0.130566, , 
60.18, 0.131074, , 
60.21, 0.131524, , 
60.24, 0.132235, , 
60.27, 0.132720, , 
60.30, 0.133237, , 
60.33, 0.133703, , 
60.36, 0.134138, , 
60.39, 0.134655, , 
60.42, 0.135140, , 
60.45, 0.135632, , 
60.48, 0.136019, , 
60.51, 0.136419, , 
60.54, 0.136955, , 
60.57, 0.137396, , 
60.60, 0.137849, , 
60.63, 0.138252, , 
60.66, 0.138639, , 
60.69, 0.138924, , 
60.72, 0.139146, , 
60.75, 0.139419, , 
60.77, 0.139591, 19, 0.585
60.78, 0.139667, , 
60.81, 0.139800, , 
60.84, 0.139930, , 
60.87, 0.140193, , 
60.90, 0.140358, , 
60.93, 0.140387, , 
60.96, 0.140292, , 
60.99, 0.140190, , 
61.02, 0.140158, , 
61.05, 0.140022, , 
61.08, 0.139879, , 
61.11, 0.139806, , 
61.14, 0.139689, , 
61.17, 0.139508, , 
61.20, 0.139280, , 
61.23, 0.139105, , 
61.26, 0.138874, , 
61.29, 0.138512, , 
61.32, 0.138290, , 
61.35, 0.138027, , 
61.38, 0.137814, , 
61.41, 0.137560, , 
61.44, 0.137294, , 
61.47, 0.137091, , 
61.50, 0.136831, , 
61.53, 0.136672, , 
61.56, 0.136555, , 
61.59, 0.136371, , 
61.62, 0.136228, , 
61.65, 0.136111, , 
61.68, 0.136057, , 
61.71, 0.136070, , 
61.74, 0.136054, , 
61.77, 0.135978, , 
61.80, 0.136044, , 
61.83, 0.136158, , 
61.86, 0.136260, , 
61.89, 0.136441, , 
61.92, 0.136612, , 
61.95, 0.136818, , 
61.98, 0.136983, , 
62.01, 0.137183, , 
62.04, 0.137500, , 
62.07, 0.137767, , 
62.10, 0.138058, , 
62.13, 0.138309, , 
62.16, 0.138658, , 
62.19, 0.139073, , 
62.22, 0.139356, , 
62.25, 0.139635, , 
62.28, 0.140035, , 
62.31, 0.140336, , 
62.34, 0.140625, , 
62.37, 0.140885, , 
62.40, 0.141218, , 
62.43, 0.141532, , 
62.46, 0.141846, , 
62.49, 0.142122, , 
62.52, 0.142318, , 
62.55, 0.142490, , 
62.58, 0.142677, , 
62.61, 0.142788, , 
62.64, 0.142908, , 
62.67, 0.143004, , 
62.70, 0.143007, , 
62.74, 0.142969, , 
62.76, 0.142988, , 
62.79, 0.143013, , 
62.82, 0.142880, , 
62.85, 0.142775, , 
62.88, 0.142674, , 
62.91, 0.142518, , 
62.94, 0.142296, , 
62.97, 0.142115, , 
63.00, 0.141938, , 
63.03, 0.141681, , 
63.06, 0.141402, , 
63.09, 0.141069, , 
63.12, 0.140824, , 
63.15, 0.140640, , 
63.18, 0.140311, , 
63.21, 0.140177, , 
63.24, 0.140022, , 
63.27, 0.139787, , 
63.30, 0.139571, , 
63.33, 0.139343, , 
63.36, 0.139248, , 
63.39, 0.139118, , 
63.42, 0.139020, , 
63.45, 0.138896, , 
63.48, 0.138778, , 
63.51, 0.138693, , 
63.54, 0.138575, , 
63.57, 0.138537, , 
63.60, 0.138639, , 
63.63, 0.138807, , 
63.66, 0.138870, , 
63.69, 0.138969, , 
63.72, 0.139023, , 
63.75, 0.139035, , 
63.78, 0.139054, , 
63.81, 0.139178, , 
63.84, 0.139346, , 
63.87, 0.139445, , 
63.90, 0.139565, , 
63.93, 0.139774, , 
63.97, 0.139943, , 
63.98, 0.140022, 20, 0.588
63.99, 0.140066, , 
64.02, 0.140206, , 
64.05, 0.140374, , 
64.08, 0.140558, , 
64.11, 0.140609, , 
64.14, 0.140666, , 
64.17, 0.140783, , 
64.20, 0.140932, , 
64.23, 0.140923, , 
64.26, 0.140926, , 
64.29, 0.140850, , 
64.32, 0.140774, , 
64.35, 0.140631, , 
64.38, 0.140548, , 
64.41, 0.140558, , 
64.44, 0.140479, , 
64.47, 0.140326, , 
64.50, 0.140209, , 
64.53, 0.139936, , 
64.56, 0.139752, , 
64.59, 0.139641, , 
64.62, 0.139464, , 
64.65, 0.139216, , 
64.68, 0.138943, , 
64.71, 0.138734, , 
64.74, 0.138566, , 
64.77, 0.138417, , 
64.80, 0.138271, , 
64.83, 0.137957, , 
64.86, 0.137729, , 
64.89, 0.137519, , 
64.92, 0.137364, , 
64.95, 0.137183, , 
64.98, 0.137116, , 
65.01, 0.137050, , 
65.04, 0.136844, , 
65.07, 0.136688, , 
65.10, 0.136615, , 
65.13, 0.136618, , 
65.16, 0.136571, , 
65.19, 0.136504, , 
65.22, 0.136517, , 
65.25, 0.136574, , 
65.28, 0.136530, , 
65.31, 0.136517, , 
65.34, 0.136539, , 
65.37, 0.136625, , 
65.40, 0.136599, , 
65.43, 0.136507, , 
65.46, 0.136552, , 
65.49, 0.136485, , 
65.52, 0.136342, , 
65.55, 0.136209, , 
65.58, 0.136171, , 
65.61, 0.136127, , 
65.64, 0.136041, , 
65.67, 0.136006, , 
65.70, 0.136025, , 
65.73, 0.135949, , 
65.76, 0.135775, , 
65.79, 0.135676, , 
65.82, 0.135616, , 
65.85, 0.135473, , 
65.88, 0.135156, , 
65.91, 0.134915, , 
65.94, 0.134718, , 
65.97, 0.134493, , 
66.00, 0.134239, , 
66.03, 0.134062, , 
66.06, 0.133875, , 
66.09, 0.133659, , 
66.12, 0.133383, , 
66.15, 0.133228, , 
66.18, 0.133186, , 
66.21, 0.133069, , 
66.24, 0.132850, , 
66.27, 0.132704, , 
66.30, 0.132657, , 
66.33, 0.132495, , 
66.36, 0.132254, , 
66.39, 0.132019, , 
66.42, 0.131880, , 
66.45, 0.131746, , 
66.48, 0.131642, , 
66.51, 0.131616, , 
66.54, 0.131597, , 
66.57, 0.131537, , 
66.60, 0.131350, , 
66.63, 0.131264, , 
66.66, 0.131175, , 
66.69, 0.130893, , 
66.72, 0.130627, , 
66.75, 0.130398, , 
66.78, 0.130148, , 
66.81, 0.129875, , 
66.84, 0.129631, , 
66.87, 0.129434, , 
66.90, 0.129310, , 
66.93, 0.129095, , 
66.96, 0.128854, , 
66.99, 0.128616, , 
67.02, 0.128371, , 
67.05, 0.128143, , 
67.08, 0.127835, , 
67.11, 0.127632, , 
67.14, 0.127404, , 
67.17, 0.127204, , 
67.18, 0.127172, 21, 0.584
67.20, 0.127042, , 
67.24, 0.126881, , 
67.26, 0.126754, , 
67.29, 0.126509, , 
67.32, 0.126268, , 
67.35, 0.126091, , 
67.38, 0.125847, , 
67.41, 0.125545, , 
67.44, 0.125298, , 
67.47, 0.125082, , 
67.50, 0.124771, , 
67.53, 0.124445, , 
67.56, 0.124200, , 
67.59, 0.123908, , 
67.62, 0.123604, , 
67.65, 0.123338, , 
67.68, 0.123033, , 
67.71, 0.122754, , 
67.74, 0.122402, , 
67.77, 0.122097, , 
67.80, 0.121920, , 
67.83, 0.121679, , 
67.86, 0.121495, , 
67.89, 0.121269, , 
67.92, 0.121120, , 
67.95, 0.120974, , 
67.98, 0.120787, , 
68.01, 0.120606, , 
68.04, 0.120492, , 
68.07, 0.120321, , 
68.10, 0.120055, , 
68.13, 0.119890, , 
68.16, 0.119791, , 
68.19, 0.119671, , 
68.22, 0.119515, , 
68.25, 0.119354, , 
68.28, 0.119211, , 
68.31, 0.118995, , 
68.34, 0.118637, , 
68.37, 0.118342, , 
68.40, 0.118097, , 
68.43, 0.117714, , 
68.47, 0.117435, , 
68.49, 0.117213, , 
68.52, 0.116962, , 
68.55, 0.116746, , 
68.58, 0.116343, , 
68.61, 0.116074, , 
68.64, 0.115804, , 
68.67, 0.115601, , 
68.70, 0.115179, , 
68.73, 0.114786, , 
68.76, 0.114510, , 
68.79, 0.114123, , 
68.82, 0.113844, , 
68.85, 0.113524, , 
68.88, 0.113317, , 
68.91, 0.113089, , 
68.94, 0.112750, , 
68.97, 0.112575, , 
69.00, 0.112359, , 
69.03, 0.111966, , 
69.06, 0.111697, , 
69.09, 0.111462, , 
69.12, 0.111233, , 
69.15, 0.110976, , 
69.18, 0.110815, , 
69.21, 0.110831, , 
69.24, 0.110793, , 
69.27, 0.110726, , 
69.30, 0.110637, , 
69.33, 0.110526, , 
69.36, 0.110415, , 
69.39, 0.110228, , 
69.42, 0.110050, , 
69.45, 0.109889, , 
69.49, 0.109625, , 
69.51, 0.109429, , 
69.54, 0.109140, , 
69.57, 0.108867, , 
69.60, 0.108585, , 
69.63, 0.108271, , 
69.66, 0.108077, , 
69.69, 0.107871, , 
69.72, 0.107557, , 
69.75, 0.107183, , 
69.78, 0.106729, , 
69.81, 0.106336, , 
69.84, 0.105809, , 
69.87, 0.105375, , 
69.90, 0.105105, , 
69.93, 0.104801, , 
69.96, 0.104477, , 
69.99, 0.104090, , 
70.02, 0.103875, , 
70.05, 0.103684, , 
70.08, 0.103338, , 
70.11, 0.103142, , 
70.14, 0.102917, , 
70.17, 0.102701, , 
70.20, 0.102457, , 
70.23, 0.102181, , 
70.26, 0.101971, , 
70.30, 0.101772, , 
70.32, 0.101581, , 
70.35, 0.101289, , 
70.38, 0.101131, 22, 0.586
70.38, 0.101109, , 
70.41, 0.100906, , 
70.44, 0.100652, , 
70.47, 0.100458, , 
70.51, 0.100338, , 
70.53, 0.100189, , 
70.56, 0.099970, , 
70.59, 0.099827, , 
70.62, 0.099837, , 
70.65, 0.099741, , 
70.68, 0.099510, , 
70.72, 0.099351, , 
70.74, 0.099304, , 
70.77, 0.099266, , 
70.80, 0.099101, , 
70.83, 0.098907, , 
70.86, 0.098809, , 
70.89, 0.098631, , 
70.92, 0.098454, , 
70.95, 0.098327, , 
70.98, 0.098190, , 
71.01, 0.097991, , 
71.04, 0.097727, , 
71.07, 0.097556, , 
71.10, 0.097378, , 
71.13, 0.097112, , 
71.16, 0.096782, , 
71.19, 0.096509, , 
71.22, 0.096278, , 
71.25, 0.096008, , 
71.28, 0.095659, , 
71.31, 0.095390, , 
71.34, 0.095155, , 
71.37, 0.094847, , 
71.40, 0.094587, , 
71.43, 0.094400, , 
71.46, 0.094206, , 
71.49, 0.093997, , 
71.53, 0.093810, , 
71.55, 0.093683, , 
71.58, 0.093509, , 
71.61, 0.093236, , 
71.64, 0.092957, , 
71.67, 0.092779, , 
71.70, 0.092589, , 
71.73, 0.092379, , 
71.76, 0.092110, , 
71.79, 0.091869, , 
71.82, 0.091675, , 
71.85, 0.091444, , 
71.88, 0.091177, , 
71.91, 0.090971, , 
71.94, 0.090771, , 
71.97, 0.090530, , 
72.00, 0.090286, , 
72.03, 0.090073, , 
72.06, 0.089896, , 
72.09, 0.089560, , 
72.12, 0.089331, , 
72.15, 0.089223, , 
72.18, 0.088995, , 
72.21, 0.088662, , 
72.24, 0.088421, , 
72.27, 0.088243, , 
72.30, 0.088047, , 
72.33, 0.087786, , 
72.36, 0.087571, , 
72.39, 0.087434, , 
72.42, 0.087279, , 
72.45, 0.087098, , 
72.48, 0.086857, , 
72.51, 0.086718, , 
72.55, 0.086511, , 
72.57, 0.086337, , 
72.60, 0.086128, , 
72.63, 0.086042, , 
72.66, 0.085921, , 
72.69, 0.085655, , 
72.72, 0.085522, , 
72.76, 0.085487, , 
72.78, 0.085423, , 
72.81, 0.085344, , 
72.84, 0.085316, , 
72.87, 0.085357, , 
72.90, 0.085331, , 
72.93, 0.085176, , 
72.96, 0.085138, , 
72.99, 0.085011, , 
73.02, 0.084938, , 
73.05, 0.084843, , 
73.08, 0.084691, , 
73.11, 0.084548, , 
73.14, 0.084440, , 
73.17, 0.084377, , 
73.20, 0.084272, , 
73.23, 0.084117, , 
73.26, 0.083955, , 
73.29, 0.083815, , 
73.32, 0.083615, , 
73.35, 0.083317, , 
73.38, 0.082911, , 
73.41, 0.082550, , 
73.44, 0.082210, , 
73.47, 0.081896, , 
73.50, 0.081623, , 
73.53, 0.081360, , 
73.56, 0.081157, , 
73.58, 0.081081, 23, 0.585
73.59, 0.080964, , 
73.62, 0.080704, , 
73.65, 0.080485, , 
73.68, 0.080320, , 
73.71, 0.080110, , 
73.74, 0.079800, , 
73.77, 0.079581, , 
73.80, 0.079400, , 
73.83, 0.079102, , 
73.86, 0.078870, , 
73.89, 0.078607, , 
73.92, 0.078429, , 
73.95, 0.078245, , 
73.98, 0.077966, , 
74.01, 0.077731, , 
74.04, 0.077490, , 
74.07, 0.077265, , 
74.10, 0.077015, , 
74.13, 0.076777, , 
74.16, 0.076605, , 
74.19, 0.076374, , 
74.22, 0.076184, , 
74.25, 0.075981, , 
74.28, 0.075844, , 
74.31, 0.075698, , 
74.34, 0.075413, , 
74.37, 0.075232, , 
74.40, 0.075070, , 
74.43, 0.074791, , 
74.46, 0.074613, , 
74.49, 0.074417, , 
74.52, 0.074280, , 
74.55, 0.074115, , 
74.58, 0.073928, , 
74.61, 0.073890, , 
74.64, 0.073830, , 
74.67, 0.073697, , 
74.70, 0.073525, , 
74.73, 0.073399, , 
74.76, 0.073297, , 
74.79, 0.073107, , 
74.82, 0.072916, , 
74.85, 0.072793, , 
74.88, 0.072631, , 
74.91, 0.072472, , 
74.94, 0.072292, , 
74.97, 0.072158, , 
75.00, 0.072082, , 
75.03, 0.071838, , 
75.06, 0.071540, , 
75.09, 0.071340, , 
75.12, 0.071159, , 
75.15, 0.070893, , 
75.18, 0.070610, , 
75.21, 0.070420, , 
75.24, 0.070252, , 
75.27, 0.070078, , 
75.30, 0.069878, , 
75.33, 0.069738, , 
75.36, 0.069649, , 
75.39, 0.069430, , 
75.42, 0.069281, , 
75.45, 0.069177, , 
75.48, 0.069044, , 
75.51, 0.068818, , 
75.54, 0.068622, , 
75.57, 0.068549, , 
75.60, 0.068368, , 
75.63, 0.068171, , 
75.66, 0.068076, , 
75.69, 0.068032, , 
75.72, 0.067917, , 
75.75, 0.067702, , 
75.78, 0.067616, , 
75.81, 0.067550, , 
75.84, 0.067461, , 
75.87, 0.067385, , 
75.90, 0.067213, , 
75.93, 0.067147, , 
75.96, 0.067083, , 
75.99, 0.066982, , 
76.02, 0.066912, , 
76.05, 0.066849, , 
76.08, 0.066747, , 
76.11, 0.066617, , 
76.14, 0.066509, , 
76.18, 0.066484, , 
76.20, 0.066316, , 
76.23, 0.066132, , 
76.26, 0.066037, , 
76.29, 0.066030, , 
76.32, 0.065970, , 
76.35, 0.065811, , 
76.38, 0.065710, , 
76.41, 0.065631, , 
76.44, 0.065443, , 
76.47, 0.065167, , 
76.50, 0.064898, , 
76.53, 0.064698, , 
76.56, 0.064470, , 
76.59, 0.064251, , 
76.62, 0.064114, , 
76.65, 0.063943, , 
76.68, 0.063737, , 
76.71, 0.063515, , 
76.74, 0.063280, , 
76.77, 0.063102, 24, 0.585
76.78, 0.063068, , 
76.80, 0.062871, , 
76.83, 0.062620, , 
76.86, 0.062427, , 
76.89, 0.062246, , 
76.92, 0.062141, , 
76.95, 0.062081, , 
76.98, 0.062094, , 
77.01, 0.062091, , 
77.04, 0.062049, , 
77.07, 0.061980, , 
77.10, 0.062008, , 
77.13, 0.062021, , 
77.16, 0.062011, , 
77.20, 0.061995, , 
77.22, 0.062021, , 
77.25, 0.062068, , 
77.28, 0.062027, , 
77.31, 0.061999, , 
77.34, 0.061999, , 
77.37, 0.062030, , 
77.40, 0.062014, , 
77.43, 0.061976, , 
77.46, 0.061992, , 
77.49, 0.062049, , 
77.52, 0.062024, , 
77.55, 0.061919, , 
77.58, 0.061805, , 
77.61, 0.061758, , 
77.64, 0.061618, , 
77.67, 0.061542, , 
77.70, 0.061405, , 
77.73, 0.061215, , 
77.76, 0.061079, , 
77.79, 0.060923, , 
77.82, 0.060800, , 
77.85, 0.060695, , 
77.88, 0.060527, , 
77.91, 0.060425, , 
77.94, 0.060226, , 
77.97, 0.060175, , 
78.00, 0.060042, , 
78.03, 0.059880, , 
78.06, 0.059781, , 
78.09, 0.059639, , 
78.12, 0.059452, , 
78.15, 0.059280, , 
78.18, 0.059176, , 
78.21, 0.059144, , 
78.24, 0.059014, , 
78.27, 0.058836, , 
78.30, 0.058693, , 
78.33, 0.058662, , 
78.36, 0.058532, , 
78.39, 0.058386, , 
78.42, 0.058287, , 
78.45, 0.058205, , 
78.48, 0.058110, , 
78.51, 0.058040, , 
78.54, 0.057853, , 
78.57, 0.057717, , 
78.60, 0.057542, , 
78.64, 0.057339, , 
78.66, 0.057250, , 
78.69, 0.057168, , 
78.72, 0.057057, , 
78.75, 0.056917, , 
78.78, 0.056768, , 
78.81, 0.056695, , 
78.84, 0.056603, , 
78.87, 0.056562, , 
78.90, 0.056603, , 
78.93, 0.056521, , 
78.96, 0.056334, , 
78.99, 0.056235, , 
79.02, 0.056216, , 
79.05, 0.056127, , 
79.08, 0.056013, , 
79.11, 0.055924, , 
79.14, 0.055807, , 
79.17, 0.055674, , 
79.20, 0.055579, , 
79.23, 0.055553, , 
79.26, 0.055531, , 
79.29, 0.055369, , 
79.32, 0.055198, , 
79.35, 0.055144, , 
79.38, 0.055116, , 
79.41, 0.055052, , 
79.44, 0.054887, , 
79.47, 0.054770, , 
79.50, 0.054697, , 
79.53, 0.054656, , 
79.56, 0.054579, , 
79.59, 0.054456, , 
79.62, 0.054342, , 
79.65, 0.054243, , 
79.68, 0.054142, , 
79.71, 0.054072, , 
79.74, 0.054047, , 
79.77, 0.053948, , 
79.80, 0.053783, , 
79.83, 0.053672, , 
79.87, 0.053628, , 
79.89, 0.053482, , 
79.92, 0.053320, , 
79.95, 0.053222, , 
79.97, 0.053200, 25, 0.586
79.98, 0.053184, , 
80.01, 0.053073, , 
80.04, 0.052892, , 
80.07, 0.052851, , 
80.10, 0.052762, , 
80.13, 0.052619, , 
80.16, 0.052438, , 
80.19, 0.052299, , 
80.22, 0.052261, , 
80.25, 0.052166, , 
80.28, 0.052055, , 
80.31, 0.052010, , 
80.34, 0.051906, , 
80.37, 0.051760, , 
80.40, 0.051661, , 
80.43, 0.051617, , 
80.46, 0.051509, , 
80.49, 0.051306, , 
80.52, 0.051163, , 
80.55, 0.051135, , 
80.58, 0.051147, , 
80.61, 0.051227, , 
80.64, 0.051611, , 
80.67, 0.052118, , 
80.70, 0.052591, , 
80.73, 0.053323, , 
80.76, 0.053961, , 
80.79, 0.054760, , 
80.82, 0.055372, , 
80.85, 0.055785, , 
80.88, 0.056181, , 
80.91, 0.056473, , 
80.94, 0.056759, , 
80.97, 0.056835, , 
81.00, 0.056955, , 
81.03, 0.057038, , 
81.06, 0.057095, , 
81.09, 0.056981, , 
81.12, 0.056673, , 
81.15, 0.056302, , 
81.18, 0.055626, , 
81.21, 0.054903, , 
81.24, 0.054043, , 
81.27, 0.053222, , 
81.30, 0.052499, , 
81.33, 0.051493, , 
81.36, 0.050722, , 
81.39, 0.050037, , 
81.42, 0.049546, , 
81.45, 0.049092, , 
81.48, 0.048629, , 
81.51, 0.048372, , 
81.54, 0.048090, , 
81.57, 0.047947, , 
81.60, 0.047690, , 
81.63, 0.047503, , 
81.66, 0.047357, , 
81.69, 0.047211, , 
81.72, 0.047167, , 
81.75, 0.047081, , 
81.78, 0.046875, , 
81.81, 0.046732, , 
81.84, 0.046634, , 
81.87, 0.046634, , 
81.90, 0.046624, , 
81.93, 0.046554, , 
81.96, 0.046513, , 
81.99, 0.046431, , 
82.02, 0.046285, , 
82.05, 0.046123, , 
82.08, 0.046072, , 
82.11, 0.046139, , 
82.14, 0.046107, , 
82.17, 0.046034, , 
82.20, 0.046060, , 
82.23, 0.046104, , 
82.26, 0.046107, , 
82.29, 0.046190, , 
82.33, 0.046320, , 
82.35, 0.046428, , 
82.38, 0.046472, , 
82.41, 0.046459, , 
82.44, 0.046602, , 
82.47, 0.046700, , 
82.50, 0.046631, , 
82.53, 0.046586, , 
82.56, 0.046545, , 
82.59, 0.046567, , 
82.62, 0.046567, , 
82.65, 0.046532, , 
82.68, 0.046567, , 
82.71, 0.046570, , 
82.74, 0.046545, , 
82.77, 0.046415, , 
82.80, 0.046225, , 
82.83, 0.046063, , 
82.86, 0.045831, , 
82.89, 0.045558, , 
82.92, 0.045381, , 
82.95, 0.045251, , 
82.98, 0.045038, , 
83.01, 0.044813, , 
83.04, 0.044651, , 
83.07, 0.044623, , 
83.10, 0.044550, , 
83.13, 0.044442, , 
83.16, 0.044385, , 
83.19, 0.044321, 26, 0.588
83.19, 0.044290, , 
83.22, 0.044128, , 
83.25, 0.044001, , 
83.28, 0.043969, , 
83.31, 0.043950, , 
83.34, 0.043763, , 
83.37, 0.043649, , 
83.40, 0.043598, , 
83.43, 0.043538, , 
83.46, 0.043433, , 
83.49, 0.043389, , 
83.52, 0.043522, , 
83.55, 0.043719, , 
83.58, 0.043770, , 
83.61, 0.043846, , 
83.64, 0.043919, , 
83.67, 0.043988, , 
83.70, 0.043973, , 
83.73, 0.043922, , 
83.76, 0.043931, , 
83.79, 0.044001, , 
83.82, 0.043953, , 
83.85, 0.043957, , 
83.88, 0.043992, , 
83.91, 0.043995, , 
83.94, 0.043953, , 
83.97, 0.043915, , 
84.00, 0.043973, , 
84.03, 0.044045, , 
84.06, 0.044001, , 
84.09, 0.043947, , 
84.12, 0.043960, , 
84.15, 0.044017, , 
84.18, 0.044007, , 
84.21, 0.043944, , 
84.24, 0.043995, , 
84.27, 0.044017, , 
84.30, 0.043992, , 
84.33, 0.043988, , 
84.36, 0.043992, , 
84.39, 0.043988, , 
84.42, 0.043941, , 
84.45, 0.043925, , 
84.48, 0.043979, , 
84.51, 0.044014, , 
84.54, 0.043950, , 
84.57, 0.043931, , 
84.60, 0.043973, , 
84.63, 0.043934, , 
84.66, 0.043770, , 
84.69, 0.043643, , 
84.72, 0.043598, , 
84.75, 0.043598, , 
84.78, 0.043513, , 
84.81, 0.043449, , 
84.84, 0.043487, , 
84.87, 0.043513, , 
84.90, 0.043456, , 
84.93, 0.043452, , 
84.96, 0.043481, , 
84.99, 0.043516, , 
85.02, 0.043500, , 
85.05, 0.043506, , 
85.08, 0.043541, , 
85.11, 0.043522, , 
85.14, 0.043471, , 
85.17, 0.043452, , 
85.20, 0.043430, , 
85.23, 0.043253, , 
85.26, 0.043088, , 
85.29, 0.043002, , 
85.32, 0.043046, , 
85.35, 0.043024, , 
85.38, 0.042958, , 
85.41, 0.042977, , 
85.44, 0.043043, , 
85.47, 0.043037, , 
85.50, 0.042983, , 
85.53, 0.042834, , 
85.56, 0.042783, , 
85.59, 0.042732, , 
85.62, 0.042542, , 
85.65, 0.042469, , 
85.68, 0.042507, , 
85.71, 0.042447, , 
85.74, 0.042425, , 
85.77, 0.042466, , 
85.80, 0.042539, , 
85.83, 0.042482, , 
85.86, 0.042479, , 
85.89, 0.042501, , 
85.92, 0.042574, , 
85.95, 0.042513, , 
85.98, 0.042440, , 
86.01, 0.042488, , 
86.04, 0.042545, , 
86.07, 0.042482, , 
86.10, 0.042469, , 
86.13, 0.042482, , 
86.16, 0.042488, , 
86.19, 0.042475, , 
86.22, 0.042456, , 
86.25, 0.042463, , 
86.28, 0.042460, , 
86.31, 0.042440, , 
86.34, 0.042326, , 
86.37, 0.042215, , 
86.38, 0.042203, 27, 0.584
86.40, 0.042155, , 
86.43, 0.042050, , 
86.46, 0.042009, , 
86.49, 0.042034, , 
86.52, 0.042003, , 
86.55, 0.041958, , 
86.58, 0.041930, , 
86.61, 0.041952, , 
86.64, 0.041993, , 
86.67, 0.041946, , 
86.70, 0.041895, , 
86.73, 0.041990, , 
86.76, 0.041984, , 
86.79, 0.041968, , 
86.82, 0.042019, , 
86.85, 0.042028, , 
86.88, 0.042009, , 
86.91, 0.041946, , 
86.94, 0.041936, , 
86.97, 0.041968, , 
87.00, 0.041987, , 
87.03, 0.041930, , 
87.06, 0.041857, , 
87.09, 0.041768, , 
87.12, 0.041619, , 
87.15, 0.041502, , 
87.18, 0.041464, , 
87.21, 0.041521, , 
87.24, 0.041451, , 
87.27, 0.041448, , 
87.30, 0.041476, , 
87.33, 0.041498, , 
87.36, 0.041495, , 
87.39, 0.041353, , 
87.42, 0.041181, , 
87.46, 0.041108, , 
87.48, 0.040988, , 
87.51, 0.040899, , 
87.54, 0.040924, , 
87.57, 0.040978, , 
87.60, 0.040966, , 
87.63, 0.040918, , 
87.66, 0.040902, , 
87.69, 0.040918, , 
87.72, 0.040899, , 
87.75, 0.040893, , 
87.78, 0.040940, , 
87.81, 0.041035, , 
87.84, 0.041169, , 
87.87, 0.041314, , 
87.90, 0.041384, , 
87.93, 0.041413, , 
87.96, 0.041394, , 
87.99, 0.041346, , 
88.02, 0.041286, , 
88.05, 0.041226, , 
88.08, 0.041102, , 
88.11, 0.041026, , 
88.14, 0.041083, , 
88.17, 0.041308, , 
88.20, 0.041584, , 
88.23, 0.042006, , 
88.26, 0.042390, , 
88.29, 0.042691, , 
88.32, 0.043011, , 
88.35, 0.043497, , 
88.38, 0.044445, , 
88.41, 0.047500, , 
88.44, 0.056445, , 
88.48, 0.074242, , 
88.50, 0.088278, , 
88.53, 0.104832, , 
88.56, 0.114592, , 
88.59, 0.120882, , 
88.62, 0.125310, , 
88.65, 0.127429, , 
88.69, 0.128793, , 
88.71, 0.129415, , 
88.74, 0.130005, , 
88.77, 0.130497, , 
88.80, 0.130766, , 
88.83, 0.131198, , 
88.86, 0.131493, , 
88.90, 0.131638, , 
88.92, 0.130830, , 
88.95, 0.126065, , 
88.98, 0.112122, , 
89.01, 0.095856, , 
89.04, 0.080573, , 
89.07, 0.067559, , 
89.10, 0.061548, , 
89.13, 0.056460, , 
89.16, 0.054101, , 
89.19, 0.052829, , 
89.22, 0.052172, , 
89.25, 0.051890, , 
89.28, 0.051709, , 
89.31, 0.051620, , 
89.34, 0.051484, , 
89.37, 0.051290, , 
89.40, 0.051116, , 
89.43, 0.051182, , 
89.46, 0.051322, , 
89.49, 0.051506, , 
89.52, 0.051728, , 
89.55, 0.051982, , 
89.58, 0.052289, , 
89.61, 0.052568, , 
89.64, 0.052838, , 
89.67, 0.053241, , 
89.71, 0.053526, , 
89.73, 0.053761, , 
89.76, 0.054018, , 
89.79, 0.054307, , 
89.82, 0.054614, , 
89.85, 0.054881, , 
89.88, 0.055195, , 
89.92, 0.055572, , 
89.94, 0.055709, , 
89.97, 0.055671, , 
90.00, 0.055550, , 
90.03, 0.055385, , 
90.06, 0.055065, , 
90.09, 0.054757, , 
90.12, 0.054532, , 
90.15, 0.054370, , 
90.18, 0.054170, , 
90.21, 0.053920, , 
90.24, 0.053691, , 
90.27, 0.053457, , 
90.30, 0.053263, , 
90.33, 0.053089, , 
90.36, 0.052781, , 
90.39, 0.052568, , 
90.42, 0.052391, , 
90.45, 0.052410, , 
90.48, 0.052648, , 
90.51, 0.052949, , 
90.54, 0.053076, , 
90.57, 0.053222, , 
90.60, 0.053276, , 
90.63, 0.053400, , 
90.66, 0.053501, , 
90.69, 0.053514, , 
90.73, 0.053587, , 
90.75, 0.053593, , 
90.78, 0.053549, , 
90.81, 0.053530, , 
90.84, 0.053603, , 
90.87, 0.053875, , 
90.90, 0.053980, , 
90.93, 0.054009, , 
90.96, 0.054088, , 
90.99, 0.054088, , 
91.02, 0.053996, , 
91.05, 0.053977, , 
91.08, 0.054056, , 
91.11, 0.054234, , 
91.14, 0.054304, , 
91.17, 0.054396, , 
91.20, 0.054513, , 
91.23, 0.054630, , 
91.26, 0.054767, , 
91.29, 0.054859, , 
91.32, 0.055014, , 
91.35, 0.055017, , 
91.38, 0.054836, , 
91.41, 0.054570, , 
91.44, 0.054465, , 
91.47, 0.054348, , 
91.50, 0.054205, , 
91.53, 0.054154, , 
91.56, 0.054132, , 
91.59, 0.054101, , 
91.62, 0.054053, , 
91.65, 0.053983, , 
91.68, 0.053948, , 
91.71, 0.053745, , 
91.74, 0.053555, , 
91.77, 0.053488, , 
91.80, 0.053536, , 
91.83, 0.053679, , 
91.86, 0.053967, , 
91.89, 0.054202, , 
91.92, 0.054456, , 
91.95, 0.054738, , 
91.98, 0.054957, , 
92.01, 0.055230, , 
92.04, 0.055287, , 
92.07, 0.055261, , 
92.10, 0.055290, , 
92.13, 0.055344, , 
92.17, 0.055322, , 
92.19, 0.055353, , 
92.22, 0.055560, , 
92.25, 0.055782, , 
92.28, 0.055962, , 
92.31, 0.055931, , 
92.34, 0.055693, , 
92.37, 0.055487, , 
92.40, 0.055303, , 
92.43, 0.055081, , 
92.46, 0.054741, , 
92.49, 0.054516, , 
92.52, 0.054218, , 
92.55, 0.053942, , 
92.58, 0.053818, , 
92.61, 0.053688, , 
92.64, 0.053637, , 
92.67, 0.053542, , 
92.70, 0.053438, , 
92.73, 0.053323, , 
92.76, 0.053089, , 
92.79, 0.052857, , 
92.82, 0.053212, , 
92.85, 0.054189, , 
92.88, 0.055331, , 
92.91, 0.056413, , 
92.94, 0.057028, , 
92.97, 0.057758, , 
93.00, 0.058224, , 
93.03, 0.058690, , 
93.06, 0.059077, , 
93.09, 0.059207, , 
93.12, 0.059277, , 
93.15, 0.059344, , 
93.18, 0.059486, , 
93.21, 0.059670, , 
93.24, 0.059858, , 
93.27, 0.060095, , 
93.30, 0.060283, , 
93.33, 0.060321, , 
93.36, 0.059601, , 
93.40, 0.058601, , 
93.42, 0.057688, , 
93.45, 0.057092, , 
93.48, 0.056676, , 
93.51, 0.056191, , 
93.54, 0.055864, , 
93.57, 0.055642, , 
93.61, 0.055585, , 
93.63, 0.055690, , 
93.66, 0.055848, , 
93.69, 0.055785, , 
93.72, 0.055626, , 
93.75, 0.055588, , 
93.78, 0.055588, , 
93.81, 0.055575, , 
93.84, 0.055442, , 
93.87, 0.055287, , 
93.90, 0.055173, , 
93.93, 0.055097, , 
93.96, 0.055011, , 
93.99, 0.054989, , 
94.02, 0.054947, , 
94.05, 0.054760, , 
94.08, 0.054608, , 
94.11, 0.054567, , 
94.14, 0.054579, , 
94.17, 0.054519, , 
94.20, 0.054408, , 
94.23, 0.054313, , 
94.26, 0.054199, , 
94.29, 0.054088, , 
94.32, 0.054028, , 
94.35, 0.054059, , 
94.38, 0.054053, , 
94.41, 0.053990, , 
94.44, 0.053885, , 
94.47, 0.053739, , 
94.50, 0.053669, , 
94.53, 0.053606, , 
94.56, 0.053530, , 
94.60, 0.053530, , 
94.62, 0.053520, , 
94.65, 0.053495, , 
94.68, 0.053504, , 
94.71, 0.053526, , 
94.74, 0.053523, , 
94.77, 0.053514, , 
94.80, 0.053482, , 
94.83, 0.053520, , 
94.86, 0.053523, , 
94.89, 0.053507, , 
94.92, 0.053523, , 
94.95, 0.053558, , 
94.98, 0.053520, , 
95.01, 0.053501, , 
95.04, 0.053511, , 
95.07, 0.053485, , 
95.10, 0.053377, , 
95.13, 0.053266, , 
95.16, 0.053092, , 
95.19, 0.053073, , 
95.22, 0.053047, , 
95.25, 0.053013, , 
95.28, 0.053009, , 
95.31, 0.053063, , 
95.34, 0.053057, , 
95.37, 0.053025, , 
95.40, 0.053035, , 
95.43, 0.053057, , 
95.46, 0.053009, , 
95.49, 0.052971, , 
95.52, 0.053044, , 
95.55, 0.053066, , 
95.58, 0.053003, , 
95.61, 0.053019, , 
95.64, 0.053022, , 
95.67, 0.053035, , 
95.70, 0.053047, , 
95.73, 0.052987, , 
95.76, 0.053019, , 
95.79, 0.053051, , 
95.82, 0.053025, , 
95.85, 0.052990, , 
95.88, 0.052930, , 
95.91, 0.052800, , 
95.94, 0.052657, , 
95.97, 0.052562, , 
96.00, 0.052553, , 
