Gradient Profiler Text Data File: 2-C2_SH_42_012126.csv
Date: 2026-01-21
Time: 15:41:29

User: Karen
Experiment name: 
UV Unit: EM-1
Rotor Manufacturer: Beckman
Rotor Model: SW28.1
Speed: 28 rpm
Gradient: sucrose 10.0% to 50.0% w/v
Time: 4
w2t:  x 10^0
Sample Volume: 18 ml
Number of Tubes: 6
Volume per mm: 0.183 ml/mm

Absorbance Units Full Scale (AUFS): 2.00
Event Mark-triggered gradient; (with distance; auto start and stop)
Delay: No Delay
UV Wavelength: 254 nm
Samples / sec: 10 Hz
EM1 Speed: 0.30 mm/sec
Distance: 3.20 mm
Number: 30
Dead Volume: 0.000000 ml; Distance due to Dead Volume: 0.00 mm
Total Distance: 96.00 mm

Data Columns:
Distance(mm), Absorbance, Fraction Number, Fraction Volume(ml)
0.00, 0.081316, 0, 0.000
0.03, 0.081338, , 
0.06, 0.081322, , 
0.09, 0.081335, , 
0.12, 0.081366, , 
0.15, 0.081373, , 
0.18, 0.081341, , 
0.21, 0.081338, , 
0.24, 0.081351, , 
0.27, 0.081376, , 
0.30, 0.081335, , 
0.33, 0.081313, , 
0.36, 0.081386, , 
0.39, 0.081389, , 
0.42, 0.081347, , 
0.45, 0.081332, , 
0.48, 0.081366, , 
0.51, 0.081363, , 
0.54, 0.081344, , 
0.57, 0.082163, , 
0.60, 0.085699, , 
0.63, 0.098498, , 
0.66, 0.117225, , 
0.69, 0.158321, , 
0.72, 0.204263, , 
0.75, 0.256343, , 
0.78, 0.321539, , 
0.81, 0.379687, , 
0.84, 0.438932, , 
0.87, 0.498397, , 
0.90, 0.558283, , 
0.93, 0.628652, , 
0.96, 0.689344, , 
0.99, 0.760570, , 
1.02, 0.821861, , 
1.05, 0.873154, , 
1.08, 0.944831, , 
1.11, 1.005081, , 
1.14, 1.070557, , 
1.17, 1.117596, , 
1.20, 1.152675, , 
1.23, 1.178907, , 
1.26, 1.190697, , 
1.29, 1.201148, , 
1.32, 1.206874, , 
1.35, 1.210905, , 
1.38, 1.214562, , 
1.41, 1.217319, , 
1.44, 1.220094, , 
1.47, 1.221867, , 
1.50, 1.223929, , 
1.53, 1.226324, , 
1.56, 1.228519, , 
1.59, 1.231396, , 
1.62, 1.234127, , 
1.65, 1.237232, , 
1.68, 1.240312, , 
1.71, 1.243509, , 
1.74, 1.247458, , 
1.77, 1.250887, , 
1.80, 1.254281, , 
1.83, 1.258170, , 
1.87, 1.261294, , 
1.89, 1.264229, , 
1.92, 1.266956, , 
1.95, 1.269516, , 
1.98, 1.272314, , 
2.01, 1.274382, , 
2.04, 1.276174, , 
2.07, 1.277113, , 
2.10, 1.278061, , 
2.13, 1.278949, , 
2.16, 1.279530, , 
2.19, 1.280288, , 
2.22, 1.281049, , 
2.25, 1.281661, , 
2.28, 1.281991, , 
2.31, 1.282128, , 
2.34, 1.282217, , 
2.37, 1.282534, , 
2.40, 1.283013, , 
2.43, 1.283780, , 
2.46, 1.284516, , 
2.49, 1.285182, , 
2.52, 1.285928, , 
2.55, 1.286924, , 
2.58, 1.288462, , 
2.61, 1.289874, , 
2.64, 1.291390, , 
2.67, 1.292456, , 
2.70, 1.293090, , 
2.73, 1.293540, , 
2.76, 1.293670, , 
2.79, 1.293851, , 
2.82, 1.294149, , 
2.85, 1.294482, , 
2.89, 1.294635, , 
2.91, 1.294597, , 
2.94, 1.294435, , 
2.97, 1.294153, , 
3.00, 1.293664, , 
3.03, 1.293007, , 
3.06, 1.292310, , 
3.09, 1.291333, , 
3.12, 1.290089, , 
3.15, 1.288659, , 
3.18, 1.286746, 1, 0.582
3.19, 1.286448, , 
3.21, 1.284932, , 
3.24, 1.282683, , 
3.27, 1.280821, , 
3.30, 1.279340, , 
3.33, 1.277103, , 
3.36, 1.275083, , 
3.39, 1.272606, , 
3.42, 1.270319, , 
3.45, 1.267740, , 
3.48, 1.264454, , 
3.51, 1.262084, , 
3.54, 1.258633, , 
3.57, 1.255575, , 
3.60, 1.252476, , 
3.63, 1.248702, , 
3.66, 1.245289, , 
3.69, 1.241086, , 
3.72, 1.237974, , 
3.75, 1.234187, , 
3.78, 1.229359, , 
3.81, 1.224805, , 
3.84, 1.218978, , 
3.87, 1.213662, , 
3.90, 1.208069, , 
3.93, 1.202287, , 
3.96, 1.196387, , 
3.99, 1.189441, , 
4.02, 1.183252, , 
4.05, 1.176788, , 
4.08, 1.168947, , 
4.11, 1.161997, , 
4.14, 1.154841, , 
4.17, 1.147628, , 
4.20, 1.140336, , 
4.23, 1.131718, , 
4.26, 1.124169, , 
4.29, 1.115224, , 
4.32, 1.108861, , 
4.35, 1.101337, , 
4.38, 1.092456, , 
4.41, 1.084726, , 
4.44, 1.075498, , 
4.47, 1.067366, , 
4.50, 1.058830, , 
4.53, 1.049961, , 
4.56, 1.040918, , 
4.59, 1.030346, , 
4.62, 1.021312, , 
4.65, 1.012323, , 
4.68, 1.002033, , 
4.71, 0.993304, , 
4.74, 0.984527, , 
4.77, 0.975798, , 
4.80, 0.967117, , 
4.83, 0.956874, , 
4.86, 0.948006, , 
4.89, 0.937719, , 
4.92, 0.929145, , 
4.95, 0.922151, , 
4.98, 0.912578, , 
5.01, 0.904607, , 
5.04, 0.895732, , 
5.07, 0.888449, , 
5.10, 0.881366, , 
5.13, 0.873510, , 
5.16, 0.868073, , 
5.19, 0.860463, , 
5.22, 0.853964, , 
5.25, 0.847579, , 
5.28, 0.840265, , 
5.31, 0.834130, , 
5.34, 0.827967, , 
5.37, 0.821702, , 
5.40, 0.815349, , 
5.43, 0.807749, , 
5.46, 0.801097, , 
5.49, 0.793307, , 
5.52, 0.786557, , 
5.55, 0.780842, , 
5.58, 0.772870, , 
5.61, 0.766035, , 
5.64, 0.758083, , 
5.67, 0.751216, , 
5.70, 0.744206, , 
5.73, 0.735857, , 
5.76, 0.729764, , 
5.79, 0.721133, , 
5.82, 0.713669, , 
5.85, 0.706269, , 
5.88, 0.697819, , 
5.91, 0.690724, , 
5.94, 0.682816, , 
5.97, 0.677427, , 
6.00, 0.671150, , 
6.03, 0.663972, , 
6.06, 0.657964, , 
6.09, 0.651132, , 
6.12, 0.645371, , 
6.15, 0.639786, , 
6.18, 0.634523, , 
6.21, 0.629575, , 
6.24, 0.624031, , 
6.27, 0.619330, , 
6.30, 0.614496, , 
6.33, 0.608650, , 
6.37, 0.603483, , 
6.38, 0.600003, 2, 0.586
6.39, 0.598252, , 
6.42, 0.592974, , 
6.45, 0.587779, , 
6.48, 0.581828, , 
6.51, 0.576696, , 
6.54, 0.570767, , 
6.57, 0.566625, , 
6.60, 0.561864, , 
6.63, 0.556319, , 
6.66, 0.551495, , 
6.69, 0.545643, , 
6.72, 0.540234, , 
6.75, 0.534668, , 
6.78, 0.529285, , 
6.81, 0.524162, , 
6.84, 0.518554, , 
6.87, 0.514104, , 
6.90, 0.509869, , 
6.93, 0.505213, , 
6.96, 0.501388, , 
6.99, 0.497600, , 
7.02, 0.493858, , 
7.05, 0.490175, , 
7.08, 0.485966, , 
7.11, 0.482435, , 
7.14, 0.478661, , 
7.17, 0.475898, , 
7.20, 0.473916, , 
7.23, 0.471391, , 
7.26, 0.469319, , 
7.29, 0.466845, , 
7.32, 0.464577, , 
7.35, 0.462278, , 
7.39, 0.459563, , 
7.41, 0.457558, , 
7.44, 0.454516, , 
7.47, 0.451658, , 
7.50, 0.448508, , 
7.53, 0.444445, , 
7.56, 0.440858, , 
7.59, 0.437362, , 
7.62, 0.433975, , 
7.65, 0.430438, , 
7.68, 0.425778, , 
7.71, 0.421455, , 
7.74, 0.416142, , 
7.77, 0.411422, , 
7.80, 0.407422, , 
7.83, 0.401887, , 
7.86, 0.397320, , 
7.89, 0.392035, , 
7.92, 0.387496, , 
7.95, 0.383236, , 
7.98, 0.378691, , 
8.01, 0.375659, , 
8.04, 0.371621, , 
8.07, 0.368398, , 
8.10, 0.365290, , 
8.13, 0.361686, , 
8.16, 0.358692, , 
8.19, 0.355311, , 
8.22, 0.352865, , 
8.25, 0.349807, , 
8.28, 0.346096, , 
8.31, 0.342877, , 
8.34, 0.339343, , 
8.37, 0.336257, , 
8.40, 0.333190, , 
8.43, 0.330243, , 
8.46, 0.327407, , 
8.49, 0.324153, , 
8.52, 0.321409, , 
8.55, 0.318703, , 
8.58, 0.315547, , 
8.61, 0.313152, , 
8.64, 0.309673, , 
8.67, 0.306663, , 
8.70, 0.303691, , 
8.73, 0.300325, , 
8.76, 0.297581, , 
8.79, 0.294838, , 
8.82, 0.293138, , 
8.85, 0.291107, , 
8.88, 0.288776, , 
8.91, 0.286952, , 
8.94, 0.284900, , 
8.97, 0.283022, , 
9.00, 0.281182, , 
9.03, 0.279457, , 
9.06, 0.277887, , 
9.09, 0.276269, , 
9.12, 0.275067, , 
9.15, 0.273897, , 
9.18, 0.272307, , 
9.21, 0.270753, , 
9.24, 0.269158, , 
9.27, 0.267600, , 
9.30, 0.266033, , 
9.33, 0.264070, , 
9.36, 0.262379, , 
9.39, 0.260419, , 
9.43, 0.258773, , 
9.45, 0.257434, , 
9.48, 0.255709, , 
9.51, 0.254342, , 
9.54, 0.252524, , 
9.57, 0.250760, , 
9.58, 0.250456, 3, 0.584
9.60, 0.248940, , 
9.64, 0.246751, , 
9.66, 0.245321, , 
9.69, 0.243481, , 
9.72, 0.242136, , 
9.75, 0.240902, , 
9.78, 0.239367, , 
9.81, 0.238003, , 
9.84, 0.236721, , 
9.87, 0.235434, , 
9.90, 0.234089, , 
9.93, 0.232512, , 
9.96, 0.231202, , 
9.99, 0.229566, , 
10.02, 0.228116, , 
10.05, 0.226930, , 
10.08, 0.225322, , 
10.11, 0.223964, , 
10.14, 0.222223, , 
10.17, 0.220621, , 
10.20, 0.218971, , 
10.23, 0.216983, , 
10.26, 0.215498, , 
10.29, 0.213427, , 
10.32, 0.211701, , 
10.35, 0.210058, , 
10.38, 0.208136, , 
10.41, 0.206575, , 
10.45, 0.204882, , 
10.47, 0.203733, , 
10.50, 0.202331, , 
10.53, 0.200739, , 
10.56, 0.199454, , 
10.59, 0.197941, , 
10.62, 0.196574, , 
10.66, 0.195283, , 
10.68, 0.194221, , 
10.71, 0.193244, , 
10.74, 0.192172, , 
10.77, 0.191395, , 
10.80, 0.190678, , 
10.83, 0.189872, , 
10.86, 0.189269, , 
10.89, 0.188467, , 
10.92, 0.187832, , 
10.95, 0.187179, , 
10.98, 0.186434, , 
11.01, 0.185898, , 
11.04, 0.185282, , 
11.07, 0.184876, , 
11.10, 0.184362, , 
11.13, 0.183757, , 
11.16, 0.183173, , 
11.19, 0.182386, , 
11.22, 0.181641, , 
11.25, 0.180946, , 
11.28, 0.180220, , 
11.31, 0.179512, , 
11.34, 0.178643, , 
11.37, 0.177949, , 
11.40, 0.177257, , 
11.43, 0.176271, , 
11.46, 0.175364, , 
11.49, 0.174682, , 
11.52, 0.173527, , 
11.55, 0.172464, , 
11.58, 0.171262, , 
11.61, 0.170330, , 
11.64, 0.169334, , 
11.68, 0.168509, , 
11.70, 0.167868, , 
11.73, 0.167012, , 
11.76, 0.166314, , 
11.79, 0.165591, , 
11.82, 0.164684, , 
11.85, 0.163973, , 
11.88, 0.163298, , 
11.91, 0.162593, , 
11.94, 0.161918, , 
11.97, 0.161334, , 
12.00, 0.160795, , 
12.03, 0.160034, , 
12.06, 0.159504, , 
12.09, 0.159069, , 
12.12, 0.158372, , 
12.15, 0.157734, , 
12.18, 0.157071, , 
12.21, 0.156503, , 
12.24, 0.155837, , 
12.27, 0.154946, , 
12.30, 0.154334, , 
12.33, 0.153512, , 
12.36, 0.152764, , 
12.39, 0.151913, , 
12.42, 0.150905, , 
12.45, 0.149956, , 
12.48, 0.148773, , 
12.51, 0.148006, , 
12.54, 0.147140, , 
12.57, 0.146137, , 
12.60, 0.145243, , 
12.63, 0.144161, , 
12.66, 0.143356, , 
12.69, 0.142613, , 
12.72, 0.141843, , 
12.75, 0.141154, , 
12.78, 0.140390, , 
12.79, 0.140282, 4, 0.588
12.81, 0.139743, , 
12.84, 0.139172, , 
12.87, 0.138601, , 
12.90, 0.138290, , 
12.93, 0.137919, , 
12.96, 0.137592, , 
12.99, 0.137278, , 
13.02, 0.137002, , 
13.05, 0.136707, , 
13.08, 0.136320, , 
13.11, 0.136082, , 
13.14, 0.135806, , 
13.17, 0.135492, , 
13.20, 0.135204, , 
13.23, 0.134947, , 
13.26, 0.134817, , 
13.29, 0.134703, , 
13.32, 0.134592, , 
13.35, 0.134411, , 
13.38, 0.134290, , 
13.41, 0.134201, , 
13.44, 0.133976, , 
13.47, 0.133830, , 
13.50, 0.133738, , 
13.53, 0.133662, , 
13.56, 0.133519, , 
13.59, 0.133348, , 
13.62, 0.133209, , 
13.65, 0.133088, , 
13.68, 0.132799, , 
13.71, 0.132558, , 
13.74, 0.132298, , 
13.77, 0.131918, , 
13.80, 0.131489, , 
13.83, 0.130912, , 
13.86, 0.130484, , 
13.89, 0.130002, , 
13.92, 0.129409, , 
13.95, 0.128879, , 
13.98, 0.128194, , 
14.01, 0.127509, , 
14.04, 0.126881, , 
14.07, 0.126214, , 
14.10, 0.125640, , 
14.13, 0.125000, , 
14.16, 0.124343, , 
14.19, 0.123702, , 
14.22, 0.122992, , 
14.25, 0.122342, , 
14.28, 0.121634, , 
14.31, 0.121073, , 
14.34, 0.120575, , 
14.37, 0.119810, , 
14.40, 0.119068, , 
14.43, 0.118285, , 
14.46, 0.117596, , 
14.49, 0.116905, , 
14.52, 0.116077, , 
14.55, 0.115547, , 
14.58, 0.114808, , 
14.61, 0.114104, , 
14.64, 0.113419, , 
14.67, 0.112734, , 
14.70, 0.112090, , 
14.74, 0.111287, , 
14.76, 0.110720, , 
14.79, 0.110139, , 
14.82, 0.109444, , 
14.85, 0.108797, , 
14.88, 0.108125, , 
14.91, 0.107529, , 
14.94, 0.106983, , 
14.97, 0.106174, , 
15.00, 0.105476, , 
15.03, 0.104842, , 
15.06, 0.104281, , 
15.09, 0.103627, , 
15.12, 0.102951, , 
15.15, 0.102568, , 
15.18, 0.101797, , 
15.21, 0.101172, , 
15.24, 0.100633, , 
15.27, 0.099989, , 
15.30, 0.099396, , 
15.33, 0.098720, , 
15.36, 0.098232, , 
15.39, 0.097654, , 
15.42, 0.096982, , 
15.45, 0.096379, , 
15.48, 0.095666, , 
15.51, 0.095133, , 
15.54, 0.094603, , 
15.57, 0.094032, , 
15.60, 0.093458, , 
15.63, 0.092833, , 
15.66, 0.092303, , 
15.69, 0.091758, , 
15.72, 0.091158, , 
15.75, 0.090787, , 
15.78, 0.090295, , 
15.81, 0.089820, , 
15.84, 0.089439, , 
15.87, 0.088982, , 
15.90, 0.088529, , 
15.93, 0.087939, , 
15.97, 0.087507, , 
15.99, 0.087263, 5, 0.585
15.99, 0.087200, , 
16.02, 0.086721, , 
16.05, 0.086321, , 
16.08, 0.086036, , 
16.11, 0.085728, , 
16.14, 0.085312, , 
16.18, 0.084878, , 
16.20, 0.084646, , 
16.23, 0.084323, , 
16.26, 0.083942, , 
16.29, 0.083549, , 
16.32, 0.083206, , 
16.35, 0.082987, , 
16.38, 0.082664, , 
16.41, 0.082201, , 
16.44, 0.081899, , 
16.47, 0.081563, , 
16.50, 0.081227, , 
16.53, 0.080783, , 
16.56, 0.080405, , 
16.59, 0.080075, , 
16.62, 0.079584, , 
16.65, 0.079219, , 
16.68, 0.078899, , 
16.71, 0.078610, , 
16.74, 0.078239, , 
16.77, 0.077776, , 
16.80, 0.077586, , 
16.83, 0.077329, , 
16.86, 0.077037, , 
16.89, 0.076729, , 
16.92, 0.076390, , 
16.95, 0.076180, , 
16.99, 0.075860, , 
17.01, 0.075647, , 
17.04, 0.075470, , 
17.07, 0.075222, , 
17.10, 0.074953, , 
17.13, 0.074693, , 
17.16, 0.074499, , 
17.20, 0.074309, , 
17.22, 0.074052, , 
17.25, 0.073811, , 
17.28, 0.073592, , 
17.31, 0.073402, , 
17.34, 0.073170, , 
17.37, 0.072875, , 
17.40, 0.072745, , 
17.43, 0.072561, , 
17.46, 0.072393, , 
17.49, 0.072215, , 
17.52, 0.072117, , 
17.55, 0.071993, , 
17.58, 0.071768, , 
17.61, 0.071629, , 
17.64, 0.071556, , 
17.67, 0.071480, , 
17.70, 0.071315, , 
17.73, 0.071146, , 
17.76, 0.071064, , 
17.79, 0.071042, , 
17.82, 0.070972, , 
17.85, 0.070966, , 
17.88, 0.070988, , 
17.91, 0.071001, , 
17.94, 0.070943, , 
17.97, 0.070928, , 
18.00, 0.070978, , 
18.03, 0.071016, , 
18.06, 0.070982, , 
18.09, 0.070959, , 
18.12, 0.071039, , 
18.15, 0.071118, , 
18.19, 0.071200, , 
18.21, 0.071242, , 
18.24, 0.071343, , 
18.27, 0.071410, , 
18.30, 0.071381, , 
18.33, 0.071381, , 
18.36, 0.071419, , 
18.39, 0.071457, , 
18.42, 0.071556, , 
18.45, 0.071676, , 
18.48, 0.071841, , 
18.51, 0.072022, , 
18.54, 0.072206, , 
18.57, 0.072292, , 
18.60, 0.072434, , 
18.63, 0.072650, , 
18.66, 0.072790, , 
18.69, 0.073021, , 
18.72, 0.073373, , 
18.75, 0.073690, , 
18.78, 0.073954, , 
18.81, 0.074211, , 
18.84, 0.074699, , 
18.87, 0.075124, , 
18.90, 0.075508, , 
18.93, 0.076057, , 
18.96, 0.076590, , 
18.99, 0.077107, , 
19.02, 0.077611, , 
19.05, 0.078134, , 
19.08, 0.078778, , 
19.11, 0.079362, , 
19.14, 0.080044, , 
19.17, 0.080700, , 
19.18, 0.080926, 6, 0.585
19.20, 0.081344, , 
19.23, 0.081861, , 
19.26, 0.082432, , 
19.29, 0.083086, , 
19.32, 0.083866, , 
19.35, 0.084491, , 
19.38, 0.085087, , 
19.41, 0.085560, , 
19.44, 0.086156, , 
19.47, 0.086905, , 
19.50, 0.087425, , 
19.53, 0.088132, , 
19.56, 0.088763, , 
19.59, 0.089290, , 
19.62, 0.089756, , 
19.65, 0.090264, , 
19.68, 0.090866, , 
19.71, 0.091272, , 
19.74, 0.091621, , 
19.77, 0.092145, , 
19.80, 0.092624, , 
19.83, 0.093058, , 
19.86, 0.093458, , 
19.89, 0.093877, , 
19.92, 0.094352, , 
19.95, 0.094632, , 
19.98, 0.094888, , 
20.01, 0.095076, , 
20.04, 0.095241, , 
20.07, 0.095418, , 
20.10, 0.095532, , 
20.13, 0.095627, , 
20.16, 0.095697, , 
20.19, 0.095694, , 
20.22, 0.095697, , 
20.25, 0.095729, , 
20.28, 0.095773, , 
20.31, 0.095742, , 
20.34, 0.095719, , 
20.37, 0.095678, , 
20.40, 0.095574, , 
20.43, 0.095386, , 
20.46, 0.095142, , 
20.49, 0.094920, , 
20.52, 0.094730, , 
20.55, 0.094505, , 
20.58, 0.094200, , 
20.61, 0.094013, , 
20.64, 0.093848, , 
20.67, 0.093544, , 
20.70, 0.093185, , 
20.73, 0.092931, , 
20.76, 0.092662, , 
20.79, 0.092240, , 
20.82, 0.091799, , 
20.85, 0.091567, , 
20.88, 0.091272, , 
20.91, 0.090908, , 
20.94, 0.090498, , 
20.97, 0.090026, , 
21.00, 0.089683, , 
21.03, 0.089274, , 
21.06, 0.088954, , 
21.09, 0.088656, , 
21.12, 0.088227, , 
21.15, 0.087783, , 
21.18, 0.087323, , 
21.21, 0.086933, , 
21.24, 0.086556, , 
21.27, 0.086226, , 
21.30, 0.085858, , 
21.33, 0.085509, , 
21.36, 0.085166, , 
21.39, 0.084710, , 
21.42, 0.084183, , 
21.46, 0.083796, , 
21.48, 0.083460, , 
21.51, 0.083111, , 
21.54, 0.082762, , 
21.57, 0.082378, , 
21.60, 0.082067, , 
21.63, 0.081550, , 
21.66, 0.081138, , 
21.69, 0.080853, , 
21.72, 0.080532, , 
21.75, 0.080177, , 
21.78, 0.079727, , 
21.81, 0.079435, , 
21.84, 0.079165, , 
21.87, 0.078797, , 
21.90, 0.078410, , 
21.93, 0.078020, , 
21.96, 0.077744, , 
21.99, 0.077440, , 
22.02, 0.077024, , 
22.05, 0.076777, , 
22.08, 0.076501, , 
22.11, 0.076145, , 
22.14, 0.075825, , 
22.17, 0.075559, , 
22.20, 0.075343, , 
22.23, 0.075054, , 
22.26, 0.074743, , 
22.29, 0.074531, , 
22.32, 0.074280, , 
22.35, 0.073970, , 
22.38, 0.073665, 7, 0.586
22.39, 0.073646, , 
22.41, 0.073554, , 
22.44, 0.073427, , 
22.48, 0.073186, , 
22.50, 0.073008, , 
22.53, 0.072815, , 
22.56, 0.072675, , 
22.59, 0.072533, , 
22.62, 0.072409, , 
22.65, 0.072330, , 
22.68, 0.072174, , 
22.71, 0.072022, , 
22.74, 0.071952, , 
22.77, 0.071943, , 
22.80, 0.071835, , 
22.83, 0.071644, , 
22.86, 0.071562, , 
22.89, 0.071530, , 
22.92, 0.071495, , 
22.95, 0.071422, , 
22.98, 0.071445, , 
23.01, 0.071587, , 
23.04, 0.071740, , 
23.07, 0.071816, , 
23.10, 0.071870, , 
23.13, 0.072050, , 
23.16, 0.072190, , 
23.19, 0.072323, , 
23.22, 0.072634, , 
23.25, 0.072831, , 
23.28, 0.073151, , 
23.31, 0.073383, , 
23.34, 0.073751, , 
23.37, 0.074290, , 
23.40, 0.074728, , 
23.43, 0.075359, , 
23.46, 0.076063, , 
23.49, 0.076869, , 
23.52, 0.077674, , 
23.55, 0.078582, , 
23.58, 0.079876, , 
23.61, 0.081151, , 
23.64, 0.082527, , 
23.67, 0.084361, , 
23.70, 0.085867, , 
23.73, 0.088250, , 
23.76, 0.090473, , 
23.79, 0.092973, , 
23.82, 0.096367, , 
23.85, 0.099611, , 
23.88, 0.103859, , 
23.91, 0.107167, , 
23.94, 0.111129, , 
23.97, 0.117079, , 
24.00, 0.122284, , 
24.03, 0.128933, , 
24.06, 0.135131, , 
24.09, 0.141808, , 
24.12, 0.148875, , 
24.15, 0.156424, , 
24.18, 0.166022, , 
24.21, 0.174780, , 
24.24, 0.183912, , 
24.27, 0.195134, , 
24.30, 0.205250, , 
24.33, 0.215739, , 
24.36, 0.226270, , 
24.39, 0.235830, , 
24.42, 0.248924, , 
24.45, 0.259442, , 
24.48, 0.271920, , 
24.52, 0.282905, , 
24.54, 0.291218, , 
24.57, 0.305825, , 
24.60, 0.317507, , 
24.63, 0.331239, , 
24.66, 0.343137, , 
24.69, 0.354987, , 
24.72, 0.366780, , 
24.75, 0.378469, , 
24.78, 0.392042, , 
24.81, 0.403407, , 
24.84, 0.414489, , 
24.87, 0.427272, , 
24.90, 0.438384, , 
24.93, 0.449546, , 
24.96, 0.460597, , 
24.99, 0.471445, , 
25.02, 0.483555, , 
25.05, 0.493220, , 
25.08, 0.503659, , 
25.11, 0.512071, , 
25.14, 0.518779, , 
25.17, 0.527534, , 
25.20, 0.534487, , 
25.23, 0.541928, , 
25.26, 0.547733, , 
25.29, 0.553001, , 
25.32, 0.558460, , 
25.35, 0.561994, , 
25.38, 0.566479, , 
25.41, 0.569882, , 
25.44, 0.572813, , 
25.47, 0.575763, , 
25.50, 0.577942, , 
25.54, 0.579903, , 
25.56, 0.581064, , 
25.58, 0.581914, 8, 0.585
25.59, 0.582316, , 
25.62, 0.583468, , 
25.65, 0.584055, , 
25.68, 0.584286, , 
25.71, 0.584229, , 
25.75, 0.584004, , 
25.77, 0.583484, , 
25.80, 0.582637, , 
25.83, 0.581422, , 
25.86, 0.580220, , 
25.89, 0.578802, , 
25.92, 0.576905, , 
25.95, 0.575497, , 
25.98, 0.573289, , 
26.01, 0.571088, , 
26.04, 0.568696, , 
26.07, 0.565762, , 
26.10, 0.563193, , 
26.13, 0.559967, , 
26.16, 0.557496, , 
26.19, 0.554394, , 
26.22, 0.550654, , 
26.25, 0.547295, , 
26.28, 0.543080, , 
26.31, 0.539473, , 
26.34, 0.535883, , 
26.37, 0.532216, , 
26.40, 0.528482, , 
26.43, 0.524010, , 
26.46, 0.520121, , 
26.49, 0.516096, , 
26.52, 0.511440, , 
26.55, 0.507525, , 
26.58, 0.503573, , 
26.61, 0.499504, , 
26.64, 0.495310, , 
26.67, 0.490502, , 
26.70, 0.486340, , 
26.73, 0.481389, , 
26.77, 0.477145, , 
26.79, 0.473662, , 
26.82, 0.468774, , 
26.85, 0.464514, , 
26.88, 0.459436, , 
26.91, 0.455150, , 
26.94, 0.450970, , 
26.97, 0.446738, , 
27.00, 0.442453, , 
27.03, 0.437549, , 
27.06, 0.433407, , 
27.09, 0.429293, , 
27.12, 0.424519, , 
27.15, 0.420503, , 
27.18, 0.416507, , 
27.21, 0.412520, , 
27.24, 0.408666, , 
27.27, 0.404406, , 
27.30, 0.400831, , 
27.33, 0.396650, , 
27.36, 0.393196, , 
27.39, 0.390414, , 
27.42, 0.386602, , 
27.45, 0.383363, , 
27.48, 0.379646, , 
27.51, 0.376547, , 
27.54, 0.373502, , 
27.57, 0.369933, , 
27.60, 0.367383, , 
27.63, 0.363964, , 
27.66, 0.361099, , 
27.69, 0.358194, , 
27.72, 0.354917, , 
27.75, 0.352234, , 
27.79, 0.349040, , 
27.81, 0.346686, , 
27.84, 0.343873, , 
27.87, 0.340713, , 
27.90, 0.338077, , 
27.93, 0.334925, , 
27.96, 0.332244, , 
27.99, 0.330059, , 
28.02, 0.327115, , 
28.05, 0.324537, , 
28.08, 0.321491, , 
28.11, 0.319008, , 
28.14, 0.316556, , 
28.17, 0.313676, , 
28.20, 0.311684, , 
28.23, 0.308997, , 
28.26, 0.306666, , 
28.29, 0.304303, , 
28.32, 0.301603, , 
28.35, 0.299408, , 
28.38, 0.296858, , 
28.41, 0.294980, , 
28.44, 0.292766, , 
28.47, 0.290372, , 
28.50, 0.288335, , 
28.53, 0.285845, , 
28.56, 0.283818, , 
28.59, 0.281811, , 
28.62, 0.279825, , 
28.65, 0.277792, , 
28.68, 0.275451, , 
28.71, 0.273513, , 
28.74, 0.271556, , 
28.77, 0.269237, , 
28.78, 0.268888, 9, 0.585
28.80, 0.267321, , 
28.83, 0.265500, , 
28.86, 0.263594, , 
28.89, 0.261675, , 
28.92, 0.259467, , 
28.95, 0.257593, , 
28.98, 0.255426, , 
29.01, 0.253834, , 
29.04, 0.251988, , 
29.07, 0.249945, , 
29.10, 0.248198, , 
29.13, 0.246133, , 
29.16, 0.244407, , 
29.19, 0.242764, , 
29.22, 0.241181, , 
29.25, 0.239494, , 
29.28, 0.237489, , 
29.31, 0.235817, , 
29.34, 0.234111, , 
29.37, 0.232179, , 
29.40, 0.230619, , 
29.43, 0.228998, , 
29.46, 0.227285, , 
29.49, 0.225610, , 
29.52, 0.223732, , 
29.55, 0.222124, , 
29.58, 0.220262, , 
29.61, 0.218657, , 
29.64, 0.217417, , 
29.67, 0.215685, , 
29.70, 0.214118, , 
29.73, 0.212256, , 
29.76, 0.210743, , 
29.79, 0.209291, , 
29.83, 0.207527, , 
29.85, 0.206249, , 
29.88, 0.204612, , 
29.91, 0.203172, , 
29.94, 0.201754, , 
29.97, 0.200044, , 
30.00, 0.198604, , 
30.03, 0.197218, , 
30.06, 0.195797, , 
30.09, 0.194414, , 
30.12, 0.192879, , 
30.15, 0.191591, , 
30.18, 0.190015, , 
30.21, 0.188692, , 
30.24, 0.187658, , 
30.27, 0.186227, , 
30.30, 0.184800, , 
30.33, 0.183271, , 
30.36, 0.182060, , 
30.39, 0.180873, , 
30.42, 0.179443, , 
30.45, 0.178421, , 
30.48, 0.176991, , 
30.51, 0.175719, , 
30.54, 0.174494, , 
30.57, 0.173089, , 
30.60, 0.171893, , 
30.63, 0.170568, , 
30.66, 0.169594, , 
30.69, 0.168433, , 
30.72, 0.167164, , 
30.75, 0.166070, , 
30.78, 0.164753, , 
30.81, 0.163589, , 
30.84, 0.162447, , 
30.87, 0.161214, , 
30.90, 0.160024, , 
30.93, 0.158816, , 
30.96, 0.157902, , 
30.99, 0.156900, , 
31.02, 0.155713, , 
31.06, 0.154727, , 
31.08, 0.153785, , 
31.11, 0.152811, , 
31.14, 0.151866, , 
31.17, 0.150832, , 
31.20, 0.149947, , 
31.23, 0.148926, , 
31.26, 0.148152, , 
31.29, 0.147292, , 
31.32, 0.146423, , 
31.35, 0.145744, , 
31.38, 0.144850, , 
31.41, 0.144161, , 
31.44, 0.143441, , 
31.47, 0.142712, , 
31.50, 0.141979, , 
31.53, 0.141173, , 
31.56, 0.140517, , 
31.59, 0.139857, , 
31.62, 0.139048, , 
31.65, 0.138411, , 
31.68, 0.137763, , 
31.71, 0.137091, , 
31.74, 0.136381, , 
31.77, 0.135651, , 
31.80, 0.135032, , 
31.83, 0.134239, , 
31.86, 0.133500, , 
31.89, 0.132891, , 
31.92, 0.132124, , 
31.95, 0.131401, , 
31.98, 0.130592, 10, 0.586
31.98, 0.130465, , 
32.01, 0.129796, , 
32.04, 0.129136, , 
32.08, 0.128387, , 
32.10, 0.127772, , 
32.13, 0.126969, , 
32.16, 0.126183, , 
32.19, 0.125336, , 
32.22, 0.124467, , 
32.25, 0.123785, , 
32.28, 0.123163, , 
32.31, 0.122459, , 
32.34, 0.121682, , 
32.37, 0.120898, , 
32.40, 0.120305, , 
32.43, 0.119563, , 
32.46, 0.118906, , 
32.49, 0.118383, , 
32.52, 0.117676, , 
32.55, 0.117051, , 
32.58, 0.116375, , 
32.61, 0.115769, , 
32.64, 0.115208, , 
32.67, 0.114561, , 
32.70, 0.114123, , 
32.73, 0.113581, , 
32.76, 0.113143, , 
32.79, 0.112702, , 
32.82, 0.112166, , 
32.85, 0.111741, , 
32.88, 0.111300, , 
32.91, 0.110881, , 
32.94, 0.110371, , 
32.97, 0.109914, , 
33.00, 0.109505, , 
33.03, 0.108937, , 
33.06, 0.108477, , 
33.09, 0.108068, , 
33.12, 0.107646, , 
33.15, 0.107186, , 
33.18, 0.106666, , 
33.21, 0.106269, , 
33.24, 0.105866, , 
33.27, 0.105343, , 
33.31, 0.105054, , 
33.33, 0.104836, , 
33.36, 0.104426, , 
33.39, 0.103976, , 
33.42, 0.103491, , 
33.45, 0.103196, , 
33.48, 0.102882, , 
33.51, 0.102685, , 
33.54, 0.102393, , 
33.57, 0.102079, , 
33.60, 0.101781, , 
33.63, 0.101483, , 
33.66, 0.101178, , 
33.69, 0.101058, , 
33.72, 0.100763, , 
33.75, 0.100414, , 
33.78, 0.100128, , 
33.81, 0.099903, , 
33.84, 0.099659, , 
33.87, 0.099488, , 
33.90, 0.099329, , 
33.93, 0.099186, , 
33.96, 0.099037, , 
33.99, 0.098834, , 
34.02, 0.098650, , 
34.05, 0.098520, , 
34.08, 0.098403, , 
34.11, 0.098301, , 
34.14, 0.098282, , 
34.17, 0.098298, , 
34.20, 0.098197, , 
34.23, 0.097997, , 
34.26, 0.097886, , 
34.29, 0.097886, , 
34.32, 0.097813, , 
34.35, 0.097727, , 
34.38, 0.097648, , 
34.41, 0.097515, , 
34.44, 0.097375, , 
34.47, 0.097283, , 
34.50, 0.097252, , 
34.53, 0.097296, , 
34.56, 0.097255, , 
34.59, 0.097156, , 
34.62, 0.097064, , 
34.65, 0.096960, , 
34.68, 0.096858, , 
34.71, 0.096604, , 
34.74, 0.096509, , 
34.77, 0.096386, , 
34.80, 0.096205, , 
34.83, 0.096024, , 
34.86, 0.095780, , 
34.89, 0.095678, , 
34.92, 0.095447, , 
34.95, 0.095304, , 
34.98, 0.095174, , 
35.01, 0.094955, , 
35.04, 0.094743, , 
35.07, 0.094441, , 
35.10, 0.094289, , 
35.13, 0.094095, , 
35.16, 0.093826, , 
35.18, 0.093674, 11, 0.586
35.19, 0.093616, , 
35.22, 0.093515, , 
35.25, 0.093417, , 
35.28, 0.093179, , 
35.31, 0.092988, , 
35.35, 0.092887, , 
35.37, 0.092754, , 
35.40, 0.092525, , 
35.43, 0.092300, , 
35.46, 0.092075, , 
35.49, 0.091866, , 
35.52, 0.091615, , 
35.55, 0.091501, , 
35.58, 0.091301, , 
35.61, 0.091054, , 
35.64, 0.090695, , 
35.67, 0.090213, , 
35.70, 0.089848, , 
35.73, 0.089426, , 
35.76, 0.088963, , 
35.79, 0.088503, , 
35.82, 0.088053, , 
35.85, 0.087612, , 
35.88, 0.087152, , 
35.91, 0.086648, , 
35.94, 0.086229, , 
35.97, 0.085836, , 
36.00, 0.085357, , 
36.03, 0.084913, , 
36.06, 0.084434, , 
36.09, 0.084006, , 
36.12, 0.083473, , 
36.15, 0.083070, , 
36.18, 0.082807, , 
36.21, 0.082432, , 
36.24, 0.082121, , 
36.27, 0.081912, , 
36.30, 0.081642, , 
36.33, 0.081230, , 
36.37, 0.080748, , 
36.39, 0.080421, , 
36.42, 0.080161, , 
36.45, 0.079831, , 
36.48, 0.079432, , 
36.51, 0.079080, , 
36.54, 0.078769, , 
36.57, 0.078394, , 
36.60, 0.078017, , 
36.63, 0.077620, , 
36.66, 0.077306, , 
36.69, 0.076837, , 
36.72, 0.076434, , 
36.75, 0.076079, , 
36.78, 0.075800, , 
36.81, 0.075406, , 
36.85, 0.074927, , 
36.87, 0.074658, , 
36.90, 0.074328, , 
36.93, 0.074017, , 
36.96, 0.073633, , 
36.99, 0.073361, , 
37.02, 0.073066, , 
37.05, 0.072786, , 
37.08, 0.072564, , 
37.11, 0.072301, , 
37.14, 0.071987, , 
37.17, 0.071717, , 
37.20, 0.071397, , 
37.23, 0.071185, , 
37.26, 0.071010, , 
37.29, 0.070721, , 
37.32, 0.070515, , 
37.35, 0.070246, , 
37.38, 0.070179, , 
37.41, 0.070008, , 
37.44, 0.069789, , 
37.47, 0.069725, , 
37.50, 0.069545, , 
37.53, 0.069319, , 
37.56, 0.069174, , 
37.59, 0.069050, , 
37.62, 0.068872, , 
37.65, 0.068650, , 
37.68, 0.068485, , 
37.71, 0.068257, , 
37.74, 0.068070, , 
37.77, 0.067816, , 
37.80, 0.067594, , 
37.83, 0.067477, , 
37.86, 0.067340, , 
37.89, 0.067128, , 
37.92, 0.066918, , 
37.95, 0.066703, , 
37.98, 0.066465, , 
38.01, 0.066217, , 
38.04, 0.066087, , 
38.08, 0.065957, , 
38.10, 0.065789, , 
38.13, 0.065570, , 
38.16, 0.065475, , 
38.19, 0.065301, , 
38.22, 0.065129, , 
38.25, 0.064974, , 
38.28, 0.064952, , 
38.31, 0.064987, , 
38.34, 0.064971, , 
38.37, 0.064904, , 
38.38, 0.064882, 12, 0.585
38.40, 0.064806, , 
38.43, 0.064714, , 
38.46, 0.064587, , 
38.49, 0.064441, , 
38.52, 0.064298, , 
38.55, 0.064149, , 
38.58, 0.064083, , 
38.61, 0.063914, , 
38.64, 0.063756, , 
38.67, 0.063632, , 
38.70, 0.063426, , 
38.73, 0.063194, , 
38.76, 0.063096, , 
38.79, 0.062966, , 
38.82, 0.062769, , 
38.85, 0.062563, , 
38.88, 0.062405, , 
38.91, 0.062300, , 
38.94, 0.062138, , 
38.97, 0.062043, , 
39.00, 0.062021, , 
39.03, 0.062043, , 
39.06, 0.062018, , 
39.10, 0.061976, , 
39.12, 0.061992, , 
39.15, 0.062021, , 
39.18, 0.061986, , 
39.21, 0.061935, , 
39.24, 0.061989, , 
39.27, 0.061986, , 
39.30, 0.061951, , 
39.33, 0.061910, , 
39.36, 0.061967, , 
39.39, 0.062018, , 
39.42, 0.061967, , 
39.45, 0.061935, , 
39.48, 0.061862, , 
39.51, 0.061789, , 
39.54, 0.061621, , 
39.57, 0.061466, , 
39.60, 0.061463, , 
39.63, 0.061494, , 
39.66, 0.061434, , 
39.69, 0.061434, , 
39.72, 0.061472, , 
39.75, 0.061520, , 
39.78, 0.061507, , 
39.81, 0.061475, , 
39.84, 0.061517, , 
39.87, 0.061526, , 
39.90, 0.061599, , 
39.93, 0.061647, , 
39.96, 0.061805, , 
39.99, 0.061992, , 
40.02, 0.062113, , 
40.05, 0.062281, , 
40.08, 0.062430, , 
40.11, 0.062576, , 
40.14, 0.062684, , 
40.17, 0.062925, , 
40.20, 0.063204, , 
40.23, 0.063432, , 
40.26, 0.063677, , 
40.29, 0.064019, , 
40.32, 0.064209, , 
40.35, 0.064362, , 
40.38, 0.064539, , 
40.41, 0.064707, , 
40.44, 0.064866, , 
40.47, 0.065002, , 
40.50, 0.065136, , 
40.53, 0.065278, , 
40.56, 0.065485, , 
40.59, 0.065615, , 
40.62, 0.065754, , 
40.65, 0.065859, , 
40.68, 0.065919, , 
40.71, 0.065970, , 
40.74, 0.066052, , 
40.77, 0.066198, , 
40.80, 0.066341, , 
40.83, 0.066468, , 
40.86, 0.066677, , 
40.89, 0.066956, , 
40.92, 0.067140, , 
40.95, 0.067289, , 
40.98, 0.067489, , 
41.01, 0.067756, , 
41.04, 0.068082, , 
41.07, 0.068327, , 
41.10, 0.068618, , 
41.13, 0.068945, , 
41.16, 0.069259, , 
41.19, 0.069551, , 
41.22, 0.069808, , 
41.25, 0.070163, , 
41.28, 0.070553, , 
41.31, 0.070867, , 
41.34, 0.071169, , 
41.37, 0.071581, , 
41.40, 0.072162, , 
41.43, 0.072625, , 
41.46, 0.073094, , 
41.49, 0.073643, , 
41.52, 0.073982, , 
41.55, 0.074252, , 
41.58, 0.074610, , 
41.59, 0.074680, 13, 0.587
41.61, 0.075057, , 
41.64, 0.075514, , 
41.67, 0.075831, , 
41.70, 0.076206, , 
41.73, 0.076472, , 
41.76, 0.076662, , 
41.79, 0.076881, , 
41.82, 0.077049, , 
41.85, 0.077237, , 
41.88, 0.077265, , 
41.91, 0.077249, , 
41.94, 0.077310, , 
41.97, 0.077348, , 
42.00, 0.077329, , 
42.03, 0.077202, , 
42.06, 0.077081, , 
42.09, 0.077008, , 
42.12, 0.076935, , 
42.16, 0.076862, , 
42.18, 0.076872, , 
42.21, 0.076885, , 
42.24, 0.076805, , 
42.27, 0.076682, , 
42.30, 0.076574, , 
42.33, 0.076469, , 
42.37, 0.076307, , 
42.39, 0.076139, , 
42.42, 0.076044, , 
42.45, 0.075927, , 
42.48, 0.075724, , 
42.51, 0.075549, , 
42.54, 0.075448, , 
42.57, 0.075308, , 
42.60, 0.075045, , 
42.63, 0.074826, , 
42.66, 0.074594, , 
42.69, 0.074239, , 
42.72, 0.073957, , 
42.75, 0.073690, , 
42.78, 0.073551, , 
42.81, 0.073354, , 
42.84, 0.073094, , 
42.87, 0.072916, , 
42.90, 0.072796, , 
42.93, 0.072653, , 
42.96, 0.072491, , 
42.99, 0.072326, , 
43.02, 0.072209, , 
43.05, 0.071946, , 
43.08, 0.071702, , 
43.11, 0.071546, , 
43.14, 0.071388, , 
43.17, 0.071213, , 
43.20, 0.071016, , 
43.23, 0.070744, , 
43.26, 0.070626, , 
43.29, 0.070350, , 
43.32, 0.069992, , 
43.35, 0.069618, , 
43.38, 0.069380, , 
43.41, 0.069091, , 
43.44, 0.068796, , 
43.47, 0.068568, , 
43.50, 0.068330, , 
43.53, 0.068060, , 
43.56, 0.067860, , 
43.59, 0.067680, , 
43.62, 0.067559, , 
43.65, 0.067324, , 
43.68, 0.067188, , 
43.71, 0.067090, , 
43.74, 0.066912, , 
43.77, 0.066731, , 
43.80, 0.066655, , 
43.83, 0.066598, , 
43.86, 0.066512, , 
43.89, 0.066449, , 
43.92, 0.066411, , 
43.95, 0.066306, , 
43.98, 0.066135, , 
44.01, 0.066017, , 
44.04, 0.065998, , 
44.07, 0.065983, , 
44.10, 0.065846, , 
44.13, 0.065694, , 
44.16, 0.065488, , 
44.19, 0.065275, , 
44.22, 0.065186, , 
44.25, 0.065044, , 
44.28, 0.064920, , 
44.31, 0.064822, , 
44.34, 0.064698, , 
44.37, 0.064530, , 
44.41, 0.064320, , 
44.43, 0.064203, , 
44.46, 0.064038, , 
44.49, 0.063737, , 
44.52, 0.063572, , 
44.55, 0.063464, , 
44.58, 0.063267, , 
44.61, 0.063134, , 
44.64, 0.063049, , 
44.67, 0.063042, , 
44.70, 0.063017, , 
44.73, 0.063090, , 
44.76, 0.063220, , 
44.78, 0.063344, 14, 0.585
44.79, 0.063363, , 
44.82, 0.063397, , 
44.85, 0.063372, , 
44.88, 0.063410, , 
44.91, 0.063458, , 
44.94, 0.063540, , 
44.97, 0.063645, , 
45.00, 0.063800, , 
45.03, 0.063930, , 
45.06, 0.064054, , 
45.09, 0.064175, , 
45.12, 0.064311, , 
45.15, 0.064352, , 
45.18, 0.064320, , 
45.21, 0.064267, , 
45.24, 0.064248, , 
45.27, 0.064276, , 
45.30, 0.064320, , 
45.33, 0.064355, , 
45.36, 0.064400, , 
45.39, 0.064466, , 
45.43, 0.064444, , 
45.45, 0.064400, , 
45.48, 0.064425, , 
45.51, 0.064447, , 
45.54, 0.064374, , 
45.57, 0.064390, , 
45.60, 0.064406, , 
45.63, 0.064403, , 
45.66, 0.064438, , 
45.69, 0.064568, , 
45.72, 0.064726, , 
45.75, 0.064882, , 
45.78, 0.065006, , 
45.81, 0.065155, , 
45.84, 0.065326, , 
45.87, 0.065507, , 
45.90, 0.065665, , 
45.93, 0.065881, , 
45.96, 0.066132, , 
45.99, 0.066338, , 
46.02, 0.066525, , 
46.05, 0.066674, , 
46.08, 0.066836, , 
46.11, 0.067004, , 
46.14, 0.067283, , 
46.17, 0.067572, , 
46.20, 0.067895, , 
46.23, 0.068073, , 
46.26, 0.068276, , 
46.29, 0.068615, , 
46.32, 0.068964, , 
46.35, 0.069256, , 
46.38, 0.069510, , 
46.41, 0.069814, , 
46.44, 0.070116, , 
46.47, 0.070363, , 
46.50, 0.070728, , 
46.53, 0.071023, , 
46.56, 0.071318, , 
46.59, 0.071686, , 
46.62, 0.072031, , 
46.65, 0.072307, , 
46.68, 0.072691, , 
46.71, 0.073012, , 
46.74, 0.073386, , 
46.77, 0.073754, , 
46.80, 0.074122, , 
46.83, 0.074385, , 
46.86, 0.074632, , 
46.89, 0.075115, , 
46.92, 0.075441, , 
46.95, 0.075733, , 
46.98, 0.076063, , 
47.01, 0.076399, , 
47.04, 0.076678, , 
47.07, 0.076875, , 
47.10, 0.077107, , 
47.13, 0.077310, , 
47.16, 0.077611, , 
47.19, 0.077747, , 
47.22, 0.077915, , 
47.25, 0.078122, , 
47.28, 0.078198, , 
47.31, 0.078277, , 
47.34, 0.078306, , 
47.37, 0.078340, , 
47.40, 0.078350, , 
47.43, 0.078318, , 
47.46, 0.078318, , 
47.49, 0.078353, , 
47.52, 0.078321, , 
47.55, 0.078150, , 
47.58, 0.078023, , 
47.61, 0.077947, , 
47.64, 0.077887, , 
47.67, 0.077747, , 
47.70, 0.077598, , 
47.73, 0.077500, , 
47.76, 0.077332, , 
47.79, 0.077116, , 
47.82, 0.076980, , 
47.85, 0.076856, , 
47.88, 0.076704, , 
47.91, 0.076558, , 
47.94, 0.076456, , 
47.97, 0.076310, , 
47.98, 0.076256, 15, 0.585
48.00, 0.076117, , 
48.03, 0.076028, , 
48.06, 0.075939, , 
48.09, 0.075784, , 
48.12, 0.075530, , 
48.15, 0.075226, , 
48.18, 0.075111, , 
48.21, 0.074997, , 
48.24, 0.074747, , 
48.28, 0.074569, , 
48.30, 0.074414, , 
48.33, 0.074207, , 
48.36, 0.073938, , 
48.39, 0.073725, , 
48.42, 0.073516, , 
48.45, 0.073288, , 
48.48, 0.073113, , 
48.51, 0.072821, , 
48.54, 0.072523, , 
48.57, 0.072285, , 
48.60, 0.072028, , 
48.63, 0.071825, , 
48.66, 0.071721, , 
48.69, 0.071495, , 
48.72, 0.071258, , 
48.75, 0.071055, , 
48.78, 0.070874, , 
48.81, 0.070715, , 
48.84, 0.070480, , 
48.87, 0.070331, , 
48.90, 0.070166, , 
48.93, 0.069935, , 
48.96, 0.069602, , 
48.99, 0.069332, , 
49.02, 0.069199, , 
49.05, 0.068980, , 
49.08, 0.068755, , 
49.11, 0.068707, , 
49.14, 0.068596, , 
49.17, 0.068444, , 
49.20, 0.068235, , 
49.23, 0.068162, , 
49.26, 0.068063, , 
49.29, 0.067819, , 
49.32, 0.067699, , 
49.35, 0.067667, , 
49.38, 0.067588, , 
49.41, 0.067505, , 
49.44, 0.067470, , 
49.47, 0.067480, , 
49.51, 0.067458, , 
49.53, 0.067407, , 
49.56, 0.067426, , 
49.59, 0.067451, , 
49.62, 0.067451, , 
49.65, 0.067394, , 
49.68, 0.067378, , 
49.71, 0.067435, , 
49.74, 0.067613, , 
49.77, 0.067683, , 
49.80, 0.067743, , 
49.83, 0.067879, , 
49.86, 0.067914, , 
49.89, 0.067902, , 
49.92, 0.067895, , 
49.95, 0.067927, , 
49.98, 0.067930, , 
50.01, 0.067895, , 
50.04, 0.068032, , 
50.07, 0.068187, , 
50.10, 0.068320, , 
50.13, 0.068412, , 
50.16, 0.068580, , 
50.19, 0.068739, , 
50.22, 0.068787, , 
50.25, 0.068856, , 
50.28, 0.069088, , 
50.31, 0.069231, , 
50.34, 0.069323, , 
50.37, 0.069440, , 
50.40, 0.069633, , 
50.43, 0.069897, , 
50.46, 0.070074, , 
50.49, 0.070208, , 
50.52, 0.070366, , 
50.55, 0.070579, , 
50.58, 0.070721, , 
50.61, 0.070845, , 
50.64, 0.071074, , 
50.67, 0.071238, , 
50.70, 0.071381, , 
50.74, 0.071651, , 
50.76, 0.071873, , 
50.79, 0.072238, , 
50.82, 0.072482, , 
50.85, 0.072723, , 
50.88, 0.073015, , 
50.91, 0.073303, , 
50.94, 0.073475, , 
50.97, 0.073646, , 
51.00, 0.073957, , 
51.03, 0.074315, , 
51.06, 0.074544, , 
51.09, 0.074851, , 
51.12, 0.075216, , 
51.15, 0.075438, , 
51.18, 0.075679, 16, 0.585
51.18, 0.075717, , 
51.21, 0.076047, , 
51.24, 0.076459, , 
51.27, 0.076723, , 
51.30, 0.076923, , 
51.33, 0.077233, , 
51.36, 0.077465, , 
51.39, 0.077684, , 
51.42, 0.077839, , 
51.45, 0.078071, , 
51.48, 0.078385, , 
51.51, 0.078562, , 
51.54, 0.078658, , 
51.57, 0.078746, , 
51.60, 0.078848, , 
51.63, 0.078832, , 
51.66, 0.078880, , 
51.69, 0.079057, , 
51.72, 0.079152, , 
51.75, 0.079080, , 
51.78, 0.078949, , 
51.81, 0.078880, , 
51.84, 0.078918, , 
51.87, 0.078902, , 
51.90, 0.078845, , 
51.93, 0.078877, , 
51.96, 0.078883, , 
51.99, 0.078785, , 
52.02, 0.078629, , 
52.05, 0.078553, , 
52.08, 0.078499, , 
52.11, 0.078388, , 
52.14, 0.078201, , 
52.18, 0.078125, , 
52.20, 0.078036, , 
52.23, 0.077785, , 
52.26, 0.077630, , 
52.29, 0.077519, , 
52.32, 0.077322, , 
52.35, 0.077135, , 
52.38, 0.077024, , 
52.41, 0.076926, , 
52.44, 0.076742, , 
52.47, 0.076551, , 
52.50, 0.076469, , 
52.53, 0.076425, , 
52.56, 0.076291, , 
52.59, 0.076101, , 
52.62, 0.076000, , 
52.65, 0.075981, , 
52.68, 0.075904, , 
52.71, 0.075838, , 
52.74, 0.075708, , 
52.77, 0.075594, , 
52.80, 0.075502, , 
52.83, 0.075372, , 
52.86, 0.075295, , 
52.89, 0.075159, , 
52.92, 0.075007, , 
52.95, 0.074804, , 
52.98, 0.074604, , 
53.01, 0.074490, , 
53.04, 0.074255, , 
53.07, 0.074052, , 
53.10, 0.073941, , 
53.13, 0.073725, , 
53.16, 0.073564, , 
53.20, 0.073418, , 
53.22, 0.073303, , 
53.25, 0.073183, , 
53.28, 0.073024, , 
53.31, 0.072954, , 
53.34, 0.072932, , 
53.37, 0.072932, , 
53.41, 0.072866, , 
53.43, 0.072856, , 
53.46, 0.072878, , 
53.49, 0.072850, , 
53.52, 0.072809, , 
53.55, 0.072907, , 
53.58, 0.073081, , 
53.61, 0.073161, , 
53.64, 0.073265, , 
53.67, 0.073335, , 
53.70, 0.073481, , 
53.73, 0.073655, , 
53.76, 0.073738, , 
53.79, 0.073801, , 
53.82, 0.073827, , 
53.85, 0.073843, , 
53.88, 0.073865, , 
53.91, 0.074004, , 
53.94, 0.074207, , 
53.97, 0.074265, , 
54.00, 0.074280, , 
54.03, 0.074344, , 
54.06, 0.074448, , 
54.09, 0.074566, , 
54.12, 0.074642, , 
54.15, 0.074763, , 
54.18, 0.074889, , 
54.21, 0.074981, , 
54.24, 0.075169, , 
54.27, 0.075406, , 
54.30, 0.075625, , 
54.33, 0.075835, , 
54.36, 0.076009, , 
54.38, 0.076206, 17, 0.587
54.39, 0.076266, , 
54.43, 0.076425, , 
54.45, 0.076526, , 
54.48, 0.076761, , 
54.51, 0.077002, , 
54.54, 0.077214, , 
54.57, 0.077430, , 
54.60, 0.077747, , 
54.64, 0.078042, , 
54.66, 0.078176, , 
54.69, 0.078356, , 
54.72, 0.078528, , 
54.75, 0.078686, , 
54.78, 0.078848, , 
54.81, 0.079013, , 
54.84, 0.079241, , 
54.87, 0.079476, , 
54.90, 0.079654, , 
54.93, 0.079863, , 
54.96, 0.080098, , 
54.99, 0.080399, , 
55.02, 0.080551, , 
55.05, 0.080627, , 
55.08, 0.080837, , 
55.11, 0.080999, , 
55.14, 0.081192, , 
55.17, 0.081392, , 
55.20, 0.081595, , 
55.23, 0.081700, , 
55.26, 0.081712, , 
55.29, 0.081753, , 
55.32, 0.081861, , 
55.35, 0.081966, , 
55.38, 0.082033, , 
55.41, 0.082125, , 
55.44, 0.082239, , 
55.47, 0.082283, , 
55.50, 0.082267, , 
55.53, 0.082175, , 
55.56, 0.082096, , 
55.59, 0.081956, , 
55.62, 0.081792, , 
55.65, 0.081665, , 
55.68, 0.081573, , 
55.71, 0.081455, , 
55.74, 0.081373, , 
55.77, 0.081338, , 
55.80, 0.081351, , 
55.83, 0.081306, , 
55.86, 0.081300, , 
55.89, 0.081287, , 
55.92, 0.081335, , 
55.95, 0.081351, , 
55.98, 0.081249, , 
56.01, 0.081151, , 
56.04, 0.081049, , 
56.07, 0.080945, , 
56.10, 0.080894, , 
56.13, 0.080862, , 
56.16, 0.080903, , 
56.19, 0.080872, , 
56.22, 0.080849, , 
56.25, 0.080884, , 
56.29, 0.080884, , 
56.31, 0.080786, , 
56.34, 0.080678, , 
56.37, 0.080589, , 
56.40, 0.080491, , 
56.43, 0.080396, , 
56.46, 0.080361, , 
56.49, 0.080367, , 
56.52, 0.080393, , 
56.55, 0.080361, , 
56.58, 0.080329, , 
56.61, 0.080364, , 
56.64, 0.080393, , 
56.67, 0.080326, , 
56.71, 0.080307, , 
56.73, 0.080339, , 
56.76, 0.080342, , 
56.79, 0.080177, , 
56.82, 0.080034, , 
56.85, 0.079977, , 
56.88, 0.079901, , 
56.91, 0.079872, , 
56.94, 0.079876, , 
56.97, 0.079885, , 
57.00, 0.079860, , 
57.03, 0.079831, , 
57.06, 0.079879, , 
57.09, 0.080028, , 
57.12, 0.080117, , 
57.15, 0.080136, , 
57.18, 0.080266, , 
57.21, 0.080367, , 
57.24, 0.080323, , 
57.27, 0.080307, , 
57.30, 0.080355, , 
57.33, 0.080367, , 
57.36, 0.080339, , 
57.39, 0.080348, , 
57.42, 0.080501, , 
57.45, 0.080650, , 
57.48, 0.080719, , 
57.51, 0.080761, , 
57.54, 0.080815, , 
57.57, 0.080875, , 
57.58, 0.080903, 18, 0.585
57.60, 0.080986, , 
57.63, 0.081110, , 
57.66, 0.081281, , 
57.69, 0.081316, , 
57.73, 0.081303, , 
57.75, 0.081332, , 
57.78, 0.081382, , 
57.81, 0.081417, , 
57.84, 0.081468, , 
57.87, 0.081589, , 
57.90, 0.081741, , 
57.93, 0.081776, , 
57.96, 0.081776, , 
57.99, 0.081807, , 
58.02, 0.081864, , 
58.05, 0.081874, , 
58.08, 0.081836, , 
58.11, 0.081852, , 
58.14, 0.081877, , 
58.17, 0.081915, , 
58.20, 0.081849, , 
58.23, 0.081849, , 
58.26, 0.081899, , 
58.29, 0.081899, , 
58.32, 0.081893, , 
58.35, 0.081852, , 
58.38, 0.081839, , 
58.41, 0.081833, , 
58.44, 0.081814, , 
58.47, 0.081874, , 
58.50, 0.081839, , 
58.53, 0.081687, , 
58.56, 0.081516, , 
58.59, 0.081458, , 
58.62, 0.081420, , 
58.65, 0.081401, , 
58.68, 0.081259, , 
58.71, 0.081151, , 
58.74, 0.081018, , 
58.77, 0.080919, , 
58.80, 0.080932, , 
58.83, 0.080935, , 
58.86, 0.080827, , 
58.89, 0.080669, , 
58.92, 0.080523, , 
58.95, 0.080466, , 
58.98, 0.080393, , 
59.01, 0.080259, , 
59.04, 0.080110, , 
59.07, 0.080050, , 
59.10, 0.079990, , 
59.13, 0.079914, , 
59.17, 0.079841, , 
59.19, 0.079781, , 
59.22, 0.079600, , 
59.25, 0.079470, , 
59.28, 0.079368, , 
59.31, 0.079244, , 
59.34, 0.079108, , 
59.37, 0.079007, , 
59.40, 0.078946, , 
59.43, 0.078946, , 
59.46, 0.078911, , 
59.49, 0.078857, , 
59.52, 0.078724, , 
59.55, 0.078591, , 
59.58, 0.078537, , 
59.61, 0.078439, , 
59.64, 0.078410, , 
59.67, 0.078407, , 
59.70, 0.078375, , 
59.73, 0.078366, , 
59.76, 0.078363, , 
59.79, 0.078401, , 
59.82, 0.078401, , 
59.85, 0.078369, , 
59.88, 0.078385, , 
59.91, 0.078363, , 
59.94, 0.078214, , 
59.97, 0.078064, , 
60.00, 0.078026, , 
60.03, 0.077953, , 
60.06, 0.077868, , 
60.09, 0.077890, , 
60.12, 0.077900, , 
60.15, 0.077887, , 
60.18, 0.077852, , 
60.21, 0.077842, , 
60.24, 0.077957, , 
60.27, 0.078049, , 
60.30, 0.078112, , 
60.33, 0.078141, , 
60.36, 0.078099, , 
60.39, 0.078017, , 
60.42, 0.077928, , 
60.45, 0.077890, , 
60.48, 0.077922, , 
60.51, 0.077896, , 
60.54, 0.077865, , 
60.57, 0.077900, , 
60.60, 0.077906, , 
60.63, 0.077884, , 
60.66, 0.077868, , 
60.69, 0.077877, , 
60.72, 0.077947, , 
60.75, 0.077887, , 
60.78, 0.077716, 19, 0.585
60.78, 0.077703, , 
60.81, 0.077614, , 
60.84, 0.077547, , 
60.87, 0.077452, , 
60.90, 0.077395, , 
60.93, 0.077411, , 
60.96, 0.077392, , 
60.99, 0.077303, , 
61.02, 0.077154, , 
61.05, 0.077081, , 
61.08, 0.076986, , 
61.11, 0.076891, , 
61.14, 0.076853, , 
61.17, 0.076796, , 
61.20, 0.076662, , 
61.23, 0.076517, , 
61.26, 0.076437, , 
61.29, 0.076418, , 
61.32, 0.076323, , 
61.35, 0.076184, , 
61.38, 0.076060, , 
61.42, 0.076003, , 
61.44, 0.075949, , 
61.47, 0.075873, , 
61.50, 0.075889, , 
61.53, 0.075822, , 
61.56, 0.075651, , 
61.59, 0.075524, , 
61.62, 0.075435, , 
61.65, 0.075432, , 
61.68, 0.075419, , 
61.71, 0.075346, , 
61.74, 0.075295, , 
61.77, 0.075222, , 
61.80, 0.075105, , 
61.83, 0.074985, , 
61.86, 0.074918, , 
61.89, 0.074918, , 
61.92, 0.074874, , 
61.95, 0.074823, , 
61.98, 0.074791, , 
62.01, 0.074671, , 
62.04, 0.074537, , 
62.07, 0.074395, , 
62.10, 0.074388, , 
62.13, 0.074426, , 
62.16, 0.074356, , 
62.19, 0.074328, , 
62.22, 0.074347, , 
62.25, 0.074318, , 
62.28, 0.074306, , 
62.31, 0.074303, , 
62.34, 0.074268, , 
62.37, 0.074182, , 
62.40, 0.074020, , 
62.43, 0.073931, , 
62.46, 0.073881, , 
62.49, 0.073900, , 
62.52, 0.073871, , 
62.55, 0.073817, , 
62.58, 0.073824, , 
62.61, 0.073754, , 
62.65, 0.073592, , 
62.67, 0.073452, , 
62.70, 0.073418, , 
62.73, 0.073411, , 
62.76, 0.073392, , 
62.79, 0.073297, , 
62.82, 0.073208, , 
62.86, 0.073085, , 
62.88, 0.072986, , 
62.91, 0.072878, , 
62.94, 0.072799, , 
62.97, 0.072628, , 
63.00, 0.072476, , 
63.03, 0.072393, , 
63.06, 0.072422, , 
63.09, 0.072380, , 
63.12, 0.072190, , 
63.15, 0.072054, , 
63.18, 0.071993, , 
63.21, 0.071943, , 
63.24, 0.071876, , 
63.27, 0.071892, , 
63.30, 0.071854, , 
63.33, 0.071651, , 
63.36, 0.071448, , 
63.39, 0.071432, , 
63.42, 0.071403, , 
63.45, 0.071254, , 
63.48, 0.071080, , 
63.51, 0.070966, , 
63.54, 0.070950, , 
63.57, 0.070864, , 
63.60, 0.070747, , 
63.63, 0.070604, , 
63.66, 0.070541, , 
63.69, 0.070474, , 
63.72, 0.070392, , 
63.75, 0.070334, , 
63.78, 0.070233, , 
63.81, 0.070059, , 
63.84, 0.069986, , 
63.87, 0.069967, , 
63.90, 0.069982, , 
63.93, 0.069906, , 
63.96, 0.069871, , 
63.99, 0.069843, 20, 0.587
63.99, 0.069830, , 
64.02, 0.069706, , 
64.05, 0.069589, , 
64.09, 0.069513, , 
64.11, 0.069535, , 
64.14, 0.069516, , 
64.17, 0.069380, , 
64.20, 0.069262, , 
64.23, 0.069186, , 
64.26, 0.069075, , 
64.29, 0.068996, , 
64.32, 0.068936, , 
64.35, 0.068990, , 
64.38, 0.069012, , 
64.41, 0.068948, , 
64.44, 0.068840, , 
64.47, 0.068764, , 
64.50, 0.068663, , 
64.53, 0.068549, , 
64.56, 0.068549, , 
64.59, 0.068533, , 
64.62, 0.068507, , 
64.65, 0.068504, , 
64.68, 0.068574, , 
64.71, 0.068542, , 
64.74, 0.068501, , 
64.77, 0.068469, , 
64.80, 0.068387, , 
64.83, 0.068336, , 
64.86, 0.068174, , 
64.89, 0.068076, , 
64.92, 0.068079, , 
64.95, 0.068048, , 
64.98, 0.067898, , 
65.01, 0.067683, , 
65.04, 0.067638, , 
65.07, 0.067622, , 
65.10, 0.067429, , 
65.13, 0.067267, , 
65.16, 0.067163, , 
65.19, 0.067099, , 
65.22, 0.066963, , 
65.25, 0.066798, , 
65.28, 0.066699, , 
65.31, 0.066658, , 
65.34, 0.066573, , 
65.37, 0.066515, , 
65.40, 0.066446, , 
65.43, 0.066236, , 
65.46, 0.066109, , 
65.49, 0.066103, , 
65.52, 0.066094, , 
65.55, 0.066062, , 
65.58, 0.065995, , 
65.61, 0.065970, , 
65.64, 0.065875, , 
65.67, 0.065691, , 
65.70, 0.065580, , 
65.73, 0.065535, , 
65.76, 0.065542, , 
65.79, 0.065500, , 
65.82, 0.065481, , 
65.85, 0.065497, , 
65.88, 0.065491, , 
65.91, 0.065316, , 
65.94, 0.065202, , 
65.97, 0.065136, , 
66.00, 0.065088, , 
66.03, 0.065041, , 
66.06, 0.064841, , 
66.09, 0.064717, , 
66.12, 0.064612, , 
66.15, 0.064523, , 
66.18, 0.064397, , 
66.21, 0.064257, , 
66.24, 0.064187, , 
66.27, 0.064095, , 
66.30, 0.063953, , 
66.33, 0.063848, , 
66.36, 0.063746, , 
66.39, 0.063566, , 
66.42, 0.063480, , 
66.45, 0.063512, , 
66.48, 0.063375, , 
66.51, 0.063163, , 
66.55, 0.062982, , 
66.57, 0.062846, , 
66.60, 0.062690, , 
66.63, 0.062554, , 
66.66, 0.062446, , 
66.69, 0.062370, , 
66.72, 0.062192, , 
66.75, 0.062072, , 
66.78, 0.061989, , 
66.81, 0.061894, , 
66.84, 0.061767, , 
66.87, 0.061621, , 
66.90, 0.061583, , 
66.93, 0.061586, , 
66.96, 0.061536, , 
66.99, 0.061428, , 
67.02, 0.061304, , 
67.05, 0.061196, , 
67.08, 0.061091, , 
67.11, 0.060984, , 
67.14, 0.060984, , 
67.17, 0.061019, , 
67.18, 0.061003, 21, 0.585
67.20, 0.060942, , 
67.23, 0.060743, , 
67.26, 0.060644, , 
67.29, 0.060635, , 
67.32, 0.060606, , 
67.35, 0.060527, , 
67.38, 0.060489, , 
67.41, 0.060524, , 
67.44, 0.060511, , 
67.47, 0.060463, , 
67.50, 0.060448, , 
67.53, 0.060473, , 
67.56, 0.060559, , 
67.59, 0.060689, , 
67.62, 0.060793, , 
67.65, 0.060927, , 
67.68, 0.060923, , 
67.71, 0.060974, , 
67.74, 0.061012, , 
67.77, 0.061069, , 
67.80, 0.061133, , 
67.83, 0.061218, , 
67.86, 0.061386, , 
67.89, 0.061463, , 
67.92, 0.061367, , 
67.95, 0.061190, , 
67.99, 0.061126, , 
68.01, 0.061091, , 
68.04, 0.061015, , 
68.07, 0.060946, , 
68.10, 0.060879, , 
68.13, 0.060733, , 
68.16, 0.060590, , 
68.19, 0.060540, , 
68.22, 0.060448, , 
68.25, 0.060276, , 
68.28, 0.060127, , 
68.31, 0.060016, , 
68.34, 0.059965, , 
68.37, 0.059829, , 
68.40, 0.059639, , 
68.43, 0.059588, , 
68.46, 0.059585, , 
68.49, 0.059509, , 
68.52, 0.059369, , 
68.55, 0.059245, , 
68.58, 0.059179, , 
68.61, 0.059084, , 
68.64, 0.058916, , 
68.67, 0.058833, , 
68.70, 0.058684, , 
68.73, 0.058563, , 
68.76, 0.058456, , 
68.79, 0.058357, , 
68.82, 0.058243, , 
68.85, 0.058110, , 
68.88, 0.058031, , 
68.91, 0.057916, , 
68.94, 0.057799, , 
68.97, 0.057656, , 
69.01, 0.057577, , 
69.03, 0.057580, , 
69.06, 0.057574, , 
69.09, 0.057463, , 
69.12, 0.057301, , 
69.15, 0.057193, , 
69.18, 0.057133, , 
69.21, 0.057063, , 
69.24, 0.057038, , 
69.27, 0.057041, , 
69.30, 0.056949, , 
69.33, 0.056813, , 
69.36, 0.056619, , 
69.39, 0.056610, , 
69.42, 0.056581, , 
69.45, 0.056533, , 
69.48, 0.056483, , 
69.51, 0.056353, , 
69.54, 0.056229, , 
69.57, 0.056096, , 
69.60, 0.055909, , 
69.63, 0.055813, , 
69.66, 0.055667, , 
69.69, 0.055563, , 
69.72, 0.055537, , 
69.75, 0.055531, , 
69.78, 0.055334, , 
69.81, 0.055166, , 
69.84, 0.055125, , 
69.87, 0.055112, , 
69.90, 0.055039, , 
69.93, 0.054843, , 
69.96, 0.054700, , 
69.99, 0.054627, , 
70.02, 0.054589, , 
70.05, 0.054513, , 
70.08, 0.054519, , 
70.11, 0.054570, , 
70.14, 0.054519, , 
70.17, 0.054380, , 
70.20, 0.054281, , 
70.23, 0.054199, , 
70.26, 0.054066, , 
70.29, 0.054015, , 
70.32, 0.054031, , 
70.35, 0.054018, , 
70.38, 0.053967, 22, 0.585
70.39, 0.053958, , 
70.41, 0.053859, , 
70.44, 0.053796, , 
70.47, 0.053717, , 
70.50, 0.053583, , 
70.53, 0.053482, , 
70.56, 0.053361, , 
70.59, 0.053212, , 
70.62, 0.053076, , 
70.65, 0.053013, , 
70.68, 0.053022, , 
70.71, 0.053000, , 
70.74, 0.052898, , 
70.77, 0.052902, , 
70.80, 0.052781, , 
70.83, 0.052651, , 
70.86, 0.052553, , 
70.89, 0.052534, , 
70.92, 0.052575, , 
70.95, 0.052553, , 
70.98, 0.052499, , 
71.01, 0.052499, , 
71.04, 0.052461, , 
71.07, 0.052350, , 
71.10, 0.052162, , 
71.13, 0.052128, , 
71.16, 0.052128, , 
71.19, 0.052090, , 
71.22, 0.052070, , 
71.25, 0.051909, , 
71.28, 0.051775, , 
71.31, 0.051620, , 
71.34, 0.051541, , 
71.37, 0.051544, , 
71.40, 0.051579, , 
71.43, 0.051569, , 
71.46, 0.051566, , 
71.49, 0.051579, , 
71.52, 0.051544, , 
71.55, 0.051366, , 
71.58, 0.051230, , 
71.61, 0.051154, , 
71.64, 0.051125, , 
71.67, 0.051122, , 
71.70, 0.051113, , 
71.73, 0.051119, , 
71.76, 0.051090, , 
71.79, 0.051078, , 
71.82, 0.051033, , 
71.85, 0.050970, , 
71.88, 0.050871, , 
71.91, 0.050713, , 
71.94, 0.050583, , 
71.97, 0.050548, , 
72.00, 0.050554, , 
72.03, 0.050513, , 
72.06, 0.050507, , 
72.09, 0.050526, , 
72.12, 0.050443, , 
72.15, 0.050282, , 
72.18, 0.050174, , 
72.21, 0.050120, , 
72.24, 0.050053, , 
72.27, 0.050015, , 
72.30, 0.050034, , 
72.33, 0.050063, , 
72.36, 0.050040, , 
72.39, 0.050028, , 
72.42, 0.050037, , 
72.45, 0.049939, , 
72.48, 0.049749, , 
72.51, 0.049622, , 
72.54, 0.049581, , 
72.57, 0.049571, , 
72.60, 0.049539, , 
72.63, 0.049498, , 
72.66, 0.049495, , 
72.69, 0.049558, , 
72.72, 0.049546, , 
72.75, 0.049520, , 
72.78, 0.049552, , 
72.81, 0.049603, , 
72.84, 0.049450, , 
72.87, 0.049266, , 
72.91, 0.049197, , 
72.93, 0.049162, , 
72.96, 0.049073, , 
72.99, 0.049041, , 
73.02, 0.049060, , 
73.05, 0.049051, , 
73.08, 0.049044, , 
73.11, 0.049041, , 
73.14, 0.049114, , 
73.17, 0.049102, , 
73.20, 0.049029, , 
73.23, 0.048914, , 
73.26, 0.048845, , 
73.29, 0.048737, , 
73.32, 0.048638, , 
73.35, 0.048553, , 
73.38, 0.048569, , 
73.41, 0.048521, , 
73.44, 0.048366, , 
73.47, 0.048248, , 
73.50, 0.048182, , 
73.53, 0.048156, , 
73.56, 0.048106, , 
73.58, 0.048067, 23, 0.585
73.59, 0.048109, , 
73.62, 0.048172, , 
73.65, 0.048153, , 
73.68, 0.048118, , 
73.71, 0.048115, , 
73.74, 0.048131, , 
73.77, 0.048109, , 
73.80, 0.048090, , 
73.83, 0.048150, , 
73.86, 0.048305, , 
73.89, 0.048435, , 
73.92, 0.048458, , 
73.95, 0.048518, , 
73.98, 0.048550, , 
74.01, 0.048572, , 
74.04, 0.048562, , 
74.07, 0.048569, , 
74.10, 0.048594, , 
74.13, 0.048562, , 
74.16, 0.048521, , 
74.19, 0.048543, , 
74.22, 0.048575, , 
74.25, 0.048537, , 
74.28, 0.048540, , 
74.31, 0.048534, , 
74.35, 0.048559, , 
74.37, 0.048480, , 
74.40, 0.048312, , 
74.43, 0.048271, , 
74.46, 0.048185, , 
74.49, 0.048106, , 
74.52, 0.048064, , 
74.55, 0.048071, , 
74.58, 0.048144, , 
74.61, 0.048093, , 
74.64, 0.047925, , 
74.67, 0.047814, , 
74.70, 0.047690, , 
74.73, 0.047585, , 
74.76, 0.047579, , 
74.79, 0.047608, , 
74.82, 0.047570, , 
74.85, 0.047566, , 
74.88, 0.047554, , 
74.91, 0.047579, , 
74.94, 0.047614, , 
74.97, 0.047570, , 
75.00, 0.047573, , 
75.03, 0.047623, , 
75.06, 0.047598, , 
75.09, 0.047547, , 
75.12, 0.047516, , 
75.15, 0.047579, , 
75.18, 0.047598, , 
75.21, 0.047550, , 
75.24, 0.047608, , 
75.27, 0.047592, , 
75.30, 0.047585, , 
75.33, 0.047535, , 
75.36, 0.047541, , 
75.39, 0.047484, , 
75.42, 0.047395, , 
75.45, 0.047202, , 
75.48, 0.047157, , 
75.51, 0.047151, , 
75.54, 0.047091, , 
75.58, 0.047046, , 
75.60, 0.047046, , 
75.63, 0.047030, , 
75.66, 0.046897, , 
75.69, 0.046735, , 
75.72, 0.046707, , 
75.75, 0.046694, , 
75.78, 0.046615, , 
75.81, 0.046526, , 
75.84, 0.046558, , 
75.87, 0.046561, , 
75.90, 0.046605, , 
75.93, 0.046548, , 
75.96, 0.046551, , 
75.99, 0.046564, , 
76.02, 0.046532, , 
76.05, 0.046443, , 
76.08, 0.046332, , 
76.11, 0.046237, , 
76.14, 0.046107, , 
76.17, 0.046050, , 
76.20, 0.046082, , 
76.23, 0.046110, , 
76.26, 0.046076, , 
76.29, 0.046044, , 
76.32, 0.045961, , 
76.35, 0.045819, , 
76.38, 0.045673, , 
76.41, 0.045606, , 
76.44, 0.045581, , 
76.47, 0.045495, , 
76.50, 0.045305, , 
76.53, 0.045178, , 
76.56, 0.045118, , 
76.59, 0.045048, , 
76.62, 0.045010, , 
76.65, 0.044943, , 
76.68, 0.044877, , 
76.71, 0.044842, , 
76.74, 0.044658, , 
76.77, 0.044572, , 
76.78, 0.044569, 24, 0.585
76.80, 0.044553, , 
76.83, 0.044483, , 
76.86, 0.044344, , 
76.89, 0.044264, , 
76.92, 0.044223, , 
76.95, 0.044122, , 
76.98, 0.044014, , 
77.01, 0.043973, , 
77.04, 0.044058, , 
77.07, 0.044058, , 
77.10, 0.043919, , 
77.13, 0.043738, , 
77.16, 0.043643, , 
77.19, 0.043560, , 
77.22, 0.043532, , 
77.25, 0.043503, , 
77.28, 0.043547, , 
77.31, 0.043509, , 
77.34, 0.043395, , 
77.37, 0.043325, , 
77.40, 0.043227, , 
77.43, 0.043097, , 
77.46, 0.042989, , 
77.49, 0.042958, , 
77.52, 0.042897, , 
77.55, 0.042755, , 
77.58, 0.042596, , 
77.61, 0.042517, , 
77.64, 0.042488, , 
77.67, 0.042409, , 
77.70, 0.042257, , 
77.73, 0.042123, , 
77.76, 0.042057, , 
77.79, 0.041984, , 
77.82, 0.041962, , 
77.85, 0.041962, , 
77.88, 0.041993, , 
77.91, 0.041860, , 
77.94, 0.041689, , 
77.97, 0.041597, , 
78.00, 0.041540, , 
78.04, 0.041438, , 
78.06, 0.041387, , 
78.09, 0.041448, , 
78.12, 0.041429, , 
78.15, 0.041292, , 
78.18, 0.041127, , 
78.21, 0.041045, , 
78.24, 0.041010, , 
78.27, 0.040937, , 
78.30, 0.040826, , 
78.33, 0.040734, , 
78.36, 0.040582, , 
78.39, 0.040449, , 
78.42, 0.040410, , 
78.45, 0.040410, , 
78.48, 0.040306, , 
78.51, 0.040141, , 
78.54, 0.039992, , 
78.57, 0.039973, , 
78.60, 0.039909, , 
78.63, 0.039732, , 
78.66, 0.039624, , 
78.69, 0.039573, , 
78.72, 0.039529, , 
78.75, 0.039421, , 
78.78, 0.039424, , 
78.81, 0.039437, , 
78.84, 0.039348, , 
78.87, 0.039259, , 
78.90, 0.039097, , 
78.93, 0.039018, , 
78.96, 0.038970, , 
78.99, 0.038885, , 
79.02, 0.038878, , 
79.05, 0.038878, , 
79.08, 0.038834, , 
79.11, 0.038786, , 
79.14, 0.038675, , 
79.17, 0.038593, , 
79.20, 0.038472, , 
79.23, 0.038396, , 
79.26, 0.038393, , 
79.29, 0.038390, , 
79.32, 0.038339, , 
79.35, 0.038238, , 
79.38, 0.038098, , 
79.41, 0.038028, , 
79.44, 0.037879, , 
79.47, 0.037816, , 
79.50, 0.037828, , 
79.53, 0.037857, , 
79.56, 0.037803, , 
79.59, 0.037813, , 
79.62, 0.037867, , 
79.65, 0.037882, , 
79.68, 0.037819, , 
79.71, 0.037771, , 
79.74, 0.037654, , 
79.77, 0.037530, , 
79.80, 0.037384, , 
79.83, 0.037292, , 
79.86, 0.037318, , 
79.89, 0.037302, , 
79.92, 0.037261, , 
79.95, 0.037185, , 
79.98, 0.037089, 25, 0.586
79.98, 0.037074, , 
80.01, 0.036959, , 
80.04, 0.036845, , 
80.07, 0.036817, , 
80.10, 0.036807, , 
80.13, 0.036798, , 
80.16, 0.036779, , 
80.19, 0.036791, , 
80.22, 0.036839, , 
80.25, 0.036833, , 
80.28, 0.036779, , 
80.31, 0.036766, , 
80.34, 0.036788, , 
80.37, 0.036766, , 
80.40, 0.036680, , 
80.43, 0.036531, , 
80.46, 0.036487, , 
80.50, 0.036363, , 
80.52, 0.036271, , 
80.55, 0.036265, , 
80.58, 0.036277, , 
80.61, 0.036211, , 
80.64, 0.036068, , 
80.67, 0.035970, , 
80.70, 0.035935, , 
80.73, 0.035868, , 
80.76, 0.035789, , 
80.79, 0.035716, , 
80.82, 0.035599, , 
80.85, 0.035431, , 
80.88, 0.035300, , 
80.91, 0.035294, , 
80.94, 0.035228, , 
80.97, 0.035180, , 
81.00, 0.035205, , 
81.03, 0.035221, , 
81.06, 0.035256, , 
81.09, 0.035151, , 
81.12, 0.034955, , 
81.15, 0.034856, , 
81.18, 0.034796, , 
81.21, 0.034758, , 
81.24, 0.034752, , 
81.27, 0.034742, , 
81.30, 0.034755, , 
81.33, 0.034755, , 
81.36, 0.034764, , 
81.39, 0.034780, , 
81.42, 0.034755, , 
81.45, 0.034739, , 
81.48, 0.034736, , 
81.52, 0.034758, , 
81.54, 0.034755, , 
81.57, 0.034720, , 
81.60, 0.034723, , 
81.63, 0.034758, , 
81.66, 0.034752, , 
81.69, 0.034710, , 
81.72, 0.034704, , 
81.75, 0.034717, , 
81.78, 0.034707, , 
81.81, 0.034695, , 
81.84, 0.034698, , 
81.87, 0.034726, , 
81.90, 0.034723, , 
81.93, 0.034714, , 
81.96, 0.034666, , 
81.99, 0.034612, , 
82.02, 0.034447, , 
82.05, 0.034298, , 
82.08, 0.034257, , 
82.11, 0.034257, , 
82.14, 0.034228, , 
82.17, 0.034216, , 
82.20, 0.034219, , 
82.23, 0.034225, , 
82.26, 0.034197, , 
82.29, 0.034219, , 
82.32, 0.034292, , 
82.35, 0.034324, , 
82.38, 0.034238, , 
82.41, 0.034225, , 
82.44, 0.034225, , 
82.47, 0.034232, , 
82.50, 0.034266, , 
82.53, 0.034228, , 
82.56, 0.034228, , 
82.59, 0.034190, , 
82.62, 0.034016, , 
82.65, 0.033813, , 
82.68, 0.033753, , 
82.71, 0.033759, , 
82.74, 0.033721, , 
82.77, 0.033661, , 
82.80, 0.033670, , 
82.83, 0.033689, , 
82.86, 0.033683, , 
82.89, 0.033651, , 
82.92, 0.033638, , 
82.95, 0.033689, , 
82.98, 0.033651, , 
83.01, 0.033619, , 
83.04, 0.033670, , 
83.07, 0.033680, , 
83.10, 0.033651, , 
83.13, 0.033670, , 
83.16, 0.033708, , 
83.17, 0.033692, 26, 0.585
83.19, 0.033734, , 
83.22, 0.033718, , 
83.25, 0.033623, , 
83.29, 0.033499, , 
83.31, 0.033362, , 
83.34, 0.033236, , 
83.37, 0.033217, , 
83.40, 0.033207, , 
83.43, 0.033188, , 
83.46, 0.033137, , 
83.49, 0.033128, , 
83.52, 0.033147, , 
83.55, 0.033144, , 
83.58, 0.033086, , 
83.61, 0.033118, , 
83.64, 0.033197, , 
83.67, 0.033197, , 
83.70, 0.033150, , 
83.73, 0.033156, , 
83.76, 0.033201, , 
83.79, 0.033229, , 
83.82, 0.033204, , 
83.85, 0.033163, , 
83.88, 0.033204, , 
83.91, 0.033197, , 
83.94, 0.033169, , 
83.97, 0.033188, , 
84.00, 0.033105, , 
84.03, 0.032947, , 
84.06, 0.032788, , 
84.09, 0.032757, , 
84.12, 0.032750, , 
84.15, 0.032722, , 
84.18, 0.032706, , 
84.21, 0.032725, , 
84.24, 0.032744, , 
84.27, 0.032728, , 
84.31, 0.032699, , 
84.33, 0.032785, , 
84.36, 0.032915, , 
84.39, 0.033026, , 
84.42, 0.033061, , 
84.45, 0.033109, , 
84.48, 0.033172, , 
84.52, 0.033166, , 
84.54, 0.033175, , 
84.57, 0.033188, , 
84.60, 0.033188, , 
84.63, 0.033178, , 
84.66, 0.033175, , 
84.69, 0.033197, , 
84.72, 0.033232, , 
84.75, 0.033207, , 
84.78, 0.033131, , 
84.81, 0.033099, , 
84.84, 0.032941, , 
84.87, 0.032801, , 
84.90, 0.032706, , 
84.93, 0.032738, , 
84.96, 0.032757, , 
84.99, 0.032722, , 
85.02, 0.032693, , 
85.05, 0.032731, , 
85.08, 0.032833, , 
85.11, 0.032909, , 
85.14, 0.033026, , 
85.17, 0.033128, , 
85.20, 0.033150, , 
85.23, 0.033166, , 
85.26, 0.033175, , 
85.29, 0.033220, , 
85.32, 0.033229, , 
85.35, 0.033255, , 
85.38, 0.033397, , 
85.41, 0.033613, , 
85.44, 0.033711, , 
85.47, 0.033708, , 
85.50, 0.033730, , 
85.54, 0.033749, , 
85.56, 0.033746, , 
85.59, 0.033711, , 
85.62, 0.033689, , 
85.65, 0.033727, , 
85.68, 0.033711, , 
85.71, 0.033670, , 
85.74, 0.033683, , 
85.77, 0.033734, , 
85.80, 0.033737, , 
85.83, 0.033708, , 
85.86, 0.033708, , 
85.89, 0.033711, , 
85.92, 0.033702, , 
85.95, 0.033689, , 
85.98, 0.033689, , 
86.01, 0.033695, , 
86.04, 0.033667, , 
86.07, 0.033670, , 
86.10, 0.033699, , 
86.13, 0.033718, , 
86.16, 0.033695, , 
86.19, 0.033692, , 
86.22, 0.033711, , 
86.25, 0.033708, , 
86.28, 0.033692, , 
86.31, 0.033683, , 
86.35, 0.033721, , 
86.37, 0.033730, , 
86.39, 0.033711, 27, 0.588
86.40, 0.033680, , 
86.43, 0.033664, , 
86.46, 0.033721, , 
86.49, 0.033765, , 
86.52, 0.033734, , 
86.55, 0.033711, , 
86.58, 0.033699, , 
86.61, 0.033772, , 
86.64, 0.033743, , 
86.67, 0.033702, , 
86.70, 0.033727, , 
86.73, 0.033721, , 
86.77, 0.033664, , 
86.79, 0.033661, , 
86.82, 0.033695, , 
86.85, 0.033718, , 
86.88, 0.033711, , 
86.91, 0.033680, , 
86.94, 0.033708, , 
86.97, 0.033724, , 
87.00, 0.033718, , 
87.03, 0.033695, , 
87.06, 0.033740, , 
87.09, 0.033714, , 
87.12, 0.033718, , 
87.15, 0.033724, , 
87.18, 0.033680, , 
87.21, 0.033642, , 
87.24, 0.033657, , 
87.27, 0.033680, , 
87.30, 0.033721, , 
87.33, 0.033695, , 
87.36, 0.033695, , 
87.39, 0.033730, , 
87.42, 0.033721, , 
87.45, 0.033775, , 
87.48, 0.033724, , 
87.51, 0.033759, , 
87.54, 0.033727, , 
87.58, 0.033708, , 
87.60, 0.033673, , 
87.63, 0.033686, , 
87.66, 0.033756, , 
87.69, 0.033702, , 
87.72, 0.033727, , 
87.75, 0.033889, , 
87.79, 0.034060, , 
87.81, 0.034114, , 
87.84, 0.034181, , 
87.87, 0.034241, , 
87.90, 0.034285, , 
87.93, 0.034260, , 
87.96, 0.034235, , 
87.99, 0.034260, , 
88.02, 0.034209, , 
88.05, 0.034184, , 
88.08, 0.034193, , 
88.11, 0.034238, , 
88.14, 0.034292, , 
88.17, 0.034254, , 
88.20, 0.034241, , 
88.23, 0.034273, , 
88.26, 0.034368, , 
88.29, 0.034463, , 
88.32, 0.034565, , 
88.35, 0.034872, , 
88.38, 0.038187, , 
88.41, 0.046206, , 
88.44, 0.064010, , 
88.47, 0.080910, , 
88.50, 0.095418, , 
88.53, 0.107110, , 
88.56, 0.112994, , 
88.59, 0.116705, , 
88.62, 0.118186, , 
88.65, 0.119407, , 
88.68, 0.120717, , 
88.71, 0.121885, , 
88.74, 0.123179, , 
88.77, 0.124251, , 
88.80, 0.125387, , 
88.83, 0.126551, , 
88.86, 0.127750, , 
88.89, 0.128045, , 
88.92, 0.123220, , 
88.95, 0.111443, , 
88.98, 0.093118, , 
89.02, 0.078382, , 
89.04, 0.067448, , 
89.07, 0.060873, , 
89.10, 0.057618, , 
89.13, 0.056422, , 
89.16, 0.056505, , 
89.19, 0.056876, , 
89.22, 0.057057, , 
89.25, 0.057215, , 
89.28, 0.057339, , 
89.31, 0.057333, , 
89.34, 0.057136, , 
89.37, 0.056984, , 
89.40, 0.056987, , 
89.43, 0.057041, , 
89.46, 0.057120, , 
89.49, 0.057288, , 
89.52, 0.057469, , 
89.55, 0.057571, , 
89.58, 0.057761, , 
89.61, 0.057866, , 
89.64, 0.057958, , 
89.67, 0.058018, , 
89.70, 0.058037, , 
89.73, 0.057951, , 
89.76, 0.057891, , 
89.79, 0.057913, , 
89.82, 0.057913, , 
89.85, 0.057894, , 
89.88, 0.057954, , 
89.91, 0.057904, , 
89.94, 0.057691, , 
89.97, 0.057482, , 
90.00, 0.057250, , 
90.03, 0.056870, , 
90.06, 0.056540, , 
90.09, 0.056016, , 
90.12, 0.055683, , 
90.15, 0.055401, , 
90.18, 0.054966, , 
90.21, 0.054668, , 
90.25, 0.054361, , 
90.27, 0.054154, , 
90.30, 0.053818, , 
90.33, 0.053530, , 
90.36, 0.053511, , 
90.39, 0.053492, , 
90.42, 0.053441, , 
90.45, 0.053419, , 
90.48, 0.053361, , 
90.51, 0.053308, , 
90.54, 0.053444, , 
90.57, 0.053707, , 
90.60, 0.054015, , 
90.63, 0.054180, , 
90.66, 0.054199, , 
90.69, 0.054224, , 
90.72, 0.054237, , 
90.75, 0.054272, , 
90.78, 0.054316, , 
90.81, 0.054418, , 
90.84, 0.054627, , 
90.87, 0.054814, , 
90.90, 0.055027, , 
90.93, 0.055188, , 
90.96, 0.055287, , 
90.99, 0.055369, , 
91.02, 0.055430, , 
91.05, 0.055433, , 
91.08, 0.055312, , 
91.11, 0.055163, , 
91.14, 0.055062, , 
91.17, 0.055036, , 
91.20, 0.055055, , 
91.23, 0.055100, , 
91.26, 0.055265, , 
91.29, 0.055455, , 
91.32, 0.055550, , 
91.35, 0.055420, , 
91.38, 0.055055, , 
91.41, 0.054722, , 
91.44, 0.054519, , 
91.48, 0.054472, , 
91.50, 0.054415, , 
91.53, 0.054484, , 
91.56, 0.054554, , 
91.59, 0.054541, , 
91.62, 0.054510, , 
91.65, 0.054449, , 
91.69, 0.054313, , 
91.71, 0.054275, , 
91.74, 0.054304, , 
91.77, 0.054259, , 
91.80, 0.054072, , 
91.83, 0.053812, , 
91.86, 0.053695, , 
91.89, 0.053856, , 
91.92, 0.053948, , 
91.95, 0.054177, , 
91.98, 0.054288, , 
92.01, 0.054234, , 
92.04, 0.054059, , 
92.07, 0.054018, , 
92.10, 0.053999, , 
92.13, 0.054151, , 
92.16, 0.054399, , 
92.19, 0.054767, , 
92.22, 0.054973, , 
92.25, 0.055268, , 
92.28, 0.055357, , 
92.31, 0.055414, , 
92.34, 0.055629, , 
92.37, 0.055747, , 
92.40, 0.056007, , 
92.43, 0.056108, , 
92.46, 0.056178, , 
92.49, 0.056077, , 
92.52, 0.056032, , 
92.55, 0.055931, , 
92.58, 0.055921, , 
92.61, 0.055848, , 
92.64, 0.055721, , 
92.67, 0.055620, , 
92.70, 0.055376, , 
92.73, 0.055001, , 
92.76, 0.054618, , 
92.79, 0.054446, , 
92.82, 0.054564, , 
92.85, 0.054716, , 
92.88, 0.054865, , 
92.91, 0.054906, , 
92.94, 0.055008, , 
92.97, 0.054989, , 
93.00, 0.055020, , 
93.03, 0.055005, , 
93.06, 0.054979, , 
93.09, 0.054957, , 
93.12, 0.054932, , 
93.15, 0.054941, , 
93.18, 0.054878, , 
93.21, 0.054884, , 
93.24, 0.055008, , 
93.27, 0.055242, , 
93.30, 0.055518, , 
93.33, 0.055556, , 
93.36, 0.055417, , 
93.39, 0.055236, , 
93.42, 0.055223, , 
93.45, 0.055233, , 
93.48, 0.055255, , 
93.51, 0.055303, , 
93.54, 0.055401, , 
93.57, 0.055487, , 
93.60, 0.055626, , 
93.63, 0.055902, , 
93.66, 0.056159, , 
93.69, 0.056318, , 
93.73, 0.056356, , 
93.75, 0.056403, , 
93.78, 0.056499, , 
93.81, 0.056521, , 
93.84, 0.056479, , 
93.87, 0.056384, , 
93.90, 0.056321, , 
93.93, 0.056184, , 
93.96, 0.056118, , 
93.99, 0.056105, , 
94.02, 0.056080, , 
94.05, 0.056026, , 
94.08, 0.055848, , 
94.11, 0.055769, , 
94.14, 0.055661, , 
94.17, 0.055579, , 
94.20, 0.055509, , 
94.23, 0.055401, , 
94.26, 0.055306, , 
94.29, 0.055144, , 
94.32, 0.055065, , 
94.35, 0.055071, , 
94.38, 0.055058, , 
94.41, 0.054998, , 
94.44, 0.054830, , 
94.47, 0.054741, , 
94.50, 0.054684, , 
94.53, 0.054570, , 
94.56, 0.054529, , 
94.59, 0.054551, , 
94.62, 0.054560, , 
94.65, 0.054545, , 
94.68, 0.054519, , 
94.71, 0.054497, , 
94.74, 0.054351, , 
94.77, 0.054170, , 
94.80, 0.054135, , 
94.83, 0.054097, , 
94.86, 0.054072, , 
94.89, 0.054031, , 
94.92, 0.054040, , 
94.95, 0.054056, , 
94.98, 0.054069, , 
95.01, 0.054031, , 
95.04, 0.054028, , 
95.07, 0.054078, , 
95.10, 0.054018, , 
95.13, 0.054005, , 
95.17, 0.054018, , 
95.19, 0.054088, , 
95.22, 0.054085, , 
95.25, 0.054037, , 
95.28, 0.054034, , 
95.31, 0.054050, , 
95.34, 0.054053, , 
95.37, 0.054018, , 
95.40, 0.054059, , 
95.43, 0.054088, , 
95.46, 0.054043, , 
95.49, 0.053993, , 
95.53, 0.053996, , 
95.55, 0.054037, , 
95.58, 0.054069, , 
95.61, 0.054031, , 
95.64, 0.054047, , 
95.67, 0.054059, , 
95.70, 0.054015, , 
95.73, 0.053948, , 
95.76, 0.053853, , 
95.79, 0.053761, , 
95.82, 0.053622, , 
95.85, 0.053523, , 
95.88, 0.053530, , 
95.91, 0.053580, , 
95.94, 0.053552, , 
95.97, 0.053498, , 
96.00, 0.053523, , 
