Gradient Profiler Text Data File: 3-C3_SH_46_012126.csv
Date: 2026-01-21
Time: 15:54:24

User: Karen
Experiment name: 
UV Unit: EM-1
Rotor Manufacturer: Beckman
Rotor Model: SW28.1
Speed: 28 rpm
Gradient: sucrose 10.0% to 50.0% w/v
Time: 4
w2t:  x 10^0
Sample Volume: 18 ml
Number of Tubes: 6
Volume per mm: 0.183 ml/mm

Absorbance Units Full Scale (AUFS): 2.00
Event Mark-triggered gradient; (with distance; auto start and stop)
Delay: No Delay
UV Wavelength: 254 nm
Samples / sec: 10 Hz
EM1 Speed: 0.30 mm/sec
Distance: 3.20 mm
Number: 30
Dead Volume: 0.000000 ml; Distance due to Dead Volume: 0.00 mm
Total Distance: 96.00 mm

Data Columns:
Distance(mm), Absorbance, Fraction Number, Fraction Volume(ml)
0.00, 0.080891, 0, 0.000
0.03, 0.080897, , 
0.06, 0.080900, , 
0.09, 0.080916, , 
0.12, 0.080878, , 
0.15, 0.080846, , 
0.18, 0.080875, , 
0.21, 0.080926, , 
0.24, 0.080986, , 
0.27, 0.081097, , 
0.30, 0.081325, , 
0.33, 0.081541, , 
0.36, 0.081642, , 
0.39, 0.081817, , 
0.43, 0.082052, , 
0.45, 0.082204, , 
0.48, 0.082229, , 
0.51, 0.082309, , 
0.54, 0.083000, , 
0.57, 0.085696, , 
0.60, 0.093696, , 
0.64, 0.116102, , 
0.66, 0.143752, , 
0.69, 0.196863, , 
0.72, 0.251293, , 
0.75, 0.310653, , 
0.78, 0.383512, , 
0.81, 0.447173, , 
0.84, 0.511230, , 
0.87, 0.575291, , 
0.90, 0.639361, , 
0.93, 0.714107, , 
0.96, 0.778168, , 
0.99, 0.853485, , 
1.02, 0.919084, , 
1.05, 0.974533, , 
1.08, 1.052553, , 
1.11, 1.117190, , 
1.14, 1.184569, , 
1.17, 1.229886, , 
1.20, 1.261976, , 
1.23, 1.286188, , 
1.26, 1.297645, , 
1.29, 1.308826, , 
1.32, 1.315985, , 
1.35, 1.322259, , 
1.38, 1.329447, , 
1.41, 1.335816, , 
1.44, 1.343581, , 
1.47, 1.349319, , 
1.50, 1.356145, , 
1.53, 1.363263, , 
1.56, 1.368211, , 
1.59, 1.372693, , 
1.62, 1.375830, , 
1.65, 1.378742, , 
1.68, 1.381552, , 
1.71, 1.384334, , 
1.74, 1.387499, , 
1.77, 1.389989, , 
1.80, 1.392251, , 
1.83, 1.394611, , 
1.87, 1.396400, , 
1.89, 1.397894, , 
1.92, 1.399150, , 
1.95, 1.400102, , 
1.98, 1.400571, , 
2.01, 1.400603, , 
2.04, 1.400695, , 
2.07, 1.400955, , 
2.10, 1.401446, , 
2.13, 1.402078, , 
2.16, 1.402572, , 
2.19, 1.402839, , 
2.22, 1.402664, , 
2.25, 1.402271, , 
2.28, 1.402005, , 
2.31, 1.401865, , 
2.34, 1.401843, , 
2.37, 1.401840, , 
2.40, 1.401754, , 
2.43, 1.401608, , 
2.46, 1.401500, , 
2.49, 1.401557, , 
2.52, 1.401910, , 
2.55, 1.402287, , 
2.58, 1.402309, , 
2.61, 1.401837, , 
2.64, 1.400955, , 
2.67, 1.399952, , 
2.70, 1.399055, , 
2.73, 1.397719, , 
2.76, 1.396397, , 
2.79, 1.394468, , 
2.82, 1.392356, , 
2.85, 1.389993, , 
2.88, 1.387395, , 
2.91, 1.385660, , 
2.94, 1.383278, , 
2.97, 1.381181, , 
3.00, 1.378907, , 
3.03, 1.375801, , 
3.06, 1.372766, , 
3.09, 1.369664, , 
3.12, 1.366555, , 
3.15, 1.363402, , 
3.18, 1.359513, 1, 0.583
3.19, 1.358939, , 
3.21, 1.356091, , 
3.24, 1.351983, , 
3.27, 1.348408, , 
3.31, 1.344726, , 
3.33, 1.341062, , 
3.36, 1.337475, , 
3.39, 1.333047, , 
3.42, 1.328958, , 
3.45, 1.324511, , 
3.48, 1.319055, , 
3.51, 1.314979, , 
3.54, 1.309051, , 
3.57, 1.303913, , 
3.60, 1.298549, , 
3.63, 1.291958, , 
3.66, 1.286089, , 
3.69, 1.279111, , 
3.72, 1.274014, , 
3.75, 1.267708, , 
3.78, 1.260159, , 
3.81, 1.253558, , 
3.84, 1.245758, , 
3.87, 1.239008, , 
3.90, 1.232109, , 
3.93, 1.225058, , 
3.96, 1.218048, , 
3.99, 1.209735, , 
4.02, 1.202547, , 
4.05, 1.195467, , 
4.08, 1.187360, , 
4.12, 1.180369, , 
4.14, 1.173375, , 
4.17, 1.166447, , 
4.20, 1.159532, , 
4.23, 1.151412, , 
4.26, 1.144469, , 
4.29, 1.136495, , 
4.32, 1.130779, , 
4.35, 1.123893, , 
4.38, 1.115706, , 
4.41, 1.108721, , 
4.44, 1.100630, , 
4.47, 1.093582, , 
4.50, 1.086467, , 
4.53, 1.079213, , 
4.56, 1.071832, , 
4.59, 1.062928, , 
4.62, 1.055217, , 
4.65, 1.047611, , 
4.68, 1.038777, , 
4.71, 1.031234, , 
4.74, 1.023713, , 
4.77, 1.016098, , 
4.80, 1.008453, , 
4.83, 0.999483, , 
4.86, 0.991931, , 
4.89, 0.983144, , 
4.92, 0.975621, , 
4.95, 0.969261, , 
4.98, 0.960195, , 
5.01, 0.952434, , 
5.04, 0.943416, , 
5.07, 0.935791, , 
5.10, 0.928229, , 
5.14, 0.919560, , 
5.16, 0.913270, , 
5.19, 0.904147, , 
5.22, 0.896227, , 
5.25, 0.888475, , 
5.28, 0.879631, , 
5.31, 0.872177, , 
5.34, 0.864742, , 
5.37, 0.857111, , 
5.40, 0.849365, , 
5.43, 0.840226, , 
5.46, 0.832468, , 
5.49, 0.823599, , 
5.52, 0.816034, , 
5.55, 0.809712, , 
5.58, 0.800853, , 
5.61, 0.793133, , 
5.64, 0.785257, , 
5.67, 0.776125, , 
5.70, 0.768557, , 
5.73, 0.759980, , 
5.76, 0.753947, , 
5.79, 0.745547, , 
5.82, 0.738522, , 
5.85, 0.731581, , 
5.88, 0.723515, , 
5.91, 0.716708, , 
5.94, 0.710038, , 
5.97, 0.703415, , 
6.00, 0.696839, , 
6.03, 0.689518, , 
6.06, 0.683536, , 
6.09, 0.677744, , 
6.12, 0.671156, , 
6.15, 0.665621, , 
6.18, 0.660352, , 
6.21, 0.655211, , 
6.24, 0.650040, , 
6.27, 0.644141, , 
6.30, 0.639380, , 
6.33, 0.634051, , 
6.36, 0.629664, , 
6.38, 0.627548, 2, 0.585
6.39, 0.626181, , 
6.42, 0.621430, , 
6.45, 0.617262, , 
6.48, 0.612018, , 
6.51, 0.607188, , 
6.54, 0.602100, , 
6.58, 0.595934, , 
6.60, 0.591363, , 
6.63, 0.584905, , 
6.66, 0.579313, , 
6.69, 0.573603, , 
6.73, 0.566952, , 
6.75, 0.562267, , 
6.78, 0.555653, , 
6.81, 0.549728, , 
6.84, 0.542483, , 
6.87, 0.536013, , 
6.90, 0.529374, , 
6.94, 0.521507, , 
6.96, 0.516026, , 
6.99, 0.508680, , 
7.02, 0.502701, , 
7.05, 0.496969, , 
7.08, 0.490502, , 
7.11, 0.485125, , 
7.15, 0.479143, , 
7.17, 0.474946, , 
7.20, 0.470087, , 
7.23, 0.464650, , 
7.26, 0.460127, , 
7.29, 0.454941, , 
7.32, 0.450599, , 
7.35, 0.447014, , 
7.38, 0.441933, , 
7.41, 0.437461, , 
7.44, 0.432138, , 
7.47, 0.427618, , 
7.50, 0.423130, , 
7.53, 0.417801, , 
7.56, 0.414001, , 
7.59, 0.408780, , 
7.62, 0.404292, , 
7.65, 0.399737, , 
7.68, 0.394513, , 
7.71, 0.390234, , 
7.74, 0.385403, , 
7.77, 0.381853, , 
7.80, 0.377473, , 
7.83, 0.372319, , 
7.86, 0.367963, , 
7.89, 0.362866, , 
7.92, 0.358717, , 
7.95, 0.354781, , 
7.98, 0.350962, , 
8.01, 0.347213, , 
8.04, 0.342962, , 
8.07, 0.339438, , 
8.10, 0.335930, , 
8.13, 0.331876, , 
8.16, 0.328568, , 
8.19, 0.325352, , 
8.22, 0.322097, , 
8.25, 0.318814, , 
8.28, 0.315138, , 
8.31, 0.312087, , 
8.34, 0.308515, , 
8.38, 0.305296, , 
8.40, 0.302545, , 
8.43, 0.298812, , 
8.46, 0.295659, , 
8.49, 0.291989, , 
8.52, 0.288970, , 
8.55, 0.286017, , 
8.58, 0.282987, , 
8.61, 0.280009, , 
8.64, 0.276621, , 
8.67, 0.273760, , 
8.70, 0.270902, , 
8.73, 0.267461, , 
8.76, 0.264485, , 
8.79, 0.261444, , 
8.82, 0.258376, , 
8.85, 0.255442, , 
8.88, 0.252286, , 
8.91, 0.249803, , 
8.94, 0.246967, , 
8.97, 0.244629, , 
9.00, 0.242701, , 
9.03, 0.240182, , 
9.06, 0.237974, , 
9.09, 0.235316, , 
9.12, 0.233137, , 
9.15, 0.231037, , 
9.18, 0.228658, , 
9.21, 0.227107, , 
9.24, 0.225131, , 
9.27, 0.223406, , 
9.30, 0.221579, , 
9.33, 0.219374, , 
9.36, 0.217592, , 
9.40, 0.215431, , 
9.42, 0.213760, , 
9.45, 0.211673, , 
9.48, 0.209322, , 
9.51, 0.207353, , 
9.54, 0.205015, , 
9.57, 0.203055, , 
9.58, 0.202718, 3, 0.585
9.61, 0.201110, , 
9.63, 0.199264, , 
9.66, 0.197361, , 
9.69, 0.195001, , 
9.72, 0.192850, , 
9.75, 0.190516, , 
9.78, 0.187874, , 
9.81, 0.186151, , 
9.84, 0.183861, , 
9.87, 0.181898, , 
9.90, 0.179893, , 
9.93, 0.177711, , 
9.96, 0.176017, , 
9.99, 0.174041, , 
10.02, 0.172690, , 
10.05, 0.171240, , 
10.08, 0.169660, , 
10.11, 0.168385, , 
10.14, 0.167082, , 
10.17, 0.166149, , 
10.20, 0.165290, , 
10.23, 0.164386, , 
10.26, 0.163513, , 
10.29, 0.162520, , 
10.32, 0.161674, , 
10.35, 0.160912, , 
10.38, 0.160211, , 
10.41, 0.159777, , 
10.44, 0.159320, , 
10.47, 0.158806, , 
10.50, 0.158261, , 
10.53, 0.157629, , 
10.56, 0.157093, , 
10.59, 0.156364, , 
10.62, 0.155701, , 
10.65, 0.155101, , 
10.68, 0.154147, , 
10.71, 0.153189, , 
10.74, 0.152158, , 
10.77, 0.151365, , 
10.80, 0.150645, , 
10.84, 0.149715, , 
10.86, 0.148992, , 
10.89, 0.147964, , 
10.92, 0.146997, , 
10.95, 0.146020, , 
10.98, 0.144894, , 
11.01, 0.144053, , 
11.04, 0.143168, , 
11.07, 0.142195, , 
11.10, 0.141259, , 
11.13, 0.140285, , 
11.16, 0.139346, , 
11.19, 0.138233, , 
11.22, 0.137243, , 
11.25, 0.136469, , 
11.28, 0.135416, , 
11.31, 0.134455, , 
11.34, 0.133494, , 
11.37, 0.132745, , 
11.40, 0.131946, , 
11.43, 0.131036, , 
11.46, 0.130376, , 
11.49, 0.129412, , 
11.52, 0.128511, , 
11.55, 0.127585, , 
11.58, 0.126595, , 
11.61, 0.125761, , 
11.64, 0.124720, , 
11.67, 0.123962, , 
11.70, 0.123106, , 
11.73, 0.122281, , 
11.76, 0.121501, , 
11.79, 0.120540, , 
11.82, 0.119839, , 
11.85, 0.119166, , 
11.88, 0.118415, , 
11.91, 0.117752, , 
11.94, 0.117070, , 
11.97, 0.116258, , 
12.00, 0.115538, , 
12.03, 0.114837, , 
12.07, 0.114310, , 
12.09, 0.113841, , 
12.12, 0.113346, , 
12.15, 0.112816, , 
12.18, 0.112204, , 
12.21, 0.111646, , 
12.24, 0.111091, , 
12.27, 0.110586, , 
12.30, 0.110164, , 
12.33, 0.109673, , 
12.36, 0.109191, , 
12.39, 0.108642, , 
12.42, 0.108230, , 
12.45, 0.107786, , 
12.48, 0.107297, , 
12.51, 0.106850, , 
12.54, 0.106428, , 
12.57, 0.105819, , 
12.60, 0.105210, , 
12.63, 0.104579, , 
12.66, 0.104097, , 
12.69, 0.103630, , 
12.72, 0.102910, , 
12.75, 0.102352, , 
12.77, 0.101940, 4, 0.585
12.78, 0.101791, , 
12.81, 0.101394, , 
12.84, 0.100899, , 
12.87, 0.100477, , 
12.90, 0.100097, , 
12.93, 0.099551, , 
12.96, 0.099047, , 
12.99, 0.098562, , 
13.02, 0.098136, , 
13.05, 0.097750, , 
13.08, 0.097302, , 
13.11, 0.097004, , 
13.14, 0.096630, , 
13.17, 0.096256, , 
13.20, 0.095865, , 
13.23, 0.095574, , 
13.26, 0.095361, , 
13.29, 0.094911, , 
13.32, 0.094536, , 
13.35, 0.094225, , 
13.38, 0.093892, , 
13.41, 0.093528, , 
13.44, 0.093046, , 
13.47, 0.092738, , 
13.50, 0.092354, , 
13.53, 0.091789, , 
13.56, 0.091345, , 
13.59, 0.090901, , 
13.62, 0.090445, , 
13.65, 0.089962, , 
13.68, 0.089522, , 
13.71, 0.088989, , 
13.74, 0.088376, , 
13.77, 0.087771, , 
13.80, 0.087231, , 
13.83, 0.086733, , 
13.87, 0.086289, , 
13.89, 0.085804, , 
13.92, 0.085385, , 
13.95, 0.084957, , 
13.98, 0.084456, , 
14.01, 0.083993, , 
14.04, 0.083511, , 
14.07, 0.083174, , 
14.10, 0.082715, , 
14.13, 0.082166, , 
14.16, 0.081738, , 
14.19, 0.081303, , 
14.22, 0.080941, , 
14.25, 0.080612, , 
14.28, 0.080323, , 
14.31, 0.079968, , 
14.34, 0.079476, , 
14.37, 0.079026, , 
14.40, 0.078616, , 
14.43, 0.078122, , 
14.46, 0.077668, , 
14.49, 0.077183, , 
14.52, 0.076691, , 
14.55, 0.076158, , 
14.58, 0.075594, , 
14.61, 0.075175, , 
14.64, 0.074807, , 
14.67, 0.074442, , 
14.70, 0.074052, , 
14.73, 0.073535, , 
14.76, 0.073129, , 
14.79, 0.072618, , 
14.82, 0.072146, , 
14.85, 0.071708, , 
14.88, 0.071299, , 
14.91, 0.071001, , 
14.94, 0.070604, , 
14.97, 0.070354, , 
15.00, 0.070163, , 
15.03, 0.069833, , 
15.06, 0.069494, , 
15.09, 0.069205, , 
15.12, 0.068983, , 
15.15, 0.068749, , 
15.18, 0.068438, , 
15.21, 0.068209, , 
15.24, 0.067997, , 
15.27, 0.067825, , 
15.30, 0.067661, , 
15.33, 0.067458, , 
15.36, 0.067327, , 
15.39, 0.067067, , 
15.42, 0.066798, , 
15.45, 0.066649, , 
15.48, 0.066452, , 
15.51, 0.066259, , 
15.54, 0.065935, , 
15.57, 0.065742, , 
15.60, 0.065631, , 
15.63, 0.065421, , 
15.66, 0.065196, , 
15.69, 0.065079, , 
15.72, 0.064993, , 
15.75, 0.064799, , 
15.78, 0.064641, , 
15.81, 0.064590, , 
15.84, 0.064485, , 
15.87, 0.064317, , 
15.90, 0.064168, , 
15.93, 0.064111, , 
15.96, 0.064054, , 
15.98, 0.063991, 5, 0.587
15.99, 0.063962, , 
16.02, 0.063886, , 
16.05, 0.063781, , 
16.08, 0.063680, , 
16.11, 0.063591, , 
16.14, 0.063502, , 
16.17, 0.063524, , 
16.20, 0.063486, , 
16.23, 0.063397, , 
16.26, 0.063378, , 
16.29, 0.063318, , 
16.32, 0.063258, , 
16.35, 0.063125, , 
16.38, 0.063004, , 
16.41, 0.063020, , 
16.44, 0.063014, , 
16.47, 0.062903, , 
16.50, 0.062769, , 
16.53, 0.062671, , 
16.56, 0.062573, , 
16.59, 0.062462, , 
16.62, 0.062443, , 
16.65, 0.062449, , 
16.68, 0.062436, , 
16.71, 0.062408, , 
16.74, 0.062417, , 
16.77, 0.062455, , 
16.80, 0.062455, , 
16.83, 0.062421, , 
16.86, 0.062443, , 
16.89, 0.062481, , 
16.93, 0.062424, , 
16.95, 0.062427, , 
16.98, 0.062465, , 
17.01, 0.062490, , 
17.04, 0.062459, , 
17.07, 0.062367, , 
17.10, 0.062382, , 
17.13, 0.062519, , 
17.16, 0.062627, , 
17.19, 0.062741, , 
17.22, 0.062861, , 
17.25, 0.062938, , 
17.28, 0.062909, , 
17.31, 0.062931, , 
17.34, 0.062925, , 
17.37, 0.063004, , 
17.40, 0.063074, , 
17.43, 0.063201, , 
17.46, 0.063356, , 
17.49, 0.063439, , 
17.52, 0.063436, , 
17.55, 0.063467, , 
17.58, 0.063664, , 
17.61, 0.063765, , 
17.64, 0.063956, , 
17.67, 0.064156, , 
17.70, 0.064336, , 
17.73, 0.064565, , 
17.76, 0.064730, , 
17.79, 0.065031, , 
17.82, 0.065307, , 
17.85, 0.065586, , 
17.88, 0.065897, , 
17.91, 0.066148, , 
17.94, 0.066557, , 
17.97, 0.066893, , 
18.00, 0.067204, , 
18.03, 0.067683, , 
18.06, 0.068263, , 
18.09, 0.068885, , 
18.12, 0.069389, , 
18.16, 0.069954, , 
18.18, 0.070610, , 
18.21, 0.071223, , 
18.24, 0.071990, , 
18.27, 0.072802, , 
18.30, 0.073640, , 
18.33, 0.074598, , 
18.36, 0.075280, , 
18.39, 0.076358, , 
18.42, 0.077227, , 
18.45, 0.078128, , 
18.48, 0.079289, , 
18.51, 0.080342, , 
18.54, 0.081531, , 
18.57, 0.082350, , 
18.60, 0.083409, , 
18.63, 0.084751, , 
18.66, 0.085959, , 
18.69, 0.087304, , 
18.72, 0.088443, , 
18.75, 0.089652, , 
18.78, 0.090870, , 
18.81, 0.092053, , 
18.84, 0.093480, , 
18.87, 0.094670, , 
18.90, 0.095811, , 
18.93, 0.097166, , 
18.96, 0.098301, , 
18.99, 0.099526, , 
19.02, 0.100715, , 
19.05, 0.101781, , 
19.08, 0.102993, , 
19.11, 0.104071, , 
19.14, 0.105280, , 
19.18, 0.106247, , 
19.19, 0.106561, 6, 0.586
19.20, 0.107037, , 
19.23, 0.108087, , 
19.26, 0.108864, , 
19.29, 0.109758, , 
19.32, 0.110520, , 
19.35, 0.111192, , 
19.38, 0.111769, , 
19.41, 0.112378, , 
19.44, 0.113060, , 
19.47, 0.113533, , 
19.50, 0.113882, , 
19.53, 0.114282, , 
19.56, 0.114643, , 
19.59, 0.114929, , 
19.62, 0.115125, , 
19.65, 0.115322, , 
19.68, 0.115455, , 
19.71, 0.115506, , 
19.74, 0.115363, , 
19.77, 0.115240, , 
19.80, 0.115192, , 
19.83, 0.114992, , 
19.86, 0.114723, , 
19.89, 0.114418, , 
19.92, 0.114212, , 
19.95, 0.113939, , 
19.98, 0.113489, , 
20.01, 0.113143, , 
20.04, 0.112696, , 
20.07, 0.112255, , 
20.10, 0.111735, , 
20.13, 0.111107, , 
20.16, 0.110602, , 
20.20, 0.109936, , 
20.22, 0.109422, , 
20.25, 0.108810, , 
20.28, 0.108207, , 
20.31, 0.107621, , 
20.34, 0.106885, , 
20.37, 0.106298, , 
20.41, 0.105657, , 
20.43, 0.104991, , 
20.46, 0.104277, , 
20.49, 0.103570, , 
20.52, 0.102948, , 
20.55, 0.102238, , 
20.58, 0.101470, , 
20.61, 0.100950, , 
20.64, 0.100233, , 
20.67, 0.099538, , 
20.70, 0.098942, , 
20.73, 0.098320, , 
20.76, 0.097699, , 
20.79, 0.096918, , 
20.82, 0.096376, , 
20.85, 0.095773, , 
20.88, 0.095028, , 
20.91, 0.094337, , 
20.94, 0.093680, , 
20.97, 0.093144, , 
21.00, 0.092522, , 
21.03, 0.091904, , 
21.06, 0.091301, , 
21.09, 0.090632, , 
21.12, 0.090080, , 
21.15, 0.089471, , 
21.18, 0.088798, , 
21.21, 0.088246, , 
21.24, 0.087704, , 
21.27, 0.087143, , 
21.30, 0.086664, , 
21.33, 0.086115, , 
21.36, 0.085512, , 
21.39, 0.084824, , 
21.42, 0.084450, , 
21.45, 0.084015, , 
21.48, 0.083447, , 
21.51, 0.082943, , 
21.54, 0.082521, , 
21.57, 0.082086, , 
21.60, 0.081614, , 
21.63, 0.081100, , 
21.66, 0.080704, , 
21.69, 0.080234, , 
21.72, 0.079781, , 
21.75, 0.079352, , 
21.78, 0.078915, , 
21.81, 0.078645, , 
21.84, 0.078309, , 
21.87, 0.077900, , 
21.90, 0.077579, , 
21.93, 0.077224, , 
21.96, 0.076865, , 
21.99, 0.076485, , 
22.02, 0.076241, , 
22.05, 0.076019, , 
22.08, 0.075670, , 
22.11, 0.075479, , 
22.14, 0.075311, , 
22.17, 0.075019, , 
22.20, 0.074782, , 
22.23, 0.074582, , 
22.26, 0.074521, , 
22.29, 0.074445, , 
22.32, 0.074350, , 
22.35, 0.074261, , 
22.38, 0.074185, 7, 0.584
22.38, 0.074173, , 
22.41, 0.074125, , 
22.45, 0.074204, , 
22.47, 0.074299, , 
22.50, 0.074433, , 
22.53, 0.074550, , 
22.56, 0.074690, , 
22.59, 0.074934, , 
22.62, 0.075162, , 
22.65, 0.075381, , 
22.68, 0.075720, , 
22.71, 0.076142, , 
22.74, 0.076846, , 
22.77, 0.077443, , 
22.80, 0.078106, , 
22.83, 0.079064, , 
22.86, 0.079961, , 
22.89, 0.081309, , 
22.92, 0.082645, , 
22.95, 0.084218, , 
22.98, 0.086365, , 
23.01, 0.088399, , 
23.04, 0.091111, , 
23.07, 0.093360, , 
23.10, 0.096449, , 
23.13, 0.100370, , 
23.16, 0.104179, , 
23.19, 0.109241, , 
23.22, 0.114085, , 
23.25, 0.119446, , 
23.28, 0.125352, , 
23.31, 0.131791, , 
23.34, 0.140111, , 
23.37, 0.147853, , 
23.40, 0.156224, , 
23.43, 0.166847, , 
23.47, 0.176588, , 
23.49, 0.186884, , 
23.52, 0.197796, , 
23.55, 0.209306, , 
23.58, 0.223330, , 
23.61, 0.235894, , 
23.64, 0.251379, , 
23.67, 0.262899, , 
23.70, 0.277005, , 
23.73, 0.294007, , 
23.76, 0.309023, , 
23.79, 0.326979, , 
23.82, 0.342502, , 
23.85, 0.358245, , 
23.88, 0.374120, , 
23.91, 0.390059, , 
23.94, 0.408507, , 
23.97, 0.424072, , 
24.00, 0.439586, , 
24.03, 0.457501, , 
24.06, 0.472679, , 
24.09, 0.487669, , 
24.12, 0.502295, , 
24.15, 0.516439, , 
24.18, 0.532263, , 
24.21, 0.545233, , 
24.24, 0.559780, , 
24.27, 0.571640, , 
24.30, 0.580978, , 
24.33, 0.593415, , 
24.36, 0.603521, , 
24.39, 0.614572, , 
24.42, 0.623368, , 
24.45, 0.631580, , 
24.49, 0.640417, , 
24.51, 0.646196, , 
24.54, 0.653618, , 
24.57, 0.658858, , 
24.60, 0.664451, , 
24.63, 0.669618, , 
24.66, 0.673519, , 
24.69, 0.677049, , 
24.72, 0.680158, , 
24.75, 0.682826, , 
24.78, 0.685217, , 
24.81, 0.686797, , 
24.84, 0.688081, , 
24.87, 0.688684, , 
24.90, 0.688900, , 
24.93, 0.688738, , 
24.96, 0.688094, , 
24.99, 0.686829, , 
25.02, 0.685366, , 
25.05, 0.683612, , 
25.08, 0.681230, , 
25.11, 0.679283, , 
25.14, 0.676720, , 
25.17, 0.673395, , 
25.20, 0.670198, , 
25.23, 0.666021, , 
25.26, 0.662078, , 
25.29, 0.657345, , 
25.32, 0.653847, , 
25.35, 0.649365, , 
25.38, 0.643976, , 
25.41, 0.639281, , 
25.44, 0.634438, , 
25.47, 0.628547, , 
25.50, 0.623437, , 
25.53, 0.618283, , 
25.56, 0.613030, , 
25.58, 0.609430, 8, 0.586
25.59, 0.606667, , 
25.62, 0.601189, , 
25.65, 0.596222, , 
25.68, 0.589365, , 
25.72, 0.583750, , 
25.74, 0.579056, , 
25.77, 0.572515, , 
25.80, 0.566771, , 
25.83, 0.560107, , 
25.86, 0.554461, , 
25.89, 0.548849, , 
25.92, 0.543140, , 
25.95, 0.537329, , 
25.98, 0.530617, , 
26.01, 0.524914, , 
26.04, 0.519192, , 
26.07, 0.512585, , 
26.10, 0.506993, , 
26.13, 0.501502, , 
26.16, 0.495897, , 
26.19, 0.490229, , 
26.22, 0.483841, , 
26.25, 0.478518, , 
26.28, 0.472393, , 
26.31, 0.467204, , 
26.34, 0.462938, , 
26.37, 0.456920, , 
26.40, 0.451817, , 
26.43, 0.446076, , 
26.46, 0.441321, , 
26.49, 0.436620, , 
26.52, 0.431215, , 
26.55, 0.427894, , 
26.58, 0.422270, , 
26.61, 0.417852, , 
26.64, 0.413535, , 
26.67, 0.408637, , 
26.70, 0.404593, , 
26.73, 0.400558, , 
26.76, 0.396530, , 
26.79, 0.392575, , 
26.82, 0.388051, , 
26.85, 0.384293, , 
26.88, 0.379957, , 
26.91, 0.376379, , 
26.94, 0.373464, , 
26.97, 0.369346, , 
27.00, 0.365762, , 
27.03, 0.361788, , 
27.06, 0.358521, , 
27.09, 0.355304, , 
27.12, 0.351603, , 
27.15, 0.349017, , 
27.18, 0.345474, , 
27.21, 0.342426, , 
27.24, 0.339403, , 
27.27, 0.336003, , 
27.30, 0.333205, , 
27.33, 0.329815, , 
27.36, 0.327340, , 
27.39, 0.324457, , 
27.42, 0.321184, , 
27.45, 0.318342, , 
27.48, 0.315056, , 
27.51, 0.312302, , 
27.54, 0.309467, , 
27.57, 0.306596, , 
27.60, 0.303757, , 
27.63, 0.300474, , 
27.66, 0.297654, , 
27.69, 0.294762, , 
27.72, 0.291466, , 
27.76, 0.288668, , 
27.78, 0.285937, , 
27.81, 0.283187, , 
27.84, 0.280450, , 
27.87, 0.277395, , 
27.90, 0.274801, , 
27.93, 0.271686, , 
27.96, 0.269510, , 
27.99, 0.267020, , 
28.02, 0.264105, , 
28.05, 0.261561, , 
28.08, 0.258722, , 
28.11, 0.256280, , 
28.14, 0.253786, , 
28.17, 0.251262, , 
28.20, 0.248819, , 
28.23, 0.246110, , 
28.26, 0.243744, , 
28.29, 0.241324, , 
28.32, 0.238533, , 
28.35, 0.236170, , 
28.38, 0.233854, , 
28.41, 0.231561, , 
28.44, 0.229496, , 
28.47, 0.226777, , 
28.50, 0.224598, , 
28.53, 0.222042, , 
28.56, 0.219850, , 
28.59, 0.218251, , 
28.62, 0.215479, , 
28.65, 0.213382, , 
28.68, 0.211010, , 
28.71, 0.208942, , 
28.74, 0.206851, , 
28.77, 0.204457, , 
28.78, 0.204120, 9, 0.586
28.80, 0.202823, , 
28.83, 0.200606, , 
28.86, 0.198722, , 
28.89, 0.196793, , 
28.92, 0.194614, , 
28.95, 0.192711, , 
28.98, 0.190786, , 
29.01, 0.188873, , 
29.04, 0.187068, , 
29.07, 0.184933, , 
29.10, 0.183274, , 
29.13, 0.181038, , 
29.16, 0.179319, , 
29.19, 0.177873, , 
29.22, 0.175776, , 
29.25, 0.174041, , 
29.28, 0.172090, , 
29.31, 0.170450, , 
29.34, 0.168785, , 
29.37, 0.166856, , 
29.40, 0.165711, , 
29.43, 0.163681, , 
29.46, 0.162121, , 
29.49, 0.160547, , 
29.52, 0.158793, , 
29.55, 0.157258, , 
29.58, 0.155422, , 
29.61, 0.154137, , 
29.64, 0.152633, , 
29.67, 0.150921, , 
29.70, 0.149462, , 
29.73, 0.147853, , 
29.76, 0.146543, , 
29.79, 0.145176, , 
29.82, 0.143736, , 
29.85, 0.142423, , 
29.88, 0.140688, , 
29.91, 0.139283, , 
29.94, 0.137928, , 
29.97, 0.136545, , 
30.01, 0.135359, , 
30.03, 0.134132, , 
30.06, 0.132952, , 
30.09, 0.131835, , 
30.12, 0.130474, , 
30.15, 0.129310, , 
30.18, 0.127918, , 
30.21, 0.126925, , 
30.24, 0.125707, , 
30.27, 0.124207, , 
30.30, 0.122932, , 
30.33, 0.121679, , 
30.36, 0.120622, , 
30.39, 0.119506, , 
30.42, 0.118450, , 
30.45, 0.117571, , 
30.48, 0.116267, , 
30.51, 0.115116, , 
30.54, 0.113996, , 
30.57, 0.112813, , 
30.60, 0.111782, , 
30.63, 0.110697, , 
30.66, 0.109644, , 
30.69, 0.108705, , 
30.72, 0.107583, , 
30.75, 0.106529, , 
30.78, 0.105346, , 
30.81, 0.104411, , 
30.84, 0.103643, , 
30.87, 0.102545, , 
30.90, 0.101727, , 
30.93, 0.100722, , 
30.96, 0.099827, , 
30.99, 0.098904, , 
31.03, 0.097918, , 
31.05, 0.097267, , 
31.08, 0.096335, , 
31.11, 0.095561, , 
31.14, 0.094930, , 
31.17, 0.094146, , 
31.20, 0.093464, , 
31.23, 0.092773, , 
31.26, 0.092069, , 
31.29, 0.091380, , 
31.32, 0.090533, , 
31.35, 0.089839, , 
31.38, 0.089103, , 
31.41, 0.088437, , 
31.44, 0.087885, , 
31.47, 0.087082, , 
31.50, 0.086489, , 
31.53, 0.085801, , 
31.56, 0.085132, , 
31.59, 0.084408, , 
31.62, 0.083549, , 
31.65, 0.082914, , 
31.68, 0.082039, , 
31.71, 0.081300, , 
31.74, 0.080669, , 
31.77, 0.079968, , 
31.80, 0.079451, , 
31.83, 0.078826, , 
31.86, 0.078325, , 
31.89, 0.077785, , 
31.92, 0.077414, , 
31.95, 0.077078, , 
31.98, 0.076799, 10, 0.585
31.98, 0.076742, , 
32.01, 0.076444, , 
32.04, 0.075949, , 
32.07, 0.075536, , 
32.10, 0.075175, , 
32.13, 0.074851, , 
32.16, 0.074506, , 
32.19, 0.074239, , 
32.22, 0.074017, , 
32.25, 0.073700, , 
32.28, 0.073240, , 
32.31, 0.072923, , 
32.34, 0.072599, , 
32.37, 0.072292, , 
32.40, 0.072009, , 
32.43, 0.071679, , 
32.46, 0.071467, , 
32.49, 0.071140, , 
32.52, 0.070861, , 
32.55, 0.070677, , 
32.58, 0.070433, , 
32.61, 0.070135, , 
32.64, 0.069700, , 
32.67, 0.069370, , 
32.70, 0.069135, , 
32.73, 0.068771, , 
32.76, 0.068460, , 
32.79, 0.068266, , 
32.82, 0.068171, , 
32.85, 0.068082, , 
32.88, 0.067959, , 
32.91, 0.067848, , 
32.94, 0.067714, , 
32.97, 0.067511, , 
33.00, 0.067277, , 
33.03, 0.067204, , 
33.06, 0.067052, , 
33.09, 0.066807, , 
33.12, 0.066614, , 
33.15, 0.066455, , 
33.18, 0.066240, , 
33.21, 0.066186, , 
33.24, 0.066205, , 
33.27, 0.066338, , 
33.30, 0.066408, , 
33.33, 0.066278, , 
33.36, 0.066078, , 
33.39, 0.065891, , 
33.42, 0.065681, , 
33.45, 0.065399, , 
33.48, 0.065205, , 
33.51, 0.065085, , 
33.54, 0.064888, , 
33.57, 0.064714, , 
33.60, 0.064612, , 
33.63, 0.064498, , 
33.66, 0.064317, , 
33.69, 0.064121, , 
33.72, 0.063962, , 
33.75, 0.063753, , 
33.78, 0.063344, , 
33.81, 0.063007, , 
33.84, 0.062738, , 
33.87, 0.062490, , 
33.90, 0.062157, , 
33.93, 0.061786, , 
33.96, 0.061539, , 
33.99, 0.061323, , 
34.02, 0.061088, , 
34.05, 0.060885, , 
34.08, 0.060717, , 
34.11, 0.060625, , 
34.14, 0.060368, , 
34.17, 0.060203, , 
34.20, 0.060099, , 
34.23, 0.059883, , 
34.26, 0.059689, , 
34.29, 0.059448, , 
34.32, 0.059293, , 
34.35, 0.059176, , 
34.38, 0.058973, , 
34.41, 0.058766, , 
34.44, 0.058633, , 
34.47, 0.058513, , 
34.50, 0.058335, , 
34.53, 0.058119, , 
34.56, 0.057948, , 
34.59, 0.057720, , 
34.62, 0.057422, , 
34.65, 0.057111, , 
34.68, 0.056870, , 
34.71, 0.056590, , 
34.74, 0.056226, , 
34.77, 0.055899, , 
34.80, 0.055633, , 
34.83, 0.055293, , 
34.87, 0.054913, , 
34.89, 0.054586, , 
34.92, 0.054345, , 
34.95, 0.054034, , 
34.98, 0.053615, , 
35.01, 0.053368, , 
35.04, 0.053095, , 
35.07, 0.052851, , 
35.10, 0.052603, , 
35.13, 0.052318, , 
35.16, 0.052178, , 
35.18, 0.052064, 11, 0.585
35.19, 0.051906, , 
35.22, 0.051677, , 
35.25, 0.051519, , 
35.28, 0.051341, , 
35.31, 0.051081, , 
35.34, 0.050846, , 
35.37, 0.050726, , 
35.40, 0.050573, , 
35.43, 0.050373, , 
35.46, 0.050209, , 
35.49, 0.050180, , 
35.52, 0.050148, , 
35.55, 0.050085, , 
35.58, 0.050066, , 
35.61, 0.050117, , 
35.64, 0.050136, , 
35.67, 0.050104, , 
35.70, 0.050082, , 
35.73, 0.050107, , 
35.76, 0.050275, , 
35.79, 0.050399, , 
35.82, 0.050497, , 
35.85, 0.050580, , 
35.89, 0.050561, , 
35.91, 0.050526, , 
35.94, 0.050529, , 
35.97, 0.050557, , 
36.00, 0.050542, , 
36.03, 0.050380, , 
36.06, 0.050237, , 
36.09, 0.050136, , 
36.12, 0.049996, , 
36.15, 0.049806, , 
36.18, 0.049628, , 
36.21, 0.049546, , 
36.24, 0.049187, , 
36.27, 0.048819, , 
36.30, 0.048540, , 
36.33, 0.048153, , 
36.36, 0.047826, , 
36.39, 0.047405, , 
36.42, 0.047106, , 
36.45, 0.046888, , 
36.48, 0.046570, , 
36.51, 0.046348, , 
36.54, 0.046114, , 
36.57, 0.045917, , 
36.60, 0.045644, , 
36.63, 0.045371, , 
36.66, 0.045143, , 
36.69, 0.044870, , 
36.72, 0.044588, , 
36.75, 0.044302, , 
36.78, 0.044176, , 
36.81, 0.044096, , 
36.84, 0.043944, , 
36.87, 0.043674, , 
36.90, 0.043481, , 
36.93, 0.043351, , 
36.96, 0.043126, , 
36.99, 0.042977, , 
37.02, 0.042812, , 
37.05, 0.042631, , 
37.08, 0.042377, , 
37.11, 0.042212, , 
37.14, 0.042111, , 
37.17, 0.041939, , 
37.20, 0.041717, , 
37.23, 0.041571, , 
37.26, 0.041517, , 
37.29, 0.041514, , 
37.32, 0.041387, , 
37.35, 0.041197, , 
37.38, 0.041099, , 
37.41, 0.041067, , 
37.44, 0.040962, , 
37.47, 0.040937, , 
37.50, 0.040943, , 
37.53, 0.040820, , 
37.56, 0.040664, , 
37.59, 0.040556, , 
37.62, 0.040499, , 
37.65, 0.040521, , 
37.68, 0.040455, , 
37.71, 0.040426, , 
37.74, 0.040464, , 
37.77, 0.040417, , 
37.80, 0.040363, , 
37.83, 0.040407, , 
37.86, 0.040445, , 
37.89, 0.040410, , 
37.92, 0.040395, , 
37.95, 0.040312, , 
37.98, 0.040163, , 
38.01, 0.040071, , 
38.04, 0.039995, , 
38.07, 0.039928, , 
38.10, 0.039941, , 
38.13, 0.039944, , 
38.16, 0.039887, , 
38.19, 0.039865, , 
38.22, 0.039912, , 
38.25, 0.039903, , 
38.28, 0.039871, , 
38.31, 0.039890, , 
38.34, 0.039928, , 
38.37, 0.039938, , 
38.38, 0.039931, 12, 0.586
38.40, 0.039922, , 
38.43, 0.039925, , 
38.46, 0.039995, , 
38.49, 0.039985, , 
38.52, 0.040023, , 
38.56, 0.040150, , 
38.58, 0.040226, , 
38.61, 0.040271, , 
38.64, 0.040331, , 
38.67, 0.040376, , 
38.70, 0.040379, , 
38.73, 0.040410, , 
38.76, 0.040483, , 
38.79, 0.040610, , 
38.82, 0.040816, , 
38.85, 0.040855, , 
38.88, 0.040893, , 
38.91, 0.040985, , 
38.94, 0.041124, , 
38.97, 0.041191, , 
39.00, 0.041270, , 
39.03, 0.041372, , 
39.06, 0.041406, , 
39.09, 0.041422, , 
39.12, 0.041498, , 
39.15, 0.041670, , 
39.18, 0.041809, , 
39.21, 0.041844, , 
39.24, 0.041908, , 
39.27, 0.042123, , 
39.30, 0.042279, , 
39.33, 0.042345, , 
39.36, 0.042555, , 
39.39, 0.042751, , 
39.42, 0.042923, , 
39.45, 0.043103, , 
39.48, 0.043284, , 
39.51, 0.043490, , 
39.54, 0.043706, , 
39.57, 0.043785, , 
39.60, 0.043833, , 
39.63, 0.043969, , 
39.66, 0.044160, , 
39.69, 0.044261, , 
39.72, 0.044375, , 
39.75, 0.044483, , 
39.79, 0.044585, , 
39.81, 0.044693, , 
39.84, 0.044835, , 
39.87, 0.044924, , 
39.90, 0.044934, , 
39.93, 0.044988, , 
39.96, 0.045159, , 
40.00, 0.045317, , 
40.02, 0.045419, , 
40.05, 0.045441, , 
40.08, 0.045638, , 
40.11, 0.045815, , 
40.14, 0.045898, , 
40.17, 0.045898, , 
40.20, 0.045958, , 
40.23, 0.046037, , 
40.26, 0.046034, , 
40.29, 0.045968, , 
40.32, 0.046009, , 
40.35, 0.046025, , 
40.38, 0.045987, , 
40.41, 0.045977, , 
40.44, 0.045999, , 
40.47, 0.045923, , 
40.50, 0.045742, , 
40.53, 0.045625, , 
40.56, 0.045568, , 
40.59, 0.045498, , 
40.62, 0.045438, , 
40.65, 0.045413, , 
40.68, 0.045317, , 
40.71, 0.045206, , 
40.74, 0.045064, , 
40.77, 0.044969, , 
40.80, 0.044889, , 
40.83, 0.044753, , 
40.86, 0.044505, , 
40.89, 0.044293, , 
40.92, 0.044068, , 
40.95, 0.043877, , 
40.98, 0.043678, , 
41.01, 0.043538, , 
41.04, 0.043392, , 
41.07, 0.043189, , 
41.10, 0.042923, , 
41.13, 0.042697, , 
41.16, 0.042463, , 
41.19, 0.042253, , 
41.22, 0.042085, , 
41.25, 0.041923, , 
41.28, 0.041793, , 
41.31, 0.041632, , 
41.34, 0.041454, , 
41.37, 0.041238, , 
41.40, 0.041083, , 
41.43, 0.040889, , 
41.46, 0.040642, , 
41.49, 0.040534, , 
41.52, 0.040382, , 
41.55, 0.040188, , 
41.57, 0.040017, 13, 0.585
41.58, 0.039976, , 
41.61, 0.039878, , 
41.64, 0.039830, , 
41.67, 0.039659, , 
41.70, 0.039465, , 
41.73, 0.039281, , 
41.76, 0.039110, , 
41.79, 0.038856, , 
41.82, 0.038583, , 
41.85, 0.038498, , 
41.88, 0.038307, , 
41.91, 0.038101, , 
41.94, 0.037974, , 
41.97, 0.037936, , 
42.00, 0.037908, , 
42.03, 0.037756, , 
42.06, 0.037632, , 
42.09, 0.037540, , 
42.12, 0.037419, , 
42.15, 0.037356, , 
42.18, 0.037321, , 
42.21, 0.037340, , 
42.24, 0.037242, , 
42.27, 0.037086, , 
42.30, 0.036991, , 
42.33, 0.036975, , 
42.36, 0.036886, , 
42.39, 0.036826, , 
42.42, 0.036772, , 
42.45, 0.036804, , 
42.48, 0.036833, , 
42.51, 0.036820, , 
42.54, 0.036817, , 
42.57, 0.036817, , 
42.60, 0.036833, , 
42.63, 0.036798, , 
42.66, 0.036715, , 
42.69, 0.036595, , 
42.72, 0.036458, , 
42.75, 0.036344, , 
42.78, 0.036303, , 
42.81, 0.036325, , 
42.84, 0.036315, , 
42.87, 0.036277, , 
42.90, 0.036287, , 
42.93, 0.036312, , 
42.96, 0.036271, , 
42.99, 0.036230, , 
43.02, 0.036268, , 
43.05, 0.036277, , 
43.08, 0.036271, , 
43.11, 0.036214, , 
43.14, 0.036243, , 
43.17, 0.036290, , 
43.20, 0.036265, , 
43.23, 0.036239, , 
43.26, 0.036255, , 
43.29, 0.036274, , 
43.32, 0.036239, , 
43.35, 0.036211, , 
43.38, 0.036220, , 
43.41, 0.036258, , 
43.44, 0.036227, , 
43.47, 0.036214, , 
43.50, 0.036236, , 
43.53, 0.036268, , 
43.56, 0.036262, , 
43.59, 0.036258, , 
43.62, 0.036290, , 
43.65, 0.036281, , 
43.68, 0.036262, , 
43.71, 0.036255, , 
43.74, 0.036252, , 
43.77, 0.036268, , 
43.80, 0.036281, , 
43.83, 0.036407, , 
43.86, 0.036598, , 
43.89, 0.036693, , 
43.92, 0.036709, , 
43.95, 0.036731, , 
43.98, 0.036877, , 
44.01, 0.037048, , 
44.04, 0.037254, , 
44.07, 0.037448, , 
44.10, 0.037616, , 
44.13, 0.037759, , 
44.16, 0.037933, , 
44.19, 0.038127, , 
44.22, 0.038418, , 
44.25, 0.038590, , 
44.28, 0.038707, , 
44.31, 0.038875, , 
44.34, 0.039085, , 
44.37, 0.039177, , 
44.40, 0.039208, , 
44.43, 0.039354, , 
44.46, 0.039636, , 
44.49, 0.039728, , 
44.52, 0.039773, , 
44.55, 0.039852, , 
44.58, 0.040023, , 
44.61, 0.040147, , 
44.64, 0.040255, , 
44.67, 0.040477, , 
44.70, 0.040680, , 
44.73, 0.040763, , 
44.76, 0.040851, , 
44.78, 0.040969, 14, 0.587
44.79, 0.041042, , 
44.82, 0.041273, , 
44.85, 0.041387, , 
44.88, 0.041530, , 
44.91, 0.041809, , 
44.94, 0.042012, , 
44.97, 0.042168, , 
45.00, 0.042257, , 
45.03, 0.042428, , 
45.06, 0.042552, , 
45.09, 0.042672, , 
45.12, 0.042748, , 
45.15, 0.042840, , 
45.18, 0.042900, , 
45.21, 0.042875, , 
45.24, 0.042866, , 
45.27, 0.042910, , 
45.30, 0.042942, , 
45.33, 0.042904, , 
45.36, 0.042815, , 
45.39, 0.042777, , 
45.42, 0.042659, , 
45.45, 0.042523, , 
45.48, 0.042469, , 
45.51, 0.042440, , 
45.54, 0.042415, , 
45.57, 0.042222, , 
45.60, 0.042079, , 
45.63, 0.042038, , 
45.66, 0.041927, , 
45.69, 0.041746, , 
45.72, 0.041641, , 
45.75, 0.041594, , 
45.78, 0.041502, , 
45.81, 0.041340, , 
45.84, 0.041162, , 
45.87, 0.041099, , 
45.90, 0.041042, , 
45.93, 0.040874, , 
45.96, 0.040753, , 
45.99, 0.040645, , 
46.02, 0.040525, , 
46.05, 0.040299, , 
46.08, 0.040141, , 
46.11, 0.040049, , 
46.14, 0.039859, , 
46.17, 0.039678, , 
46.20, 0.039592, , 
46.23, 0.039437, , 
46.26, 0.039208, , 
46.29, 0.039053, , 
46.32, 0.038932, , 
46.35, 0.038847, , 
46.38, 0.038669, , 
46.41, 0.038498, , 
46.44, 0.038434, , 
46.47, 0.038349, , 
46.50, 0.038184, , 
46.53, 0.038012, , 
46.56, 0.037971, , 
46.59, 0.037943, , 
46.62, 0.037876, , 
46.65, 0.037832, , 
46.68, 0.037828, , 
46.71, 0.037844, , 
46.74, 0.037695, , 
46.77, 0.037578, , 
46.80, 0.037499, , 
46.83, 0.037422, , 
46.86, 0.037330, , 
46.89, 0.037286, , 
46.92, 0.037239, , 
46.95, 0.037166, , 
46.98, 0.037032, , 
47.01, 0.036963, , 
47.04, 0.036893, , 
47.07, 0.036696, , 
47.10, 0.036528, , 
47.13, 0.036442, , 
47.16, 0.036398, , 
47.19, 0.036281, , 
47.22, 0.036020, , 
47.25, 0.035919, , 
47.28, 0.035884, , 
47.31, 0.035862, , 
47.34, 0.035786, , 
47.37, 0.035789, , 
47.40, 0.035840, , 
47.43, 0.035852, , 
47.46, 0.035802, , 
47.49, 0.035802, , 
47.52, 0.035805, , 
47.55, 0.035684, , 
47.58, 0.035542, , 
47.61, 0.035418, , 
47.64, 0.035405, , 
47.67, 0.035335, , 
47.70, 0.035253, , 
47.73, 0.035300, , 
47.76, 0.035297, , 
47.79, 0.035294, , 
47.82, 0.035253, , 
47.85, 0.035288, , 
47.88, 0.035323, , 
47.91, 0.035291, , 
47.94, 0.035247, , 
47.97, 0.035250, , 
47.97, 0.035243, 15, 0.584
48.00, 0.035288, , 
48.03, 0.035392, , 
48.06, 0.035459, , 
48.09, 0.035614, , 
48.12, 0.035741, , 
48.15, 0.035738, , 
48.18, 0.035830, , 
48.21, 0.035992, , 
48.24, 0.036055, , 
48.27, 0.036166, , 
48.30, 0.036265, , 
48.33, 0.036426, , 
48.36, 0.036576, , 
48.39, 0.036702, , 
48.42, 0.036760, , 
48.45, 0.036829, , 
48.48, 0.037032, , 
48.51, 0.037134, , 
48.54, 0.037223, , 
48.57, 0.037346, , 
48.60, 0.037486, , 
48.63, 0.037565, , 
48.66, 0.037711, , 
48.69, 0.037781, , 
48.72, 0.037860, , 
48.75, 0.037965, , 
48.78, 0.038152, , 
48.82, 0.038311, , 
48.84, 0.038320, , 
48.87, 0.038292, , 
48.90, 0.038365, , 
48.93, 0.038526, , 
48.96, 0.038685, , 
48.99, 0.038748, , 
49.02, 0.038847, , 
49.05, 0.038945, , 
49.08, 0.038932, , 
49.11, 0.038866, , 
49.14, 0.038885, , 
49.17, 0.038939, , 
49.20, 0.038977, , 
49.23, 0.039069, , 
49.26, 0.039246, , 
49.29, 0.039399, , 
49.32, 0.039437, , 
49.35, 0.039392, , 
49.38, 0.039427, , 
49.41, 0.039453, , 
49.44, 0.039430, , 
49.47, 0.039405, , 
49.50, 0.039449, , 
49.53, 0.039443, , 
49.56, 0.039456, , 
49.59, 0.039446, , 
49.62, 0.039433, , 
49.65, 0.039440, , 
49.68, 0.039411, , 
49.71, 0.039411, , 
49.74, 0.039433, , 
49.77, 0.039446, , 
49.80, 0.039408, , 
49.83, 0.039395, , 
49.86, 0.039414, , 
49.89, 0.039462, , 
49.92, 0.039405, , 
49.95, 0.039256, , 
49.98, 0.039167, , 
50.01, 0.039075, , 
50.04, 0.038980, , 
50.07, 0.038942, , 
50.10, 0.038878, , 
50.13, 0.038752, , 
50.16, 0.038555, , 
50.19, 0.038504, , 
50.22, 0.038460, , 
50.25, 0.038250, , 
50.28, 0.038082, , 
50.31, 0.037990, , 
50.34, 0.037809, , 
50.37, 0.037638, , 
50.40, 0.037502, , 
50.43, 0.037451, , 
50.46, 0.037369, , 
50.49, 0.037194, , 
50.52, 0.037061, , 
50.55, 0.036975, , 
50.58, 0.036912, , 
50.61, 0.036715, , 
50.64, 0.036541, , 
50.67, 0.036461, , 
50.70, 0.036471, , 
50.73, 0.036404, , 
50.76, 0.036344, , 
50.79, 0.036281, , 
50.82, 0.036176, , 
50.85, 0.036008, , 
50.88, 0.035922, , 
50.91, 0.035922, , 
50.94, 0.035913, , 
50.97, 0.035817, , 
51.00, 0.035697, , 
51.03, 0.035583, , 
51.06, 0.035481, , 
51.09, 0.035380, , 
51.12, 0.035345, , 
51.15, 0.035386, , 
51.18, 0.035373, 16, 0.586
51.18, 0.035348, , 
51.21, 0.035313, , 
51.24, 0.035332, , 
51.27, 0.035358, , 
51.30, 0.035424, , 
51.33, 0.035313, , 
51.36, 0.035183, , 
51.39, 0.035078, , 
51.42, 0.034945, , 
51.46, 0.034847, , 
51.48, 0.034809, , 
51.51, 0.034933, , 
51.54, 0.035059, , 
51.57, 0.035177, , 
51.60, 0.035256, , 
51.63, 0.035326, , 
51.67, 0.035316, , 
51.69, 0.035250, , 
51.72, 0.035294, , 
51.75, 0.035313, , 
51.78, 0.035294, , 
51.81, 0.035297, , 
51.84, 0.035313, , 
51.87, 0.035316, , 
51.90, 0.035389, , 
51.93, 0.035469, , 
51.96, 0.035634, , 
51.99, 0.035732, , 
52.02, 0.035754, , 
52.05, 0.035738, , 
52.08, 0.035751, , 
52.11, 0.035805, , 
52.14, 0.035805, , 
52.17, 0.035906, , 
52.20, 0.036106, , 
52.23, 0.036223, , 
52.26, 0.036265, , 
52.29, 0.036265, , 
52.32, 0.036344, , 
52.35, 0.036411, , 
52.38, 0.036335, , 
52.41, 0.036328, , 
52.44, 0.036341, , 
52.47, 0.036392, , 
52.50, 0.036354, , 
52.53, 0.036287, , 
52.56, 0.036392, , 
52.59, 0.036369, , 
52.62, 0.036350, , 
52.65, 0.036417, , 
52.68, 0.036620, , 
52.71, 0.036696, , 
52.74, 0.036731, , 
52.77, 0.036807, , 
52.80, 0.036852, , 
52.83, 0.036848, , 
52.86, 0.036807, , 
52.89, 0.036813, , 
52.92, 0.036848, , 
52.95, 0.036969, , 
52.98, 0.037118, , 
53.01, 0.037251, , 
53.04, 0.037340, , 
53.07, 0.037384, , 
53.10, 0.037353, , 
53.13, 0.037346, , 
53.16, 0.037394, , 
53.19, 0.037369, , 
53.22, 0.037337, , 
53.25, 0.037369, , 
53.28, 0.037350, , 
53.31, 0.037324, , 
53.34, 0.037229, , 
53.37, 0.037131, , 
53.40, 0.037032, , 
53.43, 0.036921, , 
53.46, 0.036845, , 
53.49, 0.036864, , 
53.52, 0.036845, , 
53.55, 0.036763, , 
53.58, 0.036696, , 
53.61, 0.036595, , 
53.64, 0.036477, , 
53.67, 0.036369, , 
53.70, 0.036268, , 
53.73, 0.036246, , 
53.76, 0.036138, , 
53.79, 0.035967, , 
53.82, 0.035859, , 
53.85, 0.035878, , 
53.88, 0.035875, , 
53.91, 0.035754, , 
53.94, 0.035646, , 
53.97, 0.035573, , 
54.00, 0.035453, , 
54.03, 0.035345, , 
54.06, 0.035278, , 
54.09, 0.035281, , 
54.13, 0.035259, , 
54.15, 0.035247, , 
54.18, 0.035259, , 
54.21, 0.035294, , 
54.24, 0.035278, , 
54.27, 0.035231, , 
54.30, 0.035316, , 
54.33, 0.035380, , 
54.36, 0.035377, , 
54.38, 0.035342, 17, 0.587
54.39, 0.035332, , 
54.42, 0.035291, , 
54.45, 0.035326, , 
54.48, 0.035389, , 
54.51, 0.035316, , 
54.54, 0.035332, , 
54.57, 0.035367, , 
54.60, 0.035358, , 
54.63, 0.035300, , 
54.66, 0.035310, , 
54.69, 0.035335, , 
54.72, 0.035310, , 
54.75, 0.035285, , 
54.78, 0.035313, , 
54.81, 0.035335, , 
54.84, 0.035332, , 
54.87, 0.035266, , 
54.90, 0.035316, , 
54.93, 0.035307, , 
54.96, 0.035256, , 
54.99, 0.035243, , 
55.02, 0.035291, , 
55.05, 0.035316, , 
55.08, 0.035323, , 
55.11, 0.035291, , 
55.14, 0.035339, , 
55.17, 0.035332, , 
55.20, 0.035256, , 
55.23, 0.035253, , 
55.26, 0.035297, , 
55.29, 0.035310, , 
55.32, 0.035294, , 
55.36, 0.035281, , 
55.38, 0.035316, , 
55.41, 0.035342, , 
55.44, 0.035262, , 
55.47, 0.035266, , 
55.50, 0.035342, , 
55.53, 0.035345, , 
55.56, 0.035310, , 
55.59, 0.035272, , 
55.62, 0.035307, , 
55.65, 0.035323, , 
55.68, 0.035297, , 
55.71, 0.035291, , 
55.74, 0.035440, , 
55.77, 0.035557, , 
55.80, 0.035640, , 
55.83, 0.035700, , 
55.86, 0.035789, , 
55.89, 0.035792, , 
55.92, 0.035776, , 
55.95, 0.035738, , 
55.98, 0.035754, , 
56.01, 0.035817, , 
56.04, 0.035770, , 
56.07, 0.035773, , 
56.10, 0.035830, , 
56.13, 0.035719, , 
56.16, 0.035538, , 
56.19, 0.035450, , 
56.22, 0.035377, , 
56.25, 0.035269, , 
56.28, 0.035253, , 
56.31, 0.035269, , 
56.34, 0.035316, , 
56.37, 0.035326, , 
56.40, 0.035253, , 
56.43, 0.035269, , 
56.46, 0.035250, , 
56.49, 0.035228, , 
56.52, 0.035256, , 
56.55, 0.035291, , 
56.58, 0.035281, , 
56.61, 0.035247, , 
56.64, 0.035269, , 
56.67, 0.035269, , 
56.70, 0.035161, , 
56.73, 0.034967, , 
56.76, 0.034894, , 
56.80, 0.034860, , 
56.82, 0.034821, , 
56.85, 0.034802, , 
56.88, 0.034768, , 
56.91, 0.034790, , 
56.94, 0.034783, , 
56.97, 0.034755, , 
57.00, 0.034787, , 
57.03, 0.034837, , 
57.06, 0.034799, , 
57.09, 0.034755, , 
57.12, 0.034758, , 
57.15, 0.034790, , 
57.18, 0.034790, , 
57.21, 0.034755, , 
57.24, 0.034758, , 
57.27, 0.034815, , 
57.30, 0.034834, , 
57.33, 0.034758, , 
57.36, 0.034726, , 
57.39, 0.034790, , 
57.42, 0.034774, , 
57.45, 0.034758, , 
57.48, 0.034872, , 
57.51, 0.034872, , 
57.54, 0.034799, , 
57.57, 0.034755, , 
57.58, 0.034783, 18, 0.585
57.60, 0.034793, , 
57.63, 0.034790, , 
57.66, 0.034768, , 
57.69, 0.034793, , 
57.72, 0.034872, , 
57.75, 0.034809, , 
57.78, 0.034733, , 
57.81, 0.034739, , 
57.84, 0.034745, , 
57.87, 0.034796, , 
57.90, 0.034749, , 
57.93, 0.034809, , 
57.96, 0.034812, , 
57.99, 0.034799, , 
58.03, 0.034780, , 
58.05, 0.034752, , 
58.08, 0.034783, , 
58.11, 0.034774, , 
58.14, 0.034720, , 
58.17, 0.034714, , 
58.20, 0.034742, , 
58.24, 0.034787, , 
58.26, 0.034698, , 
58.29, 0.034511, , 
58.32, 0.034457, , 
58.35, 0.034384, , 
58.38, 0.034317, , 
58.41, 0.034260, , 
58.44, 0.034263, , 
58.47, 0.034317, , 
58.50, 0.034244, , 
58.53, 0.034228, , 
58.56, 0.034311, , 
58.59, 0.034276, , 
58.62, 0.034241, , 
58.65, 0.034232, , 
58.68, 0.034270, , 
58.71, 0.034266, , 
58.74, 0.034232, , 
58.77, 0.034209, , 
58.80, 0.034117, , 
58.83, 0.033924, , 
58.86, 0.033829, , 
58.89, 0.033762, , 
58.92, 0.033778, , 
58.95, 0.033746, , 
58.98, 0.033734, , 
59.01, 0.033730, , 
59.04, 0.033762, , 
59.07, 0.033749, , 
59.10, 0.033714, , 
59.13, 0.033695, , 
59.16, 0.033743, , 
59.19, 0.033753, , 
59.22, 0.033730, , 
59.26, 0.033734, , 
59.28, 0.033759, , 
59.31, 0.033705, , 
59.34, 0.033689, , 
59.37, 0.033759, , 
59.40, 0.033737, , 
59.43, 0.033686, , 
59.47, 0.033718, , 
59.49, 0.033762, , 
59.52, 0.033768, , 
59.55, 0.033727, , 
59.58, 0.033683, , 
59.61, 0.033705, , 
59.64, 0.033746, , 
59.68, 0.033711, , 
59.70, 0.033721, , 
59.73, 0.033718, , 
59.76, 0.033734, , 
59.79, 0.033705, , 
59.82, 0.033695, , 
59.85, 0.033762, , 
59.88, 0.033743, , 
59.91, 0.033718, , 
59.94, 0.033724, , 
59.97, 0.033749, , 
60.00, 0.033797, , 
60.03, 0.033724, , 
60.06, 0.033711, , 
60.09, 0.033762, , 
60.12, 0.033765, , 
60.15, 0.033718, , 
60.18, 0.033705, , 
60.21, 0.033772, , 
60.24, 0.033772, , 
60.27, 0.033743, , 
60.30, 0.033737, , 
60.33, 0.033759, , 
60.36, 0.033737, , 
60.39, 0.033718, , 
60.42, 0.033740, , 
60.45, 0.033689, , 
60.48, 0.033531, , 
60.51, 0.033359, , 
60.54, 0.033280, , 
60.57, 0.033283, , 
60.60, 0.033217, , 
60.63, 0.033172, , 
60.66, 0.033197, , 
60.70, 0.033223, , 
60.72, 0.033210, , 
60.75, 0.033194, , 
60.78, 0.033163, 19, 0.585
60.78, 0.033163, , 
60.81, 0.033191, , 
60.84, 0.033251, , 
60.87, 0.033229, , 
60.90, 0.033213, , 
60.93, 0.033239, , 
60.96, 0.033255, , 
60.99, 0.033188, , 
61.02, 0.033137, , 
61.05, 0.033153, , 
61.08, 0.033178, , 
61.11, 0.033156, , 
61.14, 0.033178, , 
61.17, 0.033134, , 
61.20, 0.032956, , 
61.23, 0.032798, , 
61.26, 0.032760, , 
61.29, 0.032734, , 
61.32, 0.032709, , 
61.35, 0.032671, , 
61.38, 0.032671, , 
61.41, 0.032706, , 
61.44, 0.032693, , 
61.47, 0.032677, , 
61.50, 0.032690, , 
61.53, 0.032706, , 
61.56, 0.032693, , 
61.59, 0.032655, , 
61.62, 0.032677, , 
61.65, 0.032715, , 
61.68, 0.032680, , 
61.71, 0.032684, , 
61.74, 0.032696, , 
61.77, 0.032677, , 
61.80, 0.032639, , 
61.83, 0.032674, , 
61.86, 0.032703, , 
61.89, 0.032712, , 
61.92, 0.032687, , 
61.95, 0.032630, , 
61.98, 0.032699, , 
62.01, 0.032719, , 
62.04, 0.032674, , 
62.07, 0.032649, , 
62.10, 0.032573, , 
62.13, 0.032503, , 
62.16, 0.032322, , 
62.19, 0.032198, , 
62.22, 0.032195, , 
62.25, 0.032224, , 
62.28, 0.032233, , 
62.31, 0.032217, , 
62.34, 0.032217, , 
62.37, 0.032211, , 
62.40, 0.032195, , 
62.43, 0.032201, , 
62.46, 0.032243, , 
62.49, 0.032255, , 
62.52, 0.032189, , 
62.55, 0.032227, , 
62.58, 0.032259, , 
62.61, 0.032268, , 
62.64, 0.032208, , 
62.67, 0.032208, , 
62.70, 0.032259, , 
62.73, 0.032176, , 
62.76, 0.032065, , 
62.79, 0.031922, , 
62.82, 0.031906, , 
62.85, 0.031818, , 
62.88, 0.031761, , 
62.91, 0.031815, , 
62.95, 0.031808, , 
62.97, 0.031745, , 
63.00, 0.031694, , 
63.03, 0.031726, , 
63.06, 0.031792, , 
63.09, 0.031694, , 
63.12, 0.031716, , 
63.15, 0.031786, , 
63.18, 0.031783, , 
63.21, 0.031748, , 
63.24, 0.031697, , 
63.27, 0.031745, , 
63.30, 0.031795, , 
63.33, 0.031761, , 
63.36, 0.031748, , 
63.39, 0.031780, , 
63.42, 0.031789, , 
63.45, 0.031742, , 
63.48, 0.031710, , 
63.51, 0.031729, , 
63.54, 0.031757, , 
63.57, 0.031742, , 
63.60, 0.031694, , 
63.63, 0.031716, , 
63.66, 0.031732, , 
63.69, 0.031700, , 
63.72, 0.031723, , 
63.75, 0.031735, , 
63.78, 0.031745, , 
63.81, 0.031723, , 
63.84, 0.031703, , 
63.87, 0.031732, , 
63.90, 0.031742, , 
63.93, 0.031703, , 
63.96, 0.031710, , 
63.98, 0.031732, 20, 0.586
63.99, 0.031773, , 
64.02, 0.031751, , 
64.05, 0.031707, , 
64.08, 0.031716, , 
64.11, 0.031757, , 
64.14, 0.031716, , 
64.17, 0.031710, , 
64.20, 0.031726, , 
64.23, 0.031656, , 
64.26, 0.031472, , 
64.29, 0.031297, , 
64.32, 0.031244, , 
64.35, 0.031256, , 
64.38, 0.031234, , 
64.41, 0.031177, , 
64.44, 0.031152, , 
64.47, 0.031072, , 
64.50, 0.030933, , 
64.53, 0.030774, , 
64.56, 0.030733, , 
64.59, 0.030727, , 
64.62, 0.030727, , 
64.65, 0.030676, , 
64.68, 0.030698, , 
64.71, 0.030714, , 
64.74, 0.030685, , 
64.77, 0.030663, , 
64.80, 0.030704, , 
64.83, 0.030701, , 
64.86, 0.030701, , 
64.89, 0.030660, , 
64.92, 0.030695, , 
64.95, 0.030727, , 
64.98, 0.030654, , 
65.01, 0.030669, , 
65.04, 0.030688, , 
65.07, 0.030720, , 
65.10, 0.030647, , 
65.13, 0.030489, , 
65.16, 0.030397, , 
65.19, 0.030295, , 
65.22, 0.030203, , 
65.25, 0.030168, , 
65.28, 0.030194, , 
65.31, 0.030210, , 
65.34, 0.030140, , 
65.37, 0.030159, , 
65.40, 0.030200, , 
65.43, 0.030200, , 
65.46, 0.030152, , 
65.49, 0.030187, , 
65.52, 0.030222, , 
65.55, 0.030200, , 
65.58, 0.030156, , 
65.61, 0.030190, , 
65.64, 0.030241, , 
65.67, 0.030203, , 
65.70, 0.030162, , 
65.73, 0.030146, , 
65.76, 0.030206, , 
65.79, 0.030203, , 
65.82, 0.030168, , 
65.85, 0.030184, , 
65.88, 0.030143, , 
65.91, 0.030010, , 
65.94, 0.029819, , 
65.97, 0.029762, , 
66.00, 0.029750, , 
66.03, 0.029692, , 
66.06, 0.029664, , 
66.09, 0.029686, , 
66.12, 0.029718, , 
66.15, 0.029718, , 
66.18, 0.029667, , 
66.21, 0.029670, , 
66.24, 0.029699, , 
66.27, 0.029718, , 
66.30, 0.029677, , 
66.33, 0.029661, , 
66.36, 0.029718, , 
66.39, 0.029727, , 
66.42, 0.029673, , 
66.45, 0.029689, , 
66.48, 0.029734, , 
66.51, 0.029715, , 
66.54, 0.029683, , 
66.57, 0.029692, , 
66.60, 0.029721, , 
66.63, 0.029686, , 
66.66, 0.029661, , 
66.69, 0.029670, , 
66.72, 0.029740, , 
66.75, 0.029712, , 
66.78, 0.029667, , 
66.81, 0.029680, , 
66.85, 0.029686, , 
66.87, 0.029677, , 
66.90, 0.029686, , 
66.93, 0.029715, , 
66.96, 0.029737, , 
66.99, 0.029645, , 
67.02, 0.029486, , 
67.05, 0.029420, , 
67.08, 0.029382, , 
67.11, 0.029242, , 
67.14, 0.029156, , 
67.17, 0.029179, , 
67.18, 0.029198, 21, 0.586
67.20, 0.029210, , 
67.23, 0.029147, , 
67.26, 0.029122, , 
67.29, 0.029188, , 
67.32, 0.029223, , 
67.35, 0.029188, , 
67.38, 0.029172, , 
67.41, 0.029169, , 
67.44, 0.029083, , 
67.47, 0.028922, , 
67.50, 0.028814, , 
67.53, 0.028776, , 
67.56, 0.028735, , 
67.59, 0.028681, , 
67.62, 0.028677, , 
67.65, 0.028687, , 
67.68, 0.028668, , 
67.71, 0.028643, , 
67.74, 0.028605, , 
67.77, 0.028681, , 
67.80, 0.028706, , 
67.83, 0.028687, , 
67.86, 0.028696, , 
67.89, 0.028684, , 
67.92, 0.028709, , 
67.95, 0.028649, , 
67.98, 0.028684, , 
68.01, 0.028703, , 
68.04, 0.028674, , 
68.07, 0.028639, , 
68.10, 0.028646, , 
68.13, 0.028671, , 
68.16, 0.028649, , 
68.19, 0.028643, , 
68.22, 0.028643, , 
68.25, 0.028687, , 
68.28, 0.028677, , 
68.31, 0.028658, , 
68.34, 0.028620, , 
68.37, 0.028471, , 
68.40, 0.028341, , 
68.43, 0.028221, , 
68.46, 0.028186, , 
68.49, 0.028224, , 
68.52, 0.028135, , 
68.55, 0.028097, , 
68.58, 0.028186, , 
68.61, 0.028160, , 
68.64, 0.028173, , 
68.67, 0.028160, , 
68.70, 0.028151, , 
68.73, 0.028176, , 
68.76, 0.028151, , 
68.79, 0.028145, , 
68.82, 0.028116, , 
68.85, 0.028129, , 
68.88, 0.028151, , 
68.91, 0.028145, , 
68.94, 0.028113, , 
68.97, 0.028179, , 
69.00, 0.028164, , 
69.03, 0.028135, , 
69.06, 0.028157, , 
69.09, 0.028186, , 
69.12, 0.028176, , 
69.15, 0.028148, , 
69.18, 0.028278, , 
69.21, 0.028481, , 
69.24, 0.028551, , 
69.27, 0.028576, , 
69.30, 0.028624, , 
69.33, 0.028662, , 
69.36, 0.028646, , 
69.39, 0.028617, , 
69.42, 0.028611, , 
69.45, 0.028643, , 
69.48, 0.028665, , 
69.52, 0.028630, , 
69.54, 0.028649, , 
69.57, 0.028706, , 
69.60, 0.028716, , 
69.63, 0.028592, , 
69.66, 0.028544, , 
69.69, 0.028471, , 
69.72, 0.028332, , 
69.75, 0.028218, , 
69.78, 0.028145, , 
69.81, 0.028189, , 
69.84, 0.028107, , 
69.87, 0.028126, , 
69.90, 0.028145, , 
69.93, 0.028183, , 
69.96, 0.028157, , 
69.99, 0.028094, , 
70.02, 0.028157, , 
70.05, 0.028119, , 
70.08, 0.028084, , 
70.11, 0.028129, , 
70.14, 0.028167, , 
70.17, 0.028205, , 
70.20, 0.028183, , 
70.23, 0.028110, , 
70.26, 0.028138, , 
70.29, 0.028151, , 
70.32, 0.028138, , 
70.35, 0.028094, , 
70.38, 0.028129, 22, 0.586
70.39, 0.028138, , 
70.41, 0.028173, , 
70.44, 0.028129, , 
70.47, 0.028183, , 
70.50, 0.028202, , 
70.53, 0.028160, , 
70.56, 0.027970, , 
70.59, 0.027872, , 
70.62, 0.027821, , 
70.65, 0.027742, , 
70.68, 0.027672, , 
70.71, 0.027647, , 
70.74, 0.027688, , 
70.77, 0.027729, , 
70.80, 0.027685, , 
70.83, 0.027650, , 
70.86, 0.027669, , 
70.89, 0.027735, , 
70.92, 0.027685, , 
70.95, 0.027542, , 
70.98, 0.027431, , 
71.01, 0.027307, , 
71.04, 0.027247, , 
71.07, 0.027193, , 
71.10, 0.027203, , 
71.13, 0.027218, , 
71.16, 0.027174, , 
71.19, 0.027158, , 
71.22, 0.027199, , 
71.25, 0.027215, , 
71.28, 0.027161, , 
71.31, 0.027164, , 
71.34, 0.027199, , 
71.37, 0.027209, , 
71.40, 0.027174, , 
71.43, 0.027218, , 
71.46, 0.027275, , 
71.49, 0.027247, , 
71.52, 0.027193, , 
71.55, 0.027206, , 
71.58, 0.027237, , 
71.61, 0.027203, , 
71.64, 0.027164, , 
71.67, 0.027139, , 
71.70, 0.027149, , 
71.73, 0.027082, , 
71.76, 0.026898, , 
71.79, 0.026797, , 
71.82, 0.026768, , 
71.85, 0.026717, , 
71.88, 0.026676, , 
71.91, 0.026679, , 
71.94, 0.026692, , 
71.97, 0.026720, , 
72.00, 0.026676, , 
72.03, 0.026682, , 
72.06, 0.026714, , 
72.09, 0.026657, , 
72.12, 0.026663, , 
72.15, 0.026628, , 
72.18, 0.026530, , 
72.21, 0.026406, , 
72.24, 0.026264, , 
72.27, 0.026210, , 
72.30, 0.026270, , 
72.33, 0.026279, , 
72.36, 0.026200, , 
72.39, 0.026200, , 
72.42, 0.026270, , 
72.45, 0.026254, , 
72.48, 0.026181, , 
72.51, 0.026251, , 
72.54, 0.026235, , 
72.57, 0.026241, , 
72.60, 0.026238, , 
72.63, 0.026222, , 
72.66, 0.026257, , 
72.69, 0.026260, , 
72.72, 0.026181, , 
72.75, 0.026232, , 
72.78, 0.026248, , 
72.81, 0.026222, , 
72.84, 0.026187, , 
72.87, 0.026216, , 
72.90, 0.026219, , 
72.93, 0.026251, , 
72.96, 0.026216, , 
72.99, 0.026137, , 
73.02, 0.026096, , 
73.05, 0.025956, , 
73.08, 0.025835, , 
73.11, 0.025810, , 
73.14, 0.025810, , 
73.17, 0.025731, , 
73.20, 0.025709, , 
73.23, 0.025753, , 
73.26, 0.025753, , 
73.29, 0.025737, , 
73.32, 0.025696, , 
73.35, 0.025639, , 
73.38, 0.025696, , 
73.41, 0.025759, , 
73.44, 0.025715, , 
73.47, 0.025670, , 
73.50, 0.025740, , 
73.53, 0.025753, , 
73.56, 0.025718, , 
73.58, 0.025721, 23, 0.584
73.59, 0.025734, , 
73.62, 0.025728, , 
73.65, 0.025632, , 
73.68, 0.025483, , 
73.71, 0.025404, , 
73.74, 0.025382, , 
73.77, 0.025312, , 
73.80, 0.025252, , 
73.83, 0.025274, , 
73.86, 0.025309, , 
73.89, 0.025258, , 
73.92, 0.025201, , 
73.95, 0.025255, , 
73.98, 0.025280, , 
74.01, 0.025277, , 
74.04, 0.025239, , 
74.07, 0.025249, , 
74.10, 0.025287, , 
74.13, 0.025223, , 
74.16, 0.025211, , 
74.19, 0.025252, , 
74.22, 0.025261, , 
74.25, 0.025176, , 
74.28, 0.024963, , 
74.31, 0.024871, , 
74.34, 0.024884, , 
74.37, 0.024852, , 
74.41, 0.024846, , 
74.43, 0.024801, , 
74.46, 0.024770, , 
74.49, 0.024763, , 
74.52, 0.024744, , 
74.55, 0.024744, , 
74.58, 0.024779, , 
74.61, 0.024754, , 
74.64, 0.024738, , 
74.67, 0.024785, , 
74.70, 0.024805, , 
74.73, 0.024751, , 
74.76, 0.024744, , 
74.79, 0.024766, , 
74.82, 0.024817, , 
74.85, 0.024779, , 
74.88, 0.024719, , 
74.91, 0.024747, , 
74.94, 0.024776, , 
74.97, 0.024703, , 
75.00, 0.024722, , 
75.03, 0.024713, , 
75.06, 0.024751, , 
75.09, 0.024747, , 
75.12, 0.024738, , 
75.15, 0.024782, , 
75.18, 0.024808, , 
75.21, 0.024785, , 
75.24, 0.024747, , 
75.27, 0.024757, , 
75.30, 0.024805, , 
75.33, 0.024779, , 
75.36, 0.024757, , 
75.39, 0.024792, , 
75.42, 0.024820, , 
75.45, 0.024785, , 
75.48, 0.024760, , 
75.51, 0.024770, , 
75.54, 0.024808, , 
75.57, 0.024744, , 
75.60, 0.024776, , 
75.64, 0.024766, , 
75.66, 0.024782, , 
75.69, 0.024766, , 
75.72, 0.024773, , 
75.75, 0.024792, , 
75.78, 0.024852, , 
75.81, 0.024795, , 
75.85, 0.024741, , 
75.87, 0.024684, , 
75.90, 0.024570, , 
75.93, 0.024411, , 
75.96, 0.024405, , 
75.99, 0.024370, , 
76.02, 0.024360, , 
76.05, 0.024332, , 
76.08, 0.024272, , 
76.11, 0.024272, , 
76.14, 0.024307, , 
76.17, 0.024253, , 
76.20, 0.024268, , 
76.23, 0.024307, , 
76.26, 0.024310, , 
76.29, 0.024316, , 
76.32, 0.024237, , 
76.35, 0.024246, , 
76.38, 0.024240, , 
76.41, 0.024059, , 
76.44, 0.023935, , 
76.47, 0.023901, , 
76.50, 0.023901, , 
76.53, 0.023831, , 
76.56, 0.023777, , 
76.59, 0.023824, , 
76.62, 0.023805, , 
76.65, 0.023783, , 
76.68, 0.023770, , 
76.71, 0.023840, , 
76.74, 0.023828, , 
76.77, 0.023786, , 
76.78, 0.023796, 24, 0.586
76.80, 0.023805, , 
76.83, 0.023840, , 
76.86, 0.023878, , 
76.89, 0.023853, , 
76.92, 0.023770, , 
76.95, 0.023856, , 
76.98, 0.023843, , 
77.01, 0.023824, , 
77.04, 0.023767, , 
77.08, 0.023793, , 
77.10, 0.023847, , 
77.13, 0.023824, , 
77.16, 0.023755, , 
77.19, 0.023790, , 
77.22, 0.023853, , 
77.25, 0.023815, , 
77.28, 0.023793, , 
77.31, 0.023834, , 
77.34, 0.023872, , 
77.37, 0.023837, , 
77.40, 0.023828, , 
77.43, 0.023872, , 
77.46, 0.023853, , 
77.49, 0.023809, , 
77.52, 0.023818, , 
77.55, 0.023837, , 
77.58, 0.023888, , 
77.61, 0.023790, , 
77.64, 0.023647, , 
77.67, 0.023552, , 
77.70, 0.023409, , 
77.73, 0.023326, , 
77.76, 0.023314, , 
77.79, 0.023317, , 
77.82, 0.023384, , 
77.85, 0.023349, , 
77.88, 0.023320, , 
77.91, 0.023368, , 
77.94, 0.023374, , 
77.97, 0.023320, , 
78.00, 0.023326, , 
78.03, 0.023364, , 
78.06, 0.023377, , 
78.09, 0.023336, , 
78.12, 0.023330, , 
78.15, 0.023415, , 
78.18, 0.023368, , 
78.21, 0.023326, , 
78.24, 0.023368, , 
78.27, 0.023390, , 
78.31, 0.023387, , 
78.33, 0.023361, , 
78.36, 0.023361, , 
78.39, 0.023368, , 
78.42, 0.023434, , 
78.45, 0.023358, , 
78.48, 0.023311, , 
78.51, 0.023339, , 
78.54, 0.023368, , 
78.57, 0.023279, , 
78.60, 0.023282, , 
78.63, 0.023355, , 
78.66, 0.023288, , 
78.69, 0.023149, , 
78.72, 0.022981, , 
78.75, 0.022955, , 
78.78, 0.022914, , 
78.81, 0.022825, , 
78.84, 0.022803, , 
78.87, 0.022879, , 
78.90, 0.022901, , 
78.93, 0.022876, , 
78.96, 0.022835, , 
78.99, 0.022882, , 
79.02, 0.022863, , 
79.05, 0.022832, , 
79.08, 0.022835, , 
79.11, 0.022847, , 
79.14, 0.022860, , 
79.17, 0.022851, , 
79.20, 0.022870, , 
79.23, 0.022905, , 
79.26, 0.022889, , 
79.29, 0.022870, , 
79.33, 0.022889, , 
79.35, 0.022876, , 
79.38, 0.022870, , 
79.41, 0.022844, , 
79.44, 0.022901, , 
79.47, 0.022962, , 
79.50, 0.022968, , 
79.53, 0.022946, , 
79.56, 0.022911, , 
79.59, 0.022889, , 
79.62, 0.022914, , 
79.65, 0.022870, , 
79.68, 0.022876, , 
79.71, 0.022876, , 
79.75, 0.022841, , 
79.77, 0.022854, , 
79.80, 0.022930, , 
79.83, 0.022955, , 
79.86, 0.022886, , 
79.89, 0.022841, , 
79.92, 0.022936, , 
79.95, 0.022936, , 
79.98, 0.022892, 25, 0.585
79.98, 0.022895, , 
80.01, 0.022857, , 
80.04, 0.022914, , 
80.07, 0.023000, , 
80.10, 0.022930, , 
80.13, 0.022870, , 
80.16, 0.022905, , 
80.19, 0.022927, , 
80.22, 0.022901, , 
80.25, 0.022882, , 
80.28, 0.022911, , 
80.31, 0.022936, , 
80.34, 0.022905, , 
80.37, 0.022851, , 
80.40, 0.022886, , 
80.43, 0.022886, , 
80.46, 0.022851, , 
80.49, 0.022838, , 
80.52, 0.022743, , 
80.55, 0.022619, , 
80.58, 0.022530, , 
80.61, 0.022422, , 
80.64, 0.022429, , 
80.67, 0.022451, , 
80.70, 0.022359, , 
80.73, 0.022327, , 
80.77, 0.022368, , 
80.79, 0.022391, , 
80.82, 0.022311, , 
80.85, 0.022340, , 
80.88, 0.022381, , 
80.91, 0.022391, , 
80.94, 0.022362, , 
80.97, 0.022381, , 
81.00, 0.022410, , 
81.03, 0.022403, , 
81.06, 0.022353, , 
81.09, 0.022353, , 
81.12, 0.022403, , 
81.15, 0.022400, , 
81.18, 0.022372, , 
81.21, 0.022324, , 
81.24, 0.022359, , 
81.27, 0.022378, , 
81.30, 0.022353, , 
81.33, 0.022365, , 
81.36, 0.022384, , 
81.39, 0.022362, , 
81.42, 0.022308, , 
81.45, 0.022426, , 
81.48, 0.022543, , 
81.51, 0.022705, , 
81.54, 0.022768, , 
81.57, 0.022797, , 
81.60, 0.022832, , 
81.63, 0.022822, , 
81.66, 0.022790, , 
81.69, 0.022813, , 
81.72, 0.022889, , 
81.75, 0.022844, , 
81.78, 0.022822, , 
81.81, 0.022835, , 
81.84, 0.022847, , 
81.87, 0.022819, , 
81.90, 0.022679, , 
81.93, 0.022571, , 
81.96, 0.022518, , 
81.99, 0.022407, , 
82.02, 0.022334, , 
82.05, 0.022292, , 
82.08, 0.022368, , 
82.11, 0.022346, , 
82.14, 0.022286, , 
82.17, 0.022261, , 
82.21, 0.022321, , 
82.23, 0.022330, , 
82.26, 0.022280, , 
82.29, 0.022308, , 
82.32, 0.022388, , 
82.35, 0.022302, , 
82.38, 0.022286, , 
82.41, 0.022270, , 
82.44, 0.022330, , 
82.47, 0.022334, , 
82.50, 0.022229, , 
82.53, 0.022102, , 
82.56, 0.022016, , 
82.59, 0.021918, , 
82.62, 0.021813, , 
82.65, 0.021794, , 
82.68, 0.021845, , 
82.71, 0.021810, , 
82.74, 0.021756, , 
82.77, 0.021788, , 
82.80, 0.021826, , 
82.83, 0.021861, , 
82.86, 0.021794, , 
82.89, 0.021785, , 
82.92, 0.021829, , 
82.95, 0.021836, , 
82.98, 0.021807, , 
83.01, 0.021829, , 
83.04, 0.021861, , 
83.07, 0.021826, , 
83.10, 0.021782, , 
83.13, 0.021826, , 
83.16, 0.021874, , 
83.17, 0.021912, 26, 0.585
83.19, 0.021874, , 
83.22, 0.021810, , 
83.25, 0.021855, , 
83.28, 0.021902, , 
83.31, 0.021886, , 
83.34, 0.021851, , 
83.37, 0.021820, , 
83.40, 0.021826, , 
83.43, 0.021842, , 
83.46, 0.021798, , 
83.49, 0.021826, , 
83.52, 0.021877, , 
83.55, 0.021794, , 
83.58, 0.021766, , 
83.61, 0.021813, , 
83.65, 0.021820, , 
83.67, 0.021804, , 
83.70, 0.021785, , 
83.73, 0.021851, , 
83.76, 0.021915, , 
83.79, 0.021883, , 
83.82, 0.021813, , 
83.85, 0.021829, , 
83.88, 0.021874, , 
83.91, 0.021820, , 
83.94, 0.021779, , 
83.97, 0.021826, , 
84.00, 0.021820, , 
84.03, 0.021807, , 
84.06, 0.021747, , 
84.09, 0.021725, , 
84.12, 0.021836, , 
84.15, 0.021785, , 
84.18, 0.021763, , 
84.21, 0.021804, , 
84.24, 0.021817, , 
84.27, 0.021817, , 
84.30, 0.021791, , 
84.33, 0.021791, , 
84.36, 0.021832, , 
84.39, 0.021759, , 
84.42, 0.021759, , 
84.45, 0.021794, , 
84.48, 0.021842, , 
84.51, 0.021769, , 
84.54, 0.021769, , 
84.57, 0.021810, , 
84.60, 0.021763, , 
84.63, 0.021798, , 
84.66, 0.021769, , 
84.69, 0.021785, , 
84.72, 0.021791, , 
84.75, 0.021750, , 
84.78, 0.021810, , 
84.81, 0.021867, , 
84.84, 0.021826, , 
84.87, 0.021753, , 
84.90, 0.021788, , 
84.93, 0.021817, , 
84.96, 0.021829, , 
84.99, 0.021788, , 
85.02, 0.021775, , 
85.05, 0.021801, , 
85.08, 0.021807, , 
85.11, 0.021740, , 
85.14, 0.021750, , 
85.17, 0.021820, , 
85.20, 0.021813, , 
85.23, 0.021763, , 
85.26, 0.021839, , 
85.29, 0.021842, , 
85.32, 0.021794, , 
85.35, 0.021772, , 
85.38, 0.021807, , 
85.41, 0.021880, , 
85.44, 0.021832, , 
85.47, 0.021804, , 
85.50, 0.021788, , 
85.53, 0.021829, , 
85.56, 0.021813, , 
85.59, 0.021785, , 
85.62, 0.021788, , 
85.65, 0.021832, , 
85.68, 0.021772, , 
85.71, 0.021763, , 
85.74, 0.021813, , 
85.77, 0.021832, , 
85.80, 0.021798, , 
85.83, 0.021763, , 
85.86, 0.021798, , 
85.89, 0.021861, , 
85.92, 0.021851, , 
85.95, 0.021785, , 
85.98, 0.021791, , 
86.01, 0.021842, , 
86.04, 0.021820, , 
86.07, 0.021744, , 
86.11, 0.021734, , 
86.13, 0.021804, , 
86.16, 0.021690, , 
86.19, 0.021706, , 
86.22, 0.021706, , 
86.25, 0.021740, , 
86.28, 0.021725, , 
86.31, 0.021756, , 
86.34, 0.021810, , 
86.37, 0.021836, , 
86.38, 0.021829, 27, 0.586
86.40, 0.021836, , 
86.43, 0.021826, , 
86.46, 0.021836, , 
86.49, 0.021851, , 
86.52, 0.021832, , 
86.55, 0.021810, , 
86.58, 0.021813, , 
86.61, 0.021817, , 
86.64, 0.021766, , 
86.67, 0.021756, , 
86.70, 0.021813, , 
86.73, 0.021798, , 
86.76, 0.021775, , 
86.79, 0.021782, , 
86.82, 0.021791, , 
86.85, 0.021829, , 
86.88, 0.021798, , 
86.91, 0.021782, , 
86.94, 0.021826, , 
86.97, 0.021842, , 
87.00, 0.021785, , 
87.03, 0.021798, , 
87.06, 0.021836, , 
87.09, 0.021855, , 
87.12, 0.021801, , 
87.15, 0.021785, , 
87.18, 0.021801, , 
87.21, 0.021836, , 
87.24, 0.021763, , 
87.27, 0.021744, , 
87.30, 0.021788, , 
87.33, 0.021788, , 
87.36, 0.021804, , 
87.39, 0.021782, , 
87.42, 0.021848, , 
87.45, 0.021851, , 
87.48, 0.021813, , 
87.51, 0.021769, , 
87.55, 0.021839, , 
87.57, 0.021823, , 
87.60, 0.021782, , 
87.63, 0.021791, , 
87.66, 0.021858, , 
87.69, 0.021810, , 
87.72, 0.021750, , 
87.75, 0.021817, , 
87.78, 0.021836, , 
87.81, 0.021861, , 
87.84, 0.021810, , 
87.87, 0.021813, , 
87.90, 0.021832, , 
87.93, 0.021845, , 
87.96, 0.021779, , 
87.99, 0.021591, , 
88.02, 0.021563, , 
88.05, 0.021449, , 
88.08, 0.021268, , 
88.11, 0.021252, , 
88.14, 0.021306, , 
88.17, 0.021296, , 
88.20, 0.021338, , 
88.23, 0.021461, , 
88.26, 0.021658, , 
88.29, 0.021893, , 
88.32, 0.022013, , 
88.35, 0.022140, , 
88.38, 0.022267, , 
88.41, 0.022438, , 
88.44, 0.022556, , 
88.47, 0.022651, , 
88.50, 0.022794, , 
88.53, 0.022987, , 
88.56, 0.026121, , 
88.59, 0.036712, , 
88.62, 0.055769, , 
88.65, 0.080573, , 
88.68, 0.098666, , 
88.71, 0.113964, , 
88.74, 0.121257, , 
88.77, 0.127096, , 
88.80, 0.131382, , 
88.83, 0.133821, , 
88.86, 0.135943, , 
88.89, 0.136882, , 
88.92, 0.138645, , 
88.95, 0.140168, , 
88.98, 0.141684, , 
89.01, 0.143400, , 
89.04, 0.144850, , 
89.07, 0.145478, , 
89.10, 0.140063, , 
89.13, 0.125910, , 
89.16, 0.106352, , 
89.19, 0.087644, , 
89.22, 0.073072, , 
89.25, 0.061976, , 
89.28, 0.056610, , 
89.31, 0.053574, , 
89.35, 0.052543, , 
89.37, 0.052239, , 
89.40, 0.052321, , 
89.43, 0.052695, , 
89.46, 0.053016, , 
89.49, 0.053057, , 
89.52, 0.053047, , 
89.55, 0.053079, , 
89.58, 0.053155, , 
89.61, 0.053282, , 
89.64, 0.053431, , 
89.67, 0.053660, , 
89.70, 0.053894, , 
89.73, 0.054072, , 
89.76, 0.054231, , 
89.79, 0.054367, , 
89.82, 0.054472, , 
89.85, 0.054484, , 
89.88, 0.054475, , 
89.91, 0.054497, , 
89.94, 0.054538, , 
89.97, 0.054551, , 
90.00, 0.054668, , 
90.03, 0.054836, , 
90.06, 0.054963, , 
90.09, 0.054989, , 
90.12, 0.054979, , 
90.15, 0.054887, , 
90.18, 0.054665, , 
90.21, 0.054250, , 
90.24, 0.053955, , 
90.27, 0.053790, , 
90.30, 0.053571, , 
90.33, 0.053282, , 
90.36, 0.053013, , 
90.39, 0.052829, , 
90.42, 0.052670, , 
90.45, 0.052572, , 
90.48, 0.052556, , 
90.51, 0.052600, , 
90.54, 0.052692, , 
90.58, 0.052768, , 
90.60, 0.052898, , 
90.63, 0.053051, , 
90.66, 0.053330, , 
90.69, 0.053539, , 
90.72, 0.053739, , 
90.75, 0.053920, , 
90.78, 0.053980, , 
90.81, 0.054005, , 
90.84, 0.054120, , 
90.87, 0.054392, , 
90.90, 0.054662, , 
90.93, 0.054874, , 
90.96, 0.055166, , 
90.99, 0.055344, , 
91.02, 0.055401, , 
91.05, 0.055261, , 
91.08, 0.055106, , 
91.11, 0.055116, , 
91.14, 0.055128, , 
91.17, 0.055265, , 
91.20, 0.055518, , 
91.23, 0.055747, , 
91.26, 0.055886, , 
91.29, 0.056048, , 
91.32, 0.056143, , 
91.35, 0.056410, , 
91.38, 0.056546, , 
91.41, 0.056486, , 
91.44, 0.056378, , 
91.47, 0.056245, , 
91.50, 0.056102, , 
91.53, 0.056016, , 
91.56, 0.055988, , 
91.60, 0.056039, , 
91.62, 0.055985, , 
91.65, 0.055870, , 
91.68, 0.055721, , 
91.71, 0.055744, , 
91.74, 0.055905, , 
91.77, 0.056112, , 
91.80, 0.056356, , 
91.83, 0.056486, , 
91.86, 0.056368, , 
91.89, 0.056121, , 
91.92, 0.055975, , 
91.95, 0.055972, , 
91.98, 0.055934, , 
92.01, 0.055804, , 
92.04, 0.055718, , 
92.07, 0.055601, , 
92.10, 0.055449, , 
92.13, 0.055319, , 
92.16, 0.055182, , 
92.19, 0.055116, , 
92.22, 0.054954, , 
92.25, 0.054538, , 
92.28, 0.054129, , 
92.31, 0.053552, , 
92.34, 0.053085, , 
92.37, 0.052787, , 
92.40, 0.052645, , 
92.43, 0.052622, , 
92.46, 0.052588, , 
92.49, 0.052521, , 
92.52, 0.052540, , 
92.55, 0.052597, , 
92.58, 0.052664, , 
92.61, 0.052892, , 
92.64, 0.053162, , 
92.67, 0.053380, , 
92.70, 0.053472, , 
92.73, 0.053396, , 
92.76, 0.053355, , 
92.79, 0.053492, , 
92.82, 0.053593, , 
92.85, 0.053637, , 
92.88, 0.053742, , 
92.91, 0.054015, , 
92.94, 0.054291, , 
92.97, 0.054519, , 
93.00, 0.054652, , 
93.03, 0.054671, , 
93.06, 0.054729, , 
93.09, 0.054760, , 
93.12, 0.054706, , 
93.15, 0.054551, , 
93.18, 0.054405, , 
93.21, 0.054351, , 
93.24, 0.054449, , 
93.27, 0.054640, , 
93.30, 0.054789, , 
93.33, 0.054846, , 
93.36, 0.055043, , 
93.39, 0.055185, , 
93.42, 0.055249, , 
93.45, 0.055312, , 
93.48, 0.055417, , 
93.51, 0.055579, , 
93.54, 0.055728, , 
93.57, 0.055905, , 
93.60, 0.056089, , 
93.63, 0.056324, , 
93.66, 0.056635, , 
93.69, 0.056955, , 
93.72, 0.057288, , 
93.75, 0.057697, , 
93.78, 0.057885, , 
93.81, 0.058154, , 
93.84, 0.058230, , 
93.87, 0.058440, , 
93.90, 0.058437, , 
93.93, 0.058500, , 
93.96, 0.058659, , 
93.99, 0.058836, , 
94.02, 0.058874, , 
94.05, 0.058938, , 
94.08, 0.058995, , 
94.11, 0.059033, , 
94.14, 0.059014, , 
94.17, 0.059033, , 
94.20, 0.059074, , 
94.23, 0.059128, , 
94.26, 0.059065, , 
94.29, 0.059001, , 
94.32, 0.058979, , 
94.35, 0.058979, , 
94.38, 0.058995, , 
94.41, 0.058992, , 
94.44, 0.059039, , 
94.47, 0.059068, , 
94.50, 0.059046, , 
94.53, 0.059020, , 
94.56, 0.059004, , 
94.59, 0.059020, , 
94.62, 0.058890, , 
94.66, 0.058713, , 
94.68, 0.058662, , 
94.71, 0.058601, , 
94.74, 0.058582, , 
94.77, 0.058535, , 
94.80, 0.058560, , 
94.83, 0.058586, , 
94.86, 0.058582, , 
94.89, 0.058551, , 
94.92, 0.058586, , 
94.95, 0.058795, , 
94.98, 0.058906, , 
95.01, 0.058938, , 
95.04, 0.059058, , 
95.07, 0.059153, , 
95.10, 0.059287, , 
95.13, 0.059375, , 
95.16, 0.059471, , 
95.19, 0.059632, , 
95.22, 0.059772, , 
95.25, 0.059867, , 
95.28, 0.059994, , 
95.31, 0.060203, , 
95.34, 0.060276, , 
95.37, 0.060362, , 
95.40, 0.060492, , 
95.43, 0.060571, , 
95.46, 0.060578, , 
95.49, 0.060517, , 
95.52, 0.060448, , 
95.55, 0.060327, , 
95.58, 0.060206, , 
95.61, 0.060099, , 
95.64, 0.060105, , 
95.67, 0.060111, , 
95.70, 0.060086, , 
95.73, 0.060045, , 
95.76, 0.060035, , 
95.79, 0.059946, , 
95.82, 0.059778, , 
95.85, 0.059632, , 
95.88, 0.059604, , 
95.91, 0.059601, , 
95.94, 0.059547, , 
95.97, 0.059505, , 
96.00, 0.059559, , 
