Gradient Profiler Text Data File: 4-C4_BY4741_30_012126.csv
Date: 2026-01-21
Time: 16:09:27

User: Karen
Experiment name: 
UV Unit: EM-1
Rotor Manufacturer: Beckman
Rotor Model: SW28.1
Speed: 28 rpm
Gradient: sucrose 10.0% to 50.0% w/v
Time: 4
w2t:  x 10^0
Sample Volume: 18 ml
Number of Tubes: 6
Volume per mm: 0.183 ml/mm

Absorbance Units Full Scale (AUFS): 2.00
Event Mark-triggered gradient; (with distance; auto start and stop)
Delay: No Delay
UV Wavelength: 254 nm
Samples / sec: 10 Hz
EM1 Speed: 0.30 mm/sec
Distance: 3.20 mm
Number: 30
Dead Volume: 0.000000 ml; Distance due to Dead Volume: 0.00 mm
Total Distance: 96.00 mm

Data Columns:
Distance(mm), Absorbance, Fraction Number, Fraction Volume(ml)
0.00, 0.079289, 0, 0.000
0.04, 0.079333, , 
0.06, 0.079387, , 
0.09, 0.079387, , 
0.12, 0.079441, , 
0.15, 0.079552, , 
0.18, 0.079689, , 
0.21, 0.079654, , 
0.24, 0.079565, , 
0.27, 0.079527, , 
0.30, 0.079492, , 
0.33, 0.079409, , 
0.36, 0.079413, , 
0.39, 0.079451, , 
0.42, 0.079428, , 
0.45, 0.079394, , 
0.48, 0.079409, , 
0.51, 0.079511, , 
0.54, 0.080129, , 
0.57, 0.082727, , 
0.60, 0.090819, , 
0.63, 0.109467, , 
0.66, 0.142436, , 
0.69, 0.197856, , 
0.72, 0.255404, , 
0.75, 0.329221, , 
0.78, 0.395566, , 
0.82, 0.463102, , 
0.84, 0.531321, , 
0.87, 0.599756, , 
0.90, 0.679695, , 
0.93, 0.748421, , 
0.96, 0.817446, , 
0.99, 0.898390, , 
1.03, 0.968290, , 
1.05, 1.038625, , 
1.08, 1.108702, , 
1.11, 1.176115, , 
1.14, 1.245942, , 
1.17, 1.292684, , 
1.20, 1.329697, , 
1.23, 1.346562, , 
1.26, 1.361131, , 
1.29, 1.368915, , 
1.32, 1.374383, , 
1.35, 1.379363, , 
1.38, 1.382545, , 
1.41, 1.387059, , 
1.44, 1.391030, , 
1.47, 1.395613, , 
1.50, 1.399426, , 
1.53, 1.403077, , 
1.56, 1.406725, , 
1.59, 1.409056, , 
1.62, 1.411647, , 
1.65, 1.414829, , 
1.68, 1.417810, , 
1.71, 1.421382, , 
1.74, 1.424519, , 
1.77, 1.427647, , 
1.80, 1.430625, , 
1.83, 1.433378, , 
1.86, 1.436335, , 
1.89, 1.438805, , 
1.92, 1.441070, , 
1.95, 1.443062, , 
1.98, 1.444214, , 
2.01, 1.445172, , 
2.04, 1.446082, , 
2.07, 1.446980, , 
2.10, 1.448185, , 
2.13, 1.449273, , 
2.16, 1.450183, , 
2.19, 1.450488, , 
2.22, 1.450615, , 
2.25, 1.450681, , 
2.28, 1.450818, , 
2.31, 1.451014, , 
2.34, 1.451173, , 
2.37, 1.451293, , 
2.40, 1.451306, , 
2.43, 1.451293, , 
2.46, 1.451601, , 
2.49, 1.452223, , 
2.52, 1.452851, , 
2.55, 1.453580, , 
2.58, 1.453945, , 
2.61, 1.454196, , 
2.64, 1.454170, , 
2.67, 1.453961, , 
2.70, 1.453755, , 
2.73, 1.453460, , 
2.76, 1.453079, , 
2.79, 1.452372, , 
2.82, 1.451132, , 
2.85, 1.449593, , 
2.88, 1.447344, , 
2.91, 1.445264, , 
2.94, 1.443275, , 
2.97, 1.441498, , 
3.00, 1.439900, , 
3.03, 1.438399, , 
3.06, 1.436652, , 
3.09, 1.435040, , 
3.12, 1.432652, , 
3.15, 1.430292, , 
3.18, 1.428233, , 
3.18, 1.427818, 1, 0.583
3.21, 1.425420, , 
3.24, 1.423155, , 
3.27, 1.420602, , 
3.30, 1.418464, , 
3.33, 1.416386, , 
3.36, 1.413934, , 
3.39, 1.411961, , 
3.42, 1.410061, , 
3.45, 1.408130, , 
3.48, 1.405395, , 
3.51, 1.403089, , 
3.54, 1.399543, , 
3.57, 1.396197, , 
3.60, 1.392575, , 
3.63, 1.388226, , 
3.66, 1.384442, , 
3.70, 1.379731, , 
3.72, 1.376169, , 
3.75, 1.371795, , 
3.78, 1.366552, , 
3.81, 1.361984, , 
3.84, 1.356427, , 
3.87, 1.351517, , 
3.90, 1.346496, , 
3.93, 1.341367, , 
3.96, 1.336114, , 
3.99, 1.330002, , 
4.02, 1.324822, , 
4.05, 1.319601, , 
4.08, 1.313485, , 
4.11, 1.309115, , 
4.14, 1.302967, , 
4.17, 1.297629, , 
4.20, 1.291425, , 
4.23, 1.286153, , 
4.26, 1.280897, , 
4.29, 1.275444, , 
4.32, 1.268939, , 
4.35, 1.263369, , 
4.38, 1.257891, , 
4.42, 1.251423, , 
4.44, 1.246713, , 
4.47, 1.239979, , 
4.50, 1.233990, , 
4.53, 1.227758, , 
4.56, 1.220240, , 
4.59, 1.213785, , 
4.62, 1.207365, , 
4.65, 1.200958, , 
4.68, 1.194500, , 
4.71, 1.186922, , 
4.74, 1.180280, , 
4.77, 1.172445, , 
4.80, 1.165810, , 
4.83, 1.160395, , 
4.86, 1.152668, , 
4.89, 1.145820, , 
4.92, 1.137618, , 
4.95, 1.130512, , 
4.98, 1.123483, , 
5.01, 1.115360, , 
5.04, 1.109657, , 
5.07, 1.101844, , 
5.10, 1.095145, , 
5.13, 1.088196, , 
5.16, 1.079911, , 
5.19, 1.072707, , 
5.22, 1.064156, , 
5.25, 1.057983, , 
5.28, 1.050557, , 
5.31, 1.041793, , 
5.34, 1.034282, , 
5.37, 1.025559, , 
5.40, 1.018229, , 
5.43, 1.010975, , 
5.46, 1.003762, , 
5.49, 0.996473, , 
5.52, 0.987861, , 
5.55, 0.980442, , 
5.58, 0.972972, , 
5.61, 0.964268, , 
5.65, 0.956985, , 
5.67, 0.949871, , 
5.70, 0.942921, , 
5.73, 0.936155, , 
5.76, 0.928704, , 
5.79, 0.922465, , 
5.82, 0.915268, , 
5.85, 0.910158, , 
5.88, 0.904071, , 
5.91, 0.896979, , 
5.94, 0.890901, , 
5.97, 0.884840, , 
6.00, 0.877941, , 
6.03, 0.872298, , 
6.06, 0.866817, , 
6.09, 0.861510, , 
6.12, 0.855699, , 
6.15, 0.850986, , 
6.18, 0.846405, , 
6.21, 0.841470, , 
6.24, 0.837832, , 
6.27, 0.834609, , 
6.30, 0.831532, , 
6.33, 0.827735, , 
6.36, 0.824719, , 
6.38, 0.822010, 2, 0.585
6.39, 0.819831, , 
6.42, 0.815044, , 
6.45, 0.810007, , 
6.48, 0.803965, , 
6.51, 0.798700, , 
6.54, 0.793345, , 
6.57, 0.787106, , 
6.60, 0.782643, , 
6.63, 0.776119, , 
6.66, 0.770197, , 
6.69, 0.764100, , 
6.72, 0.756671, , 
6.75, 0.749744, , 
6.79, 0.740875, , 
6.81, 0.734309, , 
6.84, 0.726478, , 
6.87, 0.717749, , 
6.90, 0.710843, , 
6.93, 0.703551, , 
6.96, 0.697927, , 
6.99, 0.692551, , 
7.02, 0.687317, , 
7.05, 0.682175, , 
7.08, 0.676256, , 
7.11, 0.671232, , 
7.14, 0.666255, , 
7.17, 0.660777, , 
7.20, 0.656372, , 
7.23, 0.652156, , 
7.27, 0.647386, , 
7.29, 0.644109, , 
7.32, 0.639519, , 
7.35, 0.635386, , 
7.38, 0.631075, , 
7.41, 0.625873, , 
7.44, 0.621309, , 
7.47, 0.616589, , 
7.50, 0.611777, , 
7.53, 0.607010, , 
7.56, 0.601392, , 
7.59, 0.596374, , 
7.62, 0.590598, , 
7.65, 0.585866, , 
7.68, 0.582009, , 
7.71, 0.576616, , 
7.74, 0.571855, , 
7.77, 0.566108, , 
7.80, 0.561049, , 
7.83, 0.556053, , 
7.86, 0.550353, , 
7.89, 0.546505, , 
7.92, 0.541341, , 
7.95, 0.536961, , 
7.98, 0.532527, , 
8.01, 0.527455, , 
8.04, 0.523239, , 
8.07, 0.518472, , 
8.10, 0.515221, , 
8.13, 0.511462, , 
8.16, 0.507145, , 
8.19, 0.503316, , 
8.22, 0.498799, , 
8.25, 0.494949, , 
8.28, 0.491019, , 
8.31, 0.487035, , 
8.34, 0.482987, , 
8.37, 0.478331, , 
8.40, 0.474388, , 
8.43, 0.470388, , 
8.46, 0.465799, , 
8.49, 0.462544, , 
8.52, 0.458012, , 
8.55, 0.454189, , 
8.58, 0.450389, , 
8.61, 0.446133, , 
8.64, 0.442418, , 
8.67, 0.437870, , 
8.70, 0.434527, , 
8.73, 0.430473, , 
8.76, 0.425670, , 
8.79, 0.421680, , 
8.82, 0.417230, , 
8.85, 0.413754, , 
8.88, 0.410458, , 
8.91, 0.407305, , 
8.94, 0.404307, , 
8.97, 0.401056, , 
9.00, 0.398293, , 
9.03, 0.395553, , 
9.06, 0.392470, , 
9.09, 0.389824, , 
9.12, 0.387303, , 
9.15, 0.385019, , 
9.18, 0.382519, , 
9.21, 0.380420, , 
9.24, 0.378136, , 
9.27, 0.375684, , 
9.30, 0.373203, , 
9.33, 0.370346, , 
9.36, 0.367894, , 
9.39, 0.364937, , 
9.42, 0.362825, , 
9.45, 0.360256, , 
9.48, 0.357299, , 
9.51, 0.354790, , 
9.54, 0.351929, , 
9.57, 0.349392, , 
9.58, 0.348945, 3, 0.585
9.60, 0.346585, , 
9.63, 0.343454, , 
9.66, 0.340079, , 
9.69, 0.335895, , 
9.72, 0.332235, , 
9.75, 0.328876, , 
9.78, 0.325358, , 
9.82, 0.322678, , 
9.84, 0.320229, , 
9.87, 0.317945, , 
9.90, 0.315658, , 
9.93, 0.312864, , 
9.96, 0.310434, , 
9.99, 0.307662, , 
10.02, 0.305768, , 
10.05, 0.303361, , 
10.08, 0.301772, , 
10.11, 0.300684, , 
10.14, 0.299967, , 
10.17, 0.299367, , 
10.20, 0.298818, , 
10.23, 0.298216, , 
10.26, 0.297350, , 
10.29, 0.296313, , 
10.32, 0.295126, , 
10.35, 0.293956, , 
10.38, 0.292760, , 
10.41, 0.291260, , 
10.44, 0.289912, , 
10.47, 0.288652, , 
10.50, 0.287225, , 
10.53, 0.285937, , 
10.56, 0.284459, , 
10.59, 0.282826, , 
10.62, 0.280973, , 
10.65, 0.278493, , 
10.68, 0.276304, , 
10.71, 0.273995, , 
10.74, 0.272257, , 
10.77, 0.270997, , 
10.80, 0.269402, , 
10.83, 0.268124, , 
10.86, 0.266604, , 
10.89, 0.265263, , 
10.92, 0.263965, , 
10.96, 0.262557, , 
10.98, 0.261612, , 
11.01, 0.260324, , 
11.04, 0.259264, , 
11.07, 0.258218, , 
11.10, 0.256901, , 
11.13, 0.255734, , 
11.16, 0.254529, , 
11.19, 0.253174, , 
11.22, 0.251642, , 
11.25, 0.249774, , 
11.28, 0.248232, , 
11.31, 0.246399, , 
11.34, 0.244734, , 
11.37, 0.243392, , 
11.40, 0.241568, , 
11.43, 0.239985, , 
11.46, 0.238101, , 
11.49, 0.236471, , 
11.52, 0.234847, , 
11.55, 0.232861, , 
11.58, 0.231415, , 
11.61, 0.229436, , 
11.64, 0.227818, , 
11.67, 0.226283, , 
11.70, 0.224551, , 
11.73, 0.223155, , 
11.77, 0.221595, , 
11.79, 0.220507, , 
11.82, 0.219162, , 
11.85, 0.217687, , 
11.88, 0.216431, , 
11.91, 0.214864, , 
11.94, 0.213582, , 
11.97, 0.212383, , 
12.00, 0.211273, , 
12.03, 0.210217, , 
12.06, 0.208986, , 
12.09, 0.207927, , 
12.12, 0.206791, , 
12.15, 0.205338, , 
12.18, 0.204241, , 
12.21, 0.202737, , 
12.24, 0.201465, , 
12.27, 0.200121, , 
12.30, 0.198620, , 
12.33, 0.197415, , 
12.37, 0.196013, , 
12.39, 0.195045, , 
12.42, 0.193938, , 
12.45, 0.192698, , 
12.48, 0.191601, , 
12.51, 0.190211, , 
12.54, 0.189085, , 
12.57, 0.188102, , 
12.60, 0.187246, , 
12.63, 0.186437, , 
12.66, 0.185561, , 
12.69, 0.184908, , 
12.72, 0.184153, , 
12.75, 0.183462, , 
12.78, 0.182856, , 
12.79, 0.182646, 4, 0.588
12.81, 0.182139, , 
12.84, 0.181508, , 
12.87, 0.180708, , 
12.90, 0.180106, , 
12.93, 0.179576, , 
12.96, 0.179091, , 
13.00, 0.178440, , 
13.02, 0.177961, , 
13.05, 0.177368, , 
13.08, 0.176613, , 
13.11, 0.175509, , 
13.14, 0.174529, , 
13.17, 0.173549, , 
13.20, 0.172588, , 
13.23, 0.171608, , 
13.26, 0.170558, , 
13.29, 0.169613, , 
13.32, 0.168449, , 
13.35, 0.167589, , 
13.38, 0.166641, , 
13.41, 0.165600, , 
13.44, 0.164665, , 
13.47, 0.163437, , 
13.50, 0.162394, , 
13.53, 0.161366, , 
13.56, 0.160405, , 
13.59, 0.159368, , 
13.62, 0.158403, , 
13.65, 0.157613, , 
13.68, 0.156754, , 
13.71, 0.155748, , 
13.74, 0.154987, , 
13.77, 0.154270, , 
13.80, 0.153547, , 
13.83, 0.152884, , 
13.86, 0.152221, , 
13.89, 0.151644, , 
13.92, 0.150933, , 
13.95, 0.150397, , 
13.98, 0.150007, , 
14.01, 0.149452, , 
14.04, 0.148875, , 
14.07, 0.148161, , 
14.10, 0.147562, , 
14.13, 0.146975, , 
14.17, 0.146255, , 
14.19, 0.145760, , 
14.22, 0.145059, , 
14.25, 0.144517, , 
14.28, 0.143920, , 
14.31, 0.143248, , 
14.34, 0.142693, , 
14.37, 0.142017, , 
14.40, 0.141230, , 
14.43, 0.140450, , 
14.46, 0.139540, , 
14.49, 0.138648, , 
14.52, 0.137602, , 
14.55, 0.136796, , 
14.58, 0.136216, , 
14.61, 0.135343, , 
14.64, 0.134547, , 
14.67, 0.133789, , 
14.70, 0.133215, , 
14.73, 0.132568, , 
14.76, 0.131860, , 
14.79, 0.131397, , 
14.82, 0.130715, , 
14.85, 0.130065, , 
14.88, 0.129501, , 
14.91, 0.128965, , 
14.94, 0.128486, , 
14.97, 0.127775, , 
15.00, 0.127353, , 
15.03, 0.126674, , 
15.06, 0.126091, , 
15.09, 0.125456, , 
15.12, 0.124793, , 
15.15, 0.124200, , 
15.18, 0.123534, , 
15.21, 0.122900, , 
15.24, 0.122183, , 
15.27, 0.121587, , 
15.30, 0.120949, , 
15.33, 0.120172, , 
15.37, 0.119471, , 
15.39, 0.118859, , 
15.42, 0.117952, , 
15.45, 0.117206, , 
15.48, 0.116458, , 
15.51, 0.115880, , 
15.54, 0.115252, , 
15.57, 0.114637, , 
15.60, 0.114085, , 
15.63, 0.113463, , 
15.66, 0.112823, , 
15.69, 0.112204, , 
15.72, 0.111525, , 
15.75, 0.110986, , 
15.78, 0.110488, , 
15.81, 0.109990, , 
15.84, 0.109663, , 
15.87, 0.109292, , 
15.90, 0.108893, , 
15.93, 0.108423, , 
15.96, 0.107909, , 
15.98, 0.107465, 5, 0.584
15.99, 0.107284, , 
16.02, 0.106777, , 
16.05, 0.106276, , 
16.08, 0.105803, , 
16.11, 0.105311, , 
16.14, 0.104826, , 
16.17, 0.104261, , 
16.20, 0.103827, , 
16.23, 0.103459, , 
16.26, 0.102863, , 
16.29, 0.102266, , 
16.32, 0.101597, , 
16.35, 0.100902, , 
16.38, 0.100144, , 
16.41, 0.099412, , 
16.44, 0.098955, , 
16.47, 0.098324, , 
16.50, 0.097762, , 
16.53, 0.097172, , 
16.56, 0.096551, , 
16.59, 0.095967, , 
16.63, 0.095244, , 
16.65, 0.094711, , 
16.68, 0.094216, , 
16.71, 0.093702, , 
16.74, 0.093172, , 
16.77, 0.092605, , 
16.80, 0.092164, , 
16.84, 0.091694, , 
16.86, 0.091218, , 
16.89, 0.090854, , 
16.92, 0.090438, , 
16.95, 0.089953, , 
16.98, 0.089407, , 
17.01, 0.088846, , 
17.04, 0.088503, , 
17.07, 0.088002, , 
17.10, 0.087523, , 
17.13, 0.087085, , 
17.16, 0.086660, , 
17.19, 0.086264, , 
17.22, 0.085782, , 
17.25, 0.085395, , 
17.28, 0.084951, , 
17.31, 0.084437, , 
17.34, 0.083952, , 
17.37, 0.083454, , 
17.40, 0.083003, , 
17.43, 0.082515, , 
17.46, 0.082061, , 
17.49, 0.081693, , 
17.52, 0.081370, , 
17.55, 0.081005, , 
17.58, 0.080586, , 
17.61, 0.080202, , 
17.64, 0.079901, , 
17.67, 0.079587, , 
17.70, 0.079263, , 
17.73, 0.079041, , 
17.76, 0.078810, , 
17.79, 0.078582, , 
17.82, 0.078385, , 
17.86, 0.078252, , 
17.88, 0.078068, , 
17.91, 0.077808, , 
17.94, 0.077658, , 
17.97, 0.077497, , 
18.00, 0.077300, , 
18.03, 0.077053, , 
18.06, 0.076862, , 
18.09, 0.076751, , 
18.12, 0.076612, , 
18.15, 0.076380, , 
18.18, 0.076215, , 
18.21, 0.076069, , 
18.24, 0.075854, , 
18.27, 0.075549, , 
18.30, 0.075368, , 
18.33, 0.075289, , 
18.36, 0.075077, , 
18.39, 0.074839, , 
18.42, 0.074690, , 
18.45, 0.074591, , 
18.48, 0.074347, , 
18.51, 0.074163, , 
18.54, 0.074122, , 
18.57, 0.074106, , 
18.60, 0.074087, , 
18.63, 0.074074, , 
18.66, 0.074077, , 
18.69, 0.074046, , 
18.72, 0.074023, , 
18.75, 0.074011, , 
18.78, 0.074062, , 
18.81, 0.074062, , 
18.84, 0.073966, , 
18.87, 0.074068, , 
18.90, 0.074230, , 
18.93, 0.074309, , 
18.96, 0.074366, , 
18.99, 0.074410, , 
19.02, 0.074626, , 
19.05, 0.074785, , 
19.08, 0.074842, , 
19.11, 0.074991, , 
19.14, 0.075184, , 
19.17, 0.075410, , 
19.18, 0.075514, 6, 0.586
19.20, 0.075606, , 
19.23, 0.075765, , 
19.26, 0.076044, , 
19.29, 0.076361, , 
19.32, 0.076539, , 
19.35, 0.076704, , 
19.38, 0.076945, , 
19.41, 0.077202, , 
19.44, 0.077494, , 
19.47, 0.077766, , 
19.50, 0.078122, , 
19.54, 0.078467, , 
19.56, 0.078794, , 
19.59, 0.079333, , 
19.62, 0.079781, , 
19.65, 0.080228, , 
19.68, 0.080618, , 
19.71, 0.081068, , 
19.74, 0.081512, , 
19.77, 0.081915, , 
19.80, 0.082385, , 
19.83, 0.082829, , 
19.86, 0.083289, , 
19.89, 0.083780, , 
19.92, 0.084205, , 
19.95, 0.084665, , 
19.98, 0.085173, , 
20.01, 0.085658, , 
20.04, 0.086286, , 
20.07, 0.086841, , 
20.10, 0.087457, , 
20.13, 0.087897, , 
20.16, 0.088256, , 
20.19, 0.088798, , 
20.22, 0.089220, , 
20.25, 0.089642, , 
20.28, 0.089943, , 
20.31, 0.090289, , 
20.34, 0.090746, , 
20.37, 0.091047, , 
20.40, 0.091494, , 
20.43, 0.091935, , 
20.46, 0.092395, , 
20.49, 0.092738, , 
20.52, 0.093087, , 
20.55, 0.093455, , 
20.58, 0.093724, , 
20.61, 0.093978, , 
20.64, 0.094260, , 
20.67, 0.094517, , 
20.70, 0.094755, , 
20.73, 0.094946, , 
20.76, 0.095202, , 
20.79, 0.095491, , 
20.82, 0.095650, , 
20.85, 0.095726, , 
20.88, 0.095837, , 
20.91, 0.096043, , 
20.94, 0.096157, , 
20.97, 0.096211, , 
21.00, 0.096275, , 
21.03, 0.096297, , 
21.06, 0.096249, , 
21.09, 0.096227, , 
21.12, 0.096249, , 
21.15, 0.096306, , 
21.18, 0.096284, , 
21.21, 0.096275, , 
21.24, 0.096217, , 
21.27, 0.096176, , 
21.30, 0.096053, , 
21.33, 0.095872, , 
21.36, 0.095818, , 
21.39, 0.095675, , 
21.42, 0.095551, , 
21.45, 0.095396, , 
21.48, 0.095244, , 
21.51, 0.095082, , 
21.54, 0.094873, , 
21.57, 0.094720, , 
21.60, 0.094597, , 
21.63, 0.094448, , 
21.66, 0.094200, , 
21.69, 0.093959, , 
21.72, 0.093772, , 
21.75, 0.093566, , 
21.78, 0.093271, , 
21.81, 0.092925, , 
21.84, 0.092712, , 
21.87, 0.092395, , 
21.90, 0.092129, , 
21.93, 0.091945, , 
21.96, 0.091704, , 
21.99, 0.091475, , 
22.02, 0.091196, , 
22.05, 0.090968, , 
22.08, 0.090736, , 
22.11, 0.090394, , 
22.14, 0.090092, , 
22.17, 0.089877, , 
22.20, 0.089544, , 
22.23, 0.089144, , 
22.26, 0.088649, , 
22.29, 0.088326, , 
22.32, 0.088028, , 
22.35, 0.087615, , 
22.38, 0.087254, , 
22.39, 0.087187, 7, 0.586
22.41, 0.086806, , 
22.44, 0.086426, , 
22.47, 0.085963, , 
22.50, 0.085423, , 
22.53, 0.085046, , 
22.57, 0.084592, , 
22.59, 0.084189, , 
22.62, 0.083707, , 
22.65, 0.083292, , 
22.68, 0.083000, , 
22.71, 0.082588, , 
22.74, 0.082264, , 
22.78, 0.082042, , 
22.80, 0.081814, , 
22.83, 0.081531, , 
22.86, 0.081227, , 
22.89, 0.081040, , 
22.92, 0.080843, , 
22.95, 0.080564, , 
22.98, 0.080478, , 
23.01, 0.080304, , 
23.04, 0.080133, , 
23.07, 0.079974, , 
23.10, 0.079866, , 
23.13, 0.079809, , 
23.16, 0.079660, , 
23.19, 0.079470, , 
23.22, 0.079362, , 
23.25, 0.079251, , 
23.28, 0.079070, , 
23.31, 0.078927, , 
23.34, 0.078854, , 
23.37, 0.078791, , 
23.40, 0.078677, , 
23.43, 0.078467, , 
23.46, 0.078398, , 
23.49, 0.078350, , 
23.52, 0.078242, , 
23.55, 0.077976, , 
23.58, 0.077890, , 
23.61, 0.077890, , 
23.64, 0.077874, , 
23.67, 0.077820, , 
23.70, 0.077925, , 
23.73, 0.078125, , 
23.76, 0.078344, , 
23.79, 0.078483, , 
23.82, 0.078712, , 
23.85, 0.079060, , 
23.88, 0.079394, , 
23.91, 0.079945, , 
23.94, 0.080548, , 
23.97, 0.081214, , 
24.00, 0.081915, , 
24.03, 0.082730, , 
24.06, 0.083980, , 
24.09, 0.085059, , 
24.12, 0.086419, , 
24.15, 0.087828, , 
24.18, 0.089480, , 
24.21, 0.091621, , 
24.24, 0.093636, , 
24.27, 0.096205, , 
24.30, 0.098777, , 
24.33, 0.101657, , 
24.36, 0.104848, , 
24.40, 0.108956, , 
24.42, 0.112201, , 
24.45, 0.117108, , 
24.48, 0.121634, , 
24.51, 0.127429, , 
24.54, 0.132799, , 
24.57, 0.138512, , 
24.60, 0.144561, , 
24.63, 0.151032, , 
24.66, 0.159152, , 
24.69, 0.166501, , 
24.72, 0.174206, , 
24.75, 0.182393, , 
24.78, 0.191004, , 
24.81, 0.201551, , 
24.84, 0.210984, , 
24.87, 0.222311, , 
24.90, 0.232300, , 
24.93, 0.242529, , 
24.96, 0.254700, , 
24.99, 0.263670, , 
25.02, 0.276450, , 
25.05, 0.287447, , 
25.08, 0.298447, , 
25.11, 0.311417, , 
25.14, 0.322602, , 
25.17, 0.335613, , 
25.20, 0.344954, , 
25.23, 0.356037, , 
25.26, 0.368747, , 
25.29, 0.379386, , 
25.32, 0.391461, , 
25.35, 0.401605, , 
25.38, 0.411460, , 
25.41, 0.420919, , 
25.44, 0.430083, , 
25.47, 0.440353, , 
25.50, 0.448657, , 
25.53, 0.456540, , 
25.56, 0.465224, , 
25.58, 0.468840, 8, 0.584
25.60, 0.472339, , 
25.62, 0.479003, , 
25.65, 0.485255, , 
25.68, 0.491057, , 
25.71, 0.497321, , 
25.74, 0.502209, , 
25.77, 0.507268, , 
25.80, 0.510513, , 
25.83, 0.514050, , 
25.86, 0.517498, , 
25.89, 0.520407, , 
25.92, 0.523214, , 
25.95, 0.525371, , 
25.98, 0.527191, , 
26.01, 0.528492, , 
26.04, 0.529748, , 
26.07, 0.530763, , 
26.10, 0.531420, , 
26.13, 0.531794, , 
26.16, 0.532019, , 
26.19, 0.531899, , 
26.22, 0.531635, , 
26.25, 0.531068, , 
26.28, 0.530389, , 
26.31, 0.529415, , 
26.34, 0.528346, , 
26.37, 0.527103, , 
26.40, 0.525529, , 
26.43, 0.524305, , 
26.46, 0.522326, , 
26.49, 0.520432, , 
26.52, 0.518110, , 
26.55, 0.515909, , 
26.58, 0.513527, , 
26.62, 0.510688, , 
26.64, 0.508607, , 
26.67, 0.506057, , 
26.70, 0.503012, , 
26.73, 0.500246, , 
26.76, 0.497385, , 
26.79, 0.494003, , 
26.82, 0.490920, , 
26.85, 0.487774, , 
26.88, 0.484142, , 
26.91, 0.481547, , 
26.94, 0.477814, , 
26.97, 0.474572, , 
27.00, 0.471375, , 
27.03, 0.467588, , 
27.06, 0.464305, , 
27.09, 0.460441, , 
27.12, 0.457742, , 
27.15, 0.454510, , 
27.18, 0.450662, , 
27.21, 0.447427, , 
27.24, 0.443624, , 
27.27, 0.440360, , 
27.30, 0.437058, , 
27.33, 0.433784, , 
27.36, 0.430549, , 
27.39, 0.426689, , 
27.42, 0.423384, , 
27.45, 0.420224, , 
27.48, 0.416523, , 
27.52, 0.413256, , 
27.54, 0.409995, , 
27.57, 0.406737, , 
27.60, 0.403502, , 
27.63, 0.399648, , 
27.66, 0.396374, , 
27.69, 0.393168, , 
27.72, 0.389437, , 
27.75, 0.386205, , 
27.78, 0.382973, , 
27.81, 0.379290, , 
27.84, 0.376696, , 
27.87, 0.373000, , 
27.90, 0.369794, , 
27.93, 0.366571, , 
27.96, 0.362974, , 
27.99, 0.359729, , 
28.02, 0.356541, , 
28.05, 0.352900, , 
28.08, 0.350277, , 
28.11, 0.346673, , 
28.14, 0.343660, , 
28.17, 0.340755, , 
28.20, 0.337319, , 
28.23, 0.334236, , 
28.27, 0.330674, , 
28.29, 0.328213, , 
28.32, 0.325374, , 
28.35, 0.322100, , 
28.38, 0.319243, , 
28.41, 0.315969, , 
28.44, 0.313162, , 
28.47, 0.310802, , 
28.50, 0.307611, , 
28.53, 0.304985, , 
28.56, 0.301876, , 
28.59, 0.299088, , 
28.62, 0.296440, , 
28.65, 0.293458, , 
28.68, 0.291333, , 
28.71, 0.288259, , 
28.74, 0.285588, , 
28.77, 0.283060, , 
28.78, 0.282229, 9, 0.586
28.80, 0.280161, , 
28.83, 0.277665, , 
28.86, 0.274683, , 
28.89, 0.272583, , 
28.92, 0.270103, , 
28.95, 0.267159, , 
28.98, 0.264638, , 
29.01, 0.261773, , 
29.04, 0.259356, , 
29.07, 0.256911, , 
29.10, 0.254741, , 
29.13, 0.252204, , 
29.16, 0.249450, , 
29.19, 0.247087, , 
29.22, 0.244797, , 
29.25, 0.242253, , 
29.29, 0.240138, , 
29.31, 0.238035, , 
29.34, 0.235941, , 
29.37, 0.233943, , 
29.40, 0.231637, , 
29.43, 0.229727, , 
29.46, 0.227555, , 
29.49, 0.225984, , 
29.52, 0.224123, , 
29.55, 0.221962, , 
29.58, 0.220218, , 
29.61, 0.218166, , 
29.64, 0.216399, , 
29.67, 0.214718, , 
29.70, 0.213135, , 
29.73, 0.211520, , 
29.76, 0.209839, , 
29.79, 0.207806, , 
29.82, 0.206176, , 
29.85, 0.204361, , 
29.88, 0.202848, , 
29.91, 0.201304, , 
29.94, 0.199613, , 
29.97, 0.198385, , 
30.00, 0.196860, , 
30.03, 0.195169, , 
30.06, 0.193764, , 
30.09, 0.192064, , 
30.12, 0.190551, , 
30.15, 0.189101, , 
30.18, 0.187737, , 
30.21, 0.186418, , 
30.24, 0.184787, , 
30.27, 0.183490, , 
30.30, 0.182231, , 
30.33, 0.180680, , 
30.36, 0.179249, , 
30.39, 0.177793, , 
30.42, 0.176413, , 
30.45, 0.175031, , 
30.48, 0.173337, , 
30.51, 0.171887, , 
30.54, 0.170488, , 
30.57, 0.169102, , 
30.60, 0.167700, , 
30.63, 0.166187, , 
30.67, 0.164700, , 
30.69, 0.163570, , 
30.72, 0.161994, , 
30.75, 0.160709, , 
30.78, 0.159526, , 
30.81, 0.158092, , 
30.84, 0.156925, , 
30.87, 0.155853, , 
30.90, 0.154524, , 
30.93, 0.153499, , 
30.96, 0.152189, , 
30.99, 0.151082, , 
31.02, 0.149994, , 
31.05, 0.148726, , 
31.08, 0.147606, , 
31.11, 0.146420, , 
31.14, 0.145522, , 
31.17, 0.144437, , 
31.20, 0.143241, , 
31.23, 0.142334, , 
31.26, 0.141230, , 
31.29, 0.140263, , 
31.32, 0.139407, , 
31.35, 0.138560, , 
31.38, 0.137710, , 
31.41, 0.136755, , 
31.44, 0.135987, , 
31.47, 0.135251, , 
31.50, 0.134303, , 
31.53, 0.133437, , 
31.56, 0.132571, , 
31.59, 0.131711, , 
31.62, 0.130884, , 
31.65, 0.129961, , 
31.68, 0.129202, , 
31.71, 0.128302, , 
31.75, 0.127442, , 
31.77, 0.126700, , 
31.80, 0.125710, , 
31.83, 0.124933, , 
31.86, 0.123861, , 
31.89, 0.122938, , 
31.92, 0.122104, , 
31.95, 0.121250, , 
31.98, 0.120353, 10, 0.586
31.99, 0.120204, , 
32.01, 0.119293, , 
32.04, 0.118561, , 
32.07, 0.117802, , 
32.10, 0.116921, , 
32.13, 0.116258, , 
32.16, 0.115627, , 
32.19, 0.114932, , 
32.22, 0.114231, , 
32.25, 0.113495, , 
32.28, 0.112924, , 
32.31, 0.112264, , 
32.34, 0.111617, , 
32.37, 0.111122, , 
32.40, 0.110498, , 
32.43, 0.109917, , 
32.46, 0.109210, , 
32.49, 0.108693, , 
32.52, 0.108233, , 
32.55, 0.107611, , 
32.58, 0.107173, , 
32.61, 0.106418, , 
32.64, 0.105873, , 
32.67, 0.105353, , 
32.70, 0.104731, , 
32.73, 0.104081, , 
32.76, 0.103503, , 
32.79, 0.102790, , 
32.82, 0.102222, , 
32.85, 0.101477, , 
32.88, 0.100940, , 
32.91, 0.100373, , 
32.94, 0.099640, , 
32.97, 0.099082, , 
33.01, 0.098425, , 
33.03, 0.097895, , 
33.06, 0.097347, , 
33.09, 0.096674, , 
33.12, 0.096262, , 
33.15, 0.095647, , 
33.18, 0.095174, , 
33.22, 0.094758, , 
33.24, 0.094317, , 
33.27, 0.093842, , 
33.30, 0.093413, , 
33.33, 0.093007, , 
33.36, 0.092678, , 
33.39, 0.092256, , 
33.42, 0.091932, , 
33.45, 0.091533, , 
33.48, 0.091152, , 
33.51, 0.090752, , 
33.54, 0.090422, , 
33.57, 0.090089, , 
33.60, 0.089750, , 
33.63, 0.089325, , 
33.66, 0.088878, , 
33.69, 0.088602, , 
33.72, 0.088227, , 
33.75, 0.087875, , 
33.79, 0.087612, , 
33.81, 0.087403, , 
33.84, 0.087070, , 
33.87, 0.086759, , 
33.90, 0.086445, , 
33.93, 0.086270, , 
33.96, 0.085997, , 
33.99, 0.085741, , 
34.02, 0.085506, , 
34.05, 0.085281, , 
34.08, 0.085093, , 
34.11, 0.084935, , 
34.14, 0.084890, , 
34.17, 0.084894, , 
34.20, 0.084859, , 
34.23, 0.084802, , 
34.26, 0.084856, , 
34.29, 0.084875, , 
34.32, 0.084878, , 
34.35, 0.084859, , 
34.38, 0.084960, , 
34.41, 0.085084, , 
34.44, 0.085227, , 
34.47, 0.085439, , 
34.50, 0.085693, , 
34.53, 0.085880, , 
34.56, 0.086067, , 
34.59, 0.086321, , 
34.62, 0.086540, , 
34.65, 0.086844, , 
34.68, 0.087108, , 
34.71, 0.087441, , 
34.74, 0.087983, , 
34.77, 0.088335, , 
34.81, 0.088637, , 
34.83, 0.088903, , 
34.86, 0.089296, , 
34.89, 0.089775, , 
34.92, 0.090143, , 
34.95, 0.090654, , 
34.98, 0.091139, , 
35.01, 0.091555, , 
35.04, 0.091970, , 
35.07, 0.092386, , 
35.10, 0.092988, , 
35.13, 0.093398, , 
35.16, 0.093845, , 
35.17, 0.094064, 11, 0.584
35.19, 0.094375, , 
35.22, 0.094790, , 
35.25, 0.095275, , 
35.28, 0.095685, , 
35.31, 0.096122, , 
35.34, 0.096668, , 
35.37, 0.097083, , 
35.40, 0.097556, , 
35.43, 0.097892, , 
35.46, 0.098238, , 
35.49, 0.098600, , 
35.52, 0.098888, , 
35.55, 0.099218, , 
35.58, 0.099418, , 
35.61, 0.099564, , 
35.64, 0.099653, , 
35.67, 0.099754, , 
35.70, 0.099884, , 
35.73, 0.099932, , 
35.76, 0.099913, , 
35.79, 0.099951, , 
35.82, 0.099941, , 
35.85, 0.099887, , 
35.89, 0.099910, , 
35.91, 0.099935, , 
35.94, 0.099878, , 
35.97, 0.099719, , 
36.00, 0.099611, , 
36.03, 0.099532, , 
36.06, 0.099380, , 
36.09, 0.099171, , 
36.12, 0.098933, , 
36.15, 0.098650, , 
36.18, 0.098365, , 
36.21, 0.098057, , 
36.24, 0.097734, , 
36.27, 0.097470, , 
36.30, 0.097207, , 
36.33, 0.096849, , 
36.36, 0.096500, , 
36.39, 0.096233, , 
36.42, 0.095878, , 
36.45, 0.095463, , 
36.48, 0.095193, , 
36.51, 0.094793, , 
36.54, 0.094435, , 
36.57, 0.094099, , 
36.60, 0.093769, , 
36.63, 0.093486, , 
36.66, 0.093049, , 
36.69, 0.092614, , 
36.72, 0.092313, , 
36.75, 0.092031, , 
36.78, 0.091621, , 
36.81, 0.091222, , 
36.84, 0.090882, , 
36.87, 0.090479, , 
36.90, 0.089959, , 
36.93, 0.089477, , 
36.96, 0.088985, , 
36.99, 0.088538, , 
37.02, 0.088129, , 
37.05, 0.087596, , 
37.08, 0.087196, , 
37.11, 0.086816, , 
37.14, 0.086483, , 
37.17, 0.086074, , 
37.20, 0.085734, , 
37.23, 0.085357, , 
37.26, 0.084824, , 
37.29, 0.084456, , 
37.32, 0.084037, , 
37.35, 0.083552, , 
37.38, 0.083187, , 
37.41, 0.082832, , 
37.44, 0.082572, , 
37.47, 0.082229, , 
37.50, 0.081661, , 
37.53, 0.081233, , 
37.56, 0.080903, , 
37.59, 0.080570, , 
37.62, 0.080193, , 
37.65, 0.079863, , 
37.68, 0.079501, , 
37.71, 0.079010, , 
37.74, 0.078540, , 
37.77, 0.078077, , 
37.80, 0.077649, , 
37.83, 0.077351, , 
37.86, 0.076961, , 
37.89, 0.076593, , 
37.92, 0.076279, , 
37.95, 0.075844, , 
37.98, 0.075451, , 
38.01, 0.075115, , 
38.04, 0.074861, , 
38.07, 0.074493, , 
38.10, 0.074046, , 
38.13, 0.073782, , 
38.16, 0.073541, , 
38.19, 0.073196, , 
38.22, 0.072891, , 
38.25, 0.072650, , 
38.28, 0.072365, , 
38.31, 0.071939, , 
38.34, 0.071540, , 
38.37, 0.071277, , 
38.38, 0.071229, 12, 0.586
38.40, 0.070924, , 
38.43, 0.070588, , 
38.46, 0.070312, , 
38.49, 0.070020, , 
38.52, 0.069735, , 
38.55, 0.069399, , 
38.58, 0.069097, , 
38.61, 0.068831, , 
38.64, 0.068558, , 
38.67, 0.068228, , 
38.71, 0.067797, , 
38.73, 0.067562, , 
38.76, 0.067331, , 
38.79, 0.067105, , 
38.82, 0.066779, , 
38.85, 0.066607, , 
38.88, 0.066379, , 
38.91, 0.066090, , 
38.94, 0.065875, , 
38.98, 0.065662, , 
39.00, 0.065532, , 
39.03, 0.065174, , 
39.06, 0.064955, , 
39.09, 0.064796, , 
39.12, 0.064688, , 
39.15, 0.064451, , 
39.18, 0.064295, , 
39.21, 0.064133, , 
39.24, 0.063845, , 
39.27, 0.063683, , 
39.30, 0.063594, , 
39.33, 0.063461, , 
39.36, 0.063290, , 
39.40, 0.063210, , 
39.42, 0.063071, , 
39.45, 0.062988, , 
39.48, 0.062874, , 
39.52, 0.062687, , 
39.54, 0.062633, , 
39.57, 0.062525, , 
39.60, 0.062303, , 
39.63, 0.062246, , 
39.67, 0.062132, , 
39.69, 0.062043, , 
39.72, 0.061865, , 
39.75, 0.061751, , 
39.78, 0.061666, , 
39.81, 0.061631, , 
39.85, 0.061485, , 
39.87, 0.061352, , 
39.90, 0.061256, , 
39.93, 0.061168, , 
39.96, 0.061047, , 
39.99, 0.060892, , 
40.02, 0.060749, , 
40.05, 0.060663, , 
40.08, 0.060590, , 
40.11, 0.060527, , 
40.14, 0.060482, , 
40.17, 0.060318, , 
40.20, 0.060159, , 
40.23, 0.060134, , 
40.26, 0.060140, , 
40.29, 0.060080, , 
40.32, 0.060000, , 
40.35, 0.059991, , 
40.38, 0.060054, , 
40.41, 0.060016, , 
40.44, 0.059981, , 
40.47, 0.059940, , 
40.50, 0.060054, , 
40.53, 0.060146, , 
40.56, 0.060267, , 
40.59, 0.060381, , 
40.62, 0.060476, , 
40.65, 0.060492, , 
40.68, 0.060454, , 
40.71, 0.060597, , 
40.74, 0.060796, , 
40.77, 0.060901, , 
40.80, 0.061031, , 
40.83, 0.061212, , 
40.86, 0.061510, , 
40.89, 0.061685, , 
40.92, 0.061837, , 
40.95, 0.062126, , 
40.98, 0.062459, , 
41.01, 0.062709, , 
41.04, 0.063023, , 
41.07, 0.063385, , 
41.10, 0.063794, , 
41.13, 0.064178, , 
41.16, 0.064676, , 
41.19, 0.065294, , 
41.22, 0.065970, , 
41.25, 0.066414, , 
41.28, 0.066998, , 
41.31, 0.067689, , 
41.34, 0.068216, , 
41.37, 0.068901, , 
41.40, 0.069497, , 
41.43, 0.070189, , 
41.46, 0.070905, , 
41.49, 0.071613, , 
41.52, 0.072463, , 
41.55, 0.073237, , 
41.58, 0.073916, 13, 0.586
41.58, 0.074049, , 
41.61, 0.074934, , 
41.64, 0.075667, , 
41.67, 0.076437, , 
41.70, 0.077227, , 
41.73, 0.077982, , 
41.76, 0.078972, , 
41.79, 0.079876, , 
41.82, 0.080881, , 
41.85, 0.081690, , 
41.88, 0.082388, , 
41.91, 0.083301, , 
41.94, 0.084056, , 
41.97, 0.084811, , 
42.00, 0.085636, , 
42.03, 0.086527, , 
42.06, 0.087200, , 
42.09, 0.087961, , 
42.12, 0.088640, , 
42.15, 0.089379, , 
42.18, 0.089858, , 
42.21, 0.090387, , 
42.24, 0.091114, , 
42.27, 0.091701, , 
42.30, 0.092335, , 
42.33, 0.092801, , 
42.36, 0.093293, , 
42.39, 0.093629, , 
42.42, 0.093883, , 
42.45, 0.094238, , 
42.48, 0.094571, , 
42.51, 0.094812, , 
42.54, 0.095009, , 
42.57, 0.095244, , 
42.60, 0.095456, , 
42.63, 0.095643, , 
42.66, 0.095669, , 
42.69, 0.095745, , 
42.72, 0.095834, , 
42.75, 0.095872, , 
42.79, 0.095846, , 
42.81, 0.095837, , 
42.84, 0.095891, , 
42.87, 0.095907, , 
42.90, 0.095796, , 
42.93, 0.095640, , 
42.96, 0.095545, , 
42.99, 0.095434, , 
43.02, 0.095244, , 
43.05, 0.095038, , 
43.08, 0.094850, , 
43.11, 0.094654, , 
43.14, 0.094362, , 
43.17, 0.094146, , 
43.20, 0.093994, , 
43.23, 0.093674, , 
43.26, 0.093363, , 
43.29, 0.093042, , 
43.32, 0.092751, , 
43.35, 0.092379, , 
43.38, 0.091973, , 
43.41, 0.091732, , 
43.44, 0.091406, , 
43.47, 0.091025, , 
43.50, 0.090676, , 
43.53, 0.090216, , 
43.56, 0.089908, , 
43.59, 0.089541, , 
43.62, 0.089249, , 
43.65, 0.088913, , 
43.68, 0.088453, , 
43.71, 0.087967, , 
43.74, 0.087476, , 
43.77, 0.087181, , 
43.80, 0.086914, , 
43.83, 0.086568, , 
43.86, 0.086200, , 
43.89, 0.085763, , 
43.92, 0.085392, , 
43.95, 0.085027, , 
43.98, 0.084627, , 
44.01, 0.084304, , 
44.04, 0.083967, , 
44.07, 0.083530, , 
44.10, 0.083143, , 
44.13, 0.082883, , 
44.16, 0.082512, , 
44.19, 0.082121, , 
44.22, 0.081665, , 
44.25, 0.081306, , 
44.28, 0.080973, , 
44.31, 0.080634, , 
44.34, 0.080269, , 
44.37, 0.079898, , 
44.40, 0.079543, , 
44.43, 0.079108, , 
44.46, 0.078740, , 
44.49, 0.078470, , 
44.52, 0.078096, , 
44.55, 0.077687, , 
44.58, 0.077408, , 
44.61, 0.077094, , 
44.64, 0.076707, , 
44.67, 0.076383, , 
44.70, 0.076133, , 
44.73, 0.075895, , 
44.76, 0.075536, , 
44.78, 0.075308, 14, 0.587
44.79, 0.075226, , 
44.82, 0.075010, , 
44.85, 0.074813, , 
44.88, 0.074547, , 
44.92, 0.074280, , 
44.95, 0.074169, , 
44.97, 0.073985, , 
45.00, 0.073751, , 
45.03, 0.073611, , 
45.06, 0.073484, , 
45.09, 0.073284, , 
45.12, 0.073107, , 
45.15, 0.073015, , 
45.18, 0.072983, , 
45.21, 0.072859, , 
45.24, 0.072713, , 
45.27, 0.072571, , 
45.30, 0.072434, , 
45.33, 0.072292, , 
45.36, 0.072149, , 
45.39, 0.071946, , 
45.42, 0.071825, , 
45.45, 0.071708, , 
45.48, 0.071553, , 
45.51, 0.071410, , 
45.54, 0.071283, , 
45.57, 0.071178, , 
45.60, 0.071051, , 
45.63, 0.070921, , 
45.66, 0.070918, , 
45.69, 0.070934, , 
45.72, 0.070912, , 
45.75, 0.070905, , 
45.78, 0.070950, , 
45.81, 0.070956, , 
45.85, 0.070905, , 
45.87, 0.070880, , 
45.90, 0.070950, , 
45.93, 0.071086, , 
45.96, 0.071191, , 
45.99, 0.071296, , 
46.02, 0.071403, , 
46.05, 0.071495, , 
46.08, 0.071635, , 
46.11, 0.071762, , 
46.14, 0.071933, , 
46.17, 0.072104, , 
46.20, 0.072190, , 
46.23, 0.072355, , 
46.26, 0.072529, , 
46.29, 0.072679, , 
46.32, 0.072764, , 
46.35, 0.072945, , 
46.38, 0.073300, , 
46.41, 0.073535, , 
46.44, 0.073763, , 
46.47, 0.074042, , 
46.50, 0.074436, , 
46.53, 0.074858, , 
46.56, 0.075213, , 
46.59, 0.075755, , 
46.62, 0.076199, , 
46.65, 0.076596, , 
46.68, 0.077065, , 
46.71, 0.077516, , 
46.74, 0.078176, , 
46.77, 0.078705, , 
46.80, 0.079324, , 
46.83, 0.080018, , 
46.86, 0.080834, , 
46.89, 0.081468, , 
46.92, 0.082217, , 
46.95, 0.082838, , 
46.98, 0.083590, , 
47.01, 0.084377, , 
47.04, 0.085065, , 
47.07, 0.085874, , 
47.10, 0.086530, , 
47.13, 0.087216, , 
47.16, 0.087983, , 
47.19, 0.088735, , 
47.22, 0.089458, , 
47.25, 0.090261, , 
47.28, 0.090962, , 
47.31, 0.091821, , 
47.34, 0.092494, , 
47.37, 0.093131, , 
47.40, 0.093908, , 
47.43, 0.094508, , 
47.46, 0.095313, , 
47.49, 0.095986, , 
47.52, 0.096652, , 
47.55, 0.097334, , 
47.58, 0.097845, , 
47.61, 0.098476, , 
47.64, 0.098980, , 
47.67, 0.099551, , 
47.70, 0.100122, , 
47.73, 0.100515, , 
47.76, 0.101032, , 
47.79, 0.101429, , 
47.82, 0.101695, , 
47.85, 0.102016, , 
47.88, 0.102342, , 
47.91, 0.102625, , 
47.94, 0.102853, , 
47.97, 0.103028, , 
47.98, 0.103075, 15, 0.586
48.00, 0.103199, , 
48.03, 0.103288, , 
48.06, 0.103326, , 
48.09, 0.103408, , 
48.12, 0.103503, , 
48.15, 0.103443, , 
48.18, 0.103335, , 
48.21, 0.103278, , 
48.24, 0.103262, , 
48.27, 0.103148, , 
48.30, 0.103002, , 
48.33, 0.102847, , 
48.36, 0.102723, , 
48.39, 0.102526, , 
48.42, 0.102238, , 
48.45, 0.101994, , 
48.48, 0.101768, , 
48.51, 0.101413, , 
48.54, 0.101105, , 
48.58, 0.100772, , 
48.60, 0.100560, , 
48.63, 0.100243, , 
48.66, 0.099795, , 
48.69, 0.099500, , 
48.72, 0.099202, , 
48.75, 0.098831, , 
48.78, 0.098384, , 
48.81, 0.097959, , 
48.84, 0.097597, , 
48.87, 0.097252, , 
48.90, 0.096915, , 
48.93, 0.096573, , 
48.96, 0.096170, , 
48.99, 0.095853, , 
49.02, 0.095288, , 
49.05, 0.094857, , 
49.08, 0.094473, , 
49.11, 0.093972, , 
49.14, 0.093483, , 
49.17, 0.092985, , 
49.20, 0.092652, , 
49.23, 0.092230, , 
49.26, 0.091666, , 
49.29, 0.091244, , 
49.32, 0.090863, , 
49.35, 0.090518, , 
49.38, 0.090131, , 
49.41, 0.089848, , 
49.44, 0.089499, , 
49.47, 0.088985, , 
49.50, 0.088633, , 
49.53, 0.088408, , 
49.56, 0.088081, , 
49.59, 0.087663, , 
49.62, 0.087403, , 
49.65, 0.087111, , 
49.68, 0.086822, , 
49.71, 0.086438, , 
49.74, 0.086115, , 
49.77, 0.085833, , 
49.81, 0.085493, , 
49.83, 0.085277, , 
49.86, 0.084900, , 
49.89, 0.084570, , 
49.92, 0.084332, , 
49.95, 0.084091, , 
49.98, 0.083831, , 
50.02, 0.083542, , 
50.04, 0.083387, , 
50.07, 0.083082, , 
50.10, 0.082816, , 
50.13, 0.082676, , 
50.16, 0.082543, , 
50.19, 0.082337, , 
50.22, 0.082156, , 
50.26, 0.082099, , 
50.28, 0.082052, , 
50.31, 0.081947, , 
50.34, 0.081928, , 
50.37, 0.081953, , 
50.40, 0.081950, , 
50.43, 0.081893, , 
50.46, 0.081887, , 
50.49, 0.081912, , 
50.52, 0.081969, , 
50.55, 0.082052, , 
50.58, 0.082210, , 
50.62, 0.082394, , 
50.64, 0.082489, , 
50.67, 0.082626, , 
50.70, 0.082851, , 
50.73, 0.083089, , 
50.76, 0.083285, , 
50.79, 0.083511, , 
50.82, 0.083898, , 
50.85, 0.084132, , 
50.88, 0.084405, , 
50.91, 0.084770, , 
50.94, 0.085163, , 
50.97, 0.085722, , 
51.00, 0.086115, , 
51.03, 0.086476, , 
51.06, 0.086892, , 
51.09, 0.087358, , 
51.12, 0.087818, , 
51.15, 0.088237, , 
51.17, 0.088551, 16, 0.584
51.18, 0.088621, , 
51.21, 0.089160, , 
51.24, 0.089699, , 
51.27, 0.090349, , 
51.30, 0.090873, , 
51.33, 0.091485, , 
51.36, 0.092024, , 
51.39, 0.092459, , 
51.42, 0.093198, , 
51.45, 0.093899, , 
51.48, 0.094571, , 
51.51, 0.095091, , 
51.54, 0.095719, , 
51.57, 0.096440, , 
51.60, 0.096884, , 
51.63, 0.097413, , 
51.66, 0.098006, , 
51.69, 0.098622, , 
51.72, 0.099196, , 
51.75, 0.099678, , 
51.78, 0.100090, , 
51.81, 0.100760, , 
51.84, 0.101099, , 
51.87, 0.101575, , 
51.90, 0.102038, , 
51.93, 0.102403, , 
51.96, 0.102847, , 
51.99, 0.103129, , 
52.02, 0.103570, , 
52.05, 0.103808, , 
52.08, 0.103992, , 
52.11, 0.104230, , 
52.14, 0.104496, , 
52.17, 0.104823, , 
52.20, 0.104969, , 
52.23, 0.105102, , 
52.26, 0.105356, , 
52.29, 0.105549, , 
52.32, 0.105667, , 
52.35, 0.105727, , 
52.38, 0.105762, , 
52.41, 0.105809, , 
52.44, 0.105790, , 
52.47, 0.105762, , 
52.50, 0.105730, , 
52.53, 0.105587, , 
52.56, 0.105416, , 
52.59, 0.105270, , 
52.62, 0.105165, , 
52.65, 0.104988, , 
52.68, 0.104709, , 
52.71, 0.104506, , 
52.74, 0.104300, , 
52.77, 0.104128, , 
52.81, 0.103846, , 
52.83, 0.103545, , 
52.86, 0.103231, , 
52.89, 0.102844, , 
52.92, 0.102511, , 
52.95, 0.102184, , 
52.98, 0.101816, , 
53.01, 0.101578, , 
53.04, 0.100969, , 
53.07, 0.100569, , 
53.10, 0.100284, , 
53.13, 0.099938, , 
53.16, 0.099589, , 
53.19, 0.099212, , 
53.22, 0.098841, , 
53.25, 0.098409, , 
53.28, 0.097880, , 
53.31, 0.097489, , 
53.34, 0.097144, , 
53.37, 0.096826, , 
53.40, 0.096440, , 
53.43, 0.096040, , 
53.46, 0.095688, , 
53.49, 0.095383, , 
53.52, 0.094980, , 
53.55, 0.094673, , 
53.58, 0.094403, , 
53.61, 0.094070, , 
53.64, 0.093785, , 
53.68, 0.093509, , 
53.70, 0.093375, , 
53.73, 0.093138, , 
53.76, 0.092823, , 
53.79, 0.092659, , 
53.82, 0.092513, , 
53.85, 0.092310, , 
53.88, 0.092138, , 
53.91, 0.092021, , 
53.94, 0.091897, , 
53.97, 0.091659, , 
54.00, 0.091475, , 
54.03, 0.091364, , 
54.06, 0.091298, , 
54.09, 0.091263, , 
54.12, 0.091276, , 
54.15, 0.091390, , 
54.18, 0.091536, , 
54.21, 0.091628, , 
54.24, 0.091678, , 
54.27, 0.091745, , 
54.30, 0.091824, , 
54.33, 0.091948, , 
54.36, 0.092110, , 
54.38, 0.092278, 17, 0.587
54.39, 0.092373, , 
54.42, 0.092586, , 
54.45, 0.092785, , 
54.48, 0.093014, , 
54.51, 0.093258, , 
54.54, 0.093594, , 
54.57, 0.093851, , 
54.60, 0.094076, , 
54.63, 0.094444, , 
54.66, 0.094930, , 
54.70, 0.095269, , 
54.72, 0.095631, , 
54.75, 0.096097, , 
54.78, 0.096535, , 
54.81, 0.096839, , 
54.84, 0.097175, , 
54.87, 0.097629, , 
54.90, 0.097946, , 
54.93, 0.098301, , 
54.96, 0.098790, , 
54.99, 0.099247, , 
55.02, 0.099776, , 
55.05, 0.100163, , 
55.08, 0.100585, , 
55.11, 0.101096, , 
55.14, 0.101616, , 
55.17, 0.102089, , 
55.20, 0.102501, , 
55.23, 0.102990, , 
55.26, 0.103434, , 
55.29, 0.103862, , 
55.32, 0.104277, , 
55.35, 0.104763, , 
55.38, 0.105204, , 
55.41, 0.105600, , 
55.44, 0.105946, , 
55.47, 0.106295, , 
55.50, 0.106644, , 
55.53, 0.106901, , 
55.56, 0.107167, , 
55.59, 0.107510, , 
55.62, 0.107703, , 
55.65, 0.107865, , 
55.68, 0.108020, , 
55.71, 0.108182, , 
55.74, 0.108398, , 
55.77, 0.108525, , 
55.80, 0.108613, , 
55.83, 0.108715, , 
55.86, 0.108715, , 
55.89, 0.108693, , 
55.92, 0.108728, , 
55.95, 0.108743, , 
55.98, 0.108591, , 
56.01, 0.108436, , 
56.04, 0.108404, , 
56.07, 0.108385, , 
56.10, 0.108245, , 
56.13, 0.108033, , 
56.16, 0.107944, , 
56.19, 0.107833, , 
56.22, 0.107665, , 
56.25, 0.107471, , 
56.28, 0.107256, , 
56.31, 0.107094, , 
56.34, 0.106831, , 
56.37, 0.106542, , 
56.40, 0.106358, , 
56.43, 0.106174, , 
56.46, 0.105905, , 
56.49, 0.105629, , 
56.52, 0.105318, , 
56.55, 0.104947, , 
56.58, 0.104626, , 
56.61, 0.104284, , 
56.64, 0.103979, , 
56.67, 0.103541, , 
56.70, 0.103120, , 
56.73, 0.102717, , 
56.76, 0.102212, , 
56.79, 0.101905, , 
56.82, 0.101505, , 
56.85, 0.101191, , 
56.88, 0.100871, , 
56.91, 0.100417, , 
56.94, 0.100046, , 
56.97, 0.099640, , 
57.00, 0.099450, , 
57.03, 0.099263, , 
57.06, 0.099002, , 
57.09, 0.098898, , 
57.13, 0.098853, , 
57.15, 0.098853, , 
57.18, 0.098765, , 
57.21, 0.098742, , 
57.24, 0.098784, , 
57.27, 0.098790, , 
57.30, 0.098787, , 
57.33, 0.098857, , 
57.36, 0.099072, , 
57.39, 0.099234, , 
57.42, 0.099348, , 
57.45, 0.099491, , 
57.48, 0.099669, , 
57.51, 0.099840, , 
57.54, 0.099944, , 
57.57, 0.100160, , 
57.58, 0.100230, 18, 0.586
57.60, 0.100389, , 
57.63, 0.100671, , 
57.66, 0.100896, , 
57.69, 0.101090, , 
57.72, 0.101356, , 
57.75, 0.101613, , 
57.78, 0.101844, , 
57.81, 0.102162, , 
57.84, 0.102511, , 
57.87, 0.102901, , 
57.90, 0.103129, , 
57.93, 0.103421, , 
57.96, 0.103817, , 
57.99, 0.104211, , 
58.02, 0.104607, , 
58.05, 0.105020, , 
58.08, 0.105394, , 
58.11, 0.105711, , 
58.14, 0.105997, , 
58.17, 0.106409, , 
58.20, 0.106850, , 
58.23, 0.107218, , 
58.26, 0.107557, , 
58.29, 0.107900, , 
58.32, 0.108303, , 
58.35, 0.108531, , 
58.38, 0.108797, , 
58.41, 0.109045, , 
58.44, 0.109343, , 
58.47, 0.109552, , 
58.50, 0.109701, , 
58.53, 0.109816, , 
58.56, 0.109971, , 
58.59, 0.110117, , 
58.62, 0.110145, , 
58.65, 0.110247, , 
58.69, 0.110348, , 
58.71, 0.110345, , 
58.74, 0.110333, , 
58.77, 0.110361, , 
58.80, 0.110387, , 
58.83, 0.110250, , 
58.86, 0.110092, , 
58.89, 0.110031, , 
58.92, 0.109968, , 
58.95, 0.109889, , 
58.98, 0.109819, , 
59.01, 0.109701, , 
59.04, 0.109546, , 
59.07, 0.109410, , 
59.10, 0.109257, , 
59.13, 0.109080, , 
59.16, 0.108937, , 
59.19, 0.108731, , 
59.22, 0.108553, , 
59.25, 0.108379, , 
59.28, 0.108239, , 
59.31, 0.108023, , 
59.34, 0.107836, , 
59.37, 0.107674, , 
59.40, 0.107544, , 
59.43, 0.107367, , 
59.46, 0.107173, , 
59.49, 0.107034, , 
59.52, 0.106745, , 
59.55, 0.106555, , 
59.58, 0.106434, , 
59.61, 0.106361, , 
59.64, 0.106349, , 
59.67, 0.106279, , 
59.70, 0.106206, , 
59.73, 0.106161, , 
59.76, 0.106161, , 
59.79, 0.106149, , 
59.82, 0.106174, , 
59.85, 0.106187, , 
59.88, 0.106203, , 
59.91, 0.106184, , 
59.94, 0.106238, , 
59.97, 0.106409, , 
60.00, 0.106567, , 
60.03, 0.106713, , 
60.06, 0.106907, , 
60.09, 0.107110, , 
60.12, 0.107278, , 
60.15, 0.107402, , 
60.18, 0.107655, , 
60.21, 0.107890, , 
60.24, 0.108087, , 
60.27, 0.108306, , 
60.30, 0.108496, , 
60.33, 0.108791, , 
60.36, 0.109013, , 
60.39, 0.109191, , 
60.42, 0.109460, , 
60.45, 0.109739, , 
60.48, 0.109923, , 
60.51, 0.110130, , 
60.54, 0.110323, , 
60.57, 0.110567, , 
60.60, 0.110723, , 
60.63, 0.110821, , 
60.66, 0.110951, , 
60.69, 0.111081, , 
60.72, 0.111202, , 
60.75, 0.111275, , 
60.78, 0.111417, 19, 0.584
60.78, 0.111449, , 
60.81, 0.111605, , 
60.84, 0.111665, , 
60.87, 0.111687, , 
60.90, 0.111684, , 
60.93, 0.111776, , 
60.96, 0.111754, , 
60.99, 0.111728, , 
61.02, 0.111750, , 
61.05, 0.111779, , 
61.08, 0.111744, , 
61.11, 0.111700, , 
61.14, 0.111712, , 
61.17, 0.111750, , 
61.21, 0.111665, , 
61.23, 0.111566, , 
61.26, 0.111452, , 
61.29, 0.111363, , 
61.32, 0.111243, , 
61.35, 0.111145, , 
61.38, 0.111030, , 
61.41, 0.110907, , 
61.44, 0.110739, , 
61.47, 0.110532, , 
61.50, 0.110412, , 
61.53, 0.110333, , 
61.56, 0.110136, , 
61.59, 0.109901, , 
61.62, 0.109850, , 
61.65, 0.109819, , 
61.68, 0.109774, , 
61.71, 0.109720, , 
61.74, 0.109765, , 
61.77, 0.109781, , 
61.80, 0.109743, , 
61.83, 0.109701, , 
61.86, 0.109733, , 
61.89, 0.109774, , 
61.92, 0.109727, , 
61.95, 0.109708, , 
61.98, 0.109743, , 
62.01, 0.109774, , 
62.04, 0.109822, , 
62.07, 0.109920, , 
62.10, 0.110133, , 
62.13, 0.110263, , 
62.16, 0.110399, , 
62.19, 0.110561, , 
62.22, 0.110716, , 
62.25, 0.110859, , 
62.28, 0.110996, , 
62.31, 0.111154, , 
62.34, 0.111341, , 
62.37, 0.111497, , 
62.40, 0.111595, , 
62.43, 0.111757, , 
62.46, 0.111912, , 
62.49, 0.112045, , 
62.53, 0.112096, , 
62.55, 0.112182, , 
62.58, 0.112337, , 
62.61, 0.112461, , 
62.64, 0.112524, , 
62.67, 0.112581, , 
62.70, 0.112645, , 
62.73, 0.112613, , 
62.76, 0.112607, , 
62.79, 0.112616, , 
62.82, 0.112692, , 
62.85, 0.112692, , 
62.88, 0.112601, , 
62.91, 0.112464, , 
62.94, 0.112417, , 
62.97, 0.112337, , 
63.00, 0.112204, , 
63.03, 0.112214, , 
63.06, 0.112267, , 
63.09, 0.112201, , 
63.12, 0.112058, , 
63.15, 0.111944, , 
63.18, 0.111884, , 
63.21, 0.111817, , 
63.24, 0.111731, , 
63.27, 0.111681, , 
63.30, 0.111573, , 
63.34, 0.111433, , 
63.36, 0.111348, , 
63.39, 0.111271, , 
63.42, 0.111252, , 
63.45, 0.111094, , 
63.48, 0.110948, , 
63.51, 0.110850, , 
63.54, 0.110818, , 
63.57, 0.110786, , 
63.60, 0.110716, , 
63.63, 0.110729, , 
63.66, 0.110815, , 
63.69, 0.110818, , 
63.72, 0.110796, , 
63.75, 0.110827, , 
63.78, 0.110865, , 
63.81, 0.110938, , 
63.84, 0.111049, , 
63.87, 0.111179, , 
63.90, 0.111316, , 
63.93, 0.111319, , 
63.96, 0.111291, , 
63.98, 0.111300, 20, 0.586
63.99, 0.111300, , 
64.02, 0.111392, , 
64.05, 0.111516, , 
64.08, 0.111624, , 
64.11, 0.111776, , 
64.14, 0.111858, , 
64.17, 0.111858, , 
64.20, 0.111852, , 
64.23, 0.111871, , 
64.26, 0.111903, , 
64.29, 0.111884, , 
64.32, 0.111849, , 
64.35, 0.111858, , 
64.38, 0.111884, , 
64.41, 0.111858, , 
64.44, 0.111700, , 
64.47, 0.111592, , 
64.50, 0.111541, , 
64.53, 0.111459, , 
64.56, 0.111392, , 
64.59, 0.111306, , 
64.62, 0.111173, , 
64.65, 0.111024, , 
64.68, 0.110929, , 
64.71, 0.110865, , 
64.74, 0.110761, , 
64.77, 0.110564, , 
64.80, 0.110434, , 
64.83, 0.110320, , 
64.86, 0.110209, , 
64.90, 0.110028, , 
64.92, 0.109914, , 
64.95, 0.109869, , 
64.98, 0.109736, , 
65.01, 0.109628, , 
65.04, 0.109387, , 
65.07, 0.109365, , 
65.10, 0.109349, , 
65.13, 0.109219, , 
65.16, 0.109035, , 
65.19, 0.108985, , 
65.22, 0.108956, , 
65.25, 0.108870, , 
65.28, 0.108848, , 
65.31, 0.108886, , 
65.34, 0.108927, , 
65.37, 0.108842, , 
65.40, 0.108807, , 
65.43, 0.108839, , 
65.46, 0.108820, , 
65.49, 0.108772, , 
65.52, 0.108750, , 
65.55, 0.108778, , 
65.58, 0.108769, , 
65.61, 0.108680, , 
65.64, 0.108480, , 
65.67, 0.108407, , 
65.70, 0.108347, , 
65.73, 0.108290, , 
65.76, 0.108264, , 
65.80, 0.108264, , 
65.82, 0.108103, , 
65.85, 0.107963, , 
65.88, 0.107852, , 
65.91, 0.107811, , 
65.94, 0.107687, , 
65.97, 0.107459, , 
66.00, 0.107300, , 
66.03, 0.107230, , 
66.06, 0.107091, , 
66.09, 0.106862, , 
66.12, 0.106796, , 
66.15, 0.106701, , 
66.18, 0.106472, , 
66.21, 0.106336, , 
66.24, 0.106168, , 
66.27, 0.106019, , 
66.30, 0.105917, , 
66.33, 0.105692, , 
66.36, 0.105530, , 
66.39, 0.105410, , 
66.42, 0.105296, , 
66.45, 0.105083, , 
66.48, 0.104915, , 
66.51, 0.104807, , 
66.54, 0.104626, , 
66.57, 0.104445, , 
66.60, 0.104369, , 
66.63, 0.104357, , 
66.66, 0.104246, , 
66.69, 0.104068, , 
66.72, 0.103976, , 
66.75, 0.103932, , 
66.78, 0.103827, , 
66.82, 0.103649, , 
66.84, 0.103541, , 
66.87, 0.103481, , 
66.90, 0.103392, , 
66.93, 0.103231, , 
66.96, 0.103050, , 
66.99, 0.103002, , 
67.02, 0.102907, , 
67.05, 0.102761, , 
67.08, 0.102660, , 
67.12, 0.102561, , 
67.14, 0.102381, , 
67.17, 0.102238, , 
67.18, 0.102095, 21, 0.587
67.20, 0.101990, , 
67.23, 0.101949, , 
67.26, 0.101762, , 
67.29, 0.101600, , 
67.32, 0.101511, , 
67.35, 0.101385, , 
67.38, 0.101194, , 
67.41, 0.101058, , 
67.44, 0.100899, , 
67.47, 0.100753, , 
67.50, 0.100496, , 
67.53, 0.100265, , 
67.56, 0.100062, , 
67.59, 0.099891, , 
67.62, 0.099688, , 
67.65, 0.099478, , 
67.68, 0.099355, , 
67.71, 0.099186, , 
67.74, 0.098955, , 
67.77, 0.098752, , 
67.80, 0.098555, , 
67.83, 0.098336, , 
67.86, 0.098098, , 
67.89, 0.097921, , 
67.92, 0.097791, , 
67.95, 0.097632, , 
67.98, 0.097480, , 
68.01, 0.097305, , 
68.04, 0.097150, , 
68.07, 0.097061, , 
68.10, 0.096842, , 
68.13, 0.096627, , 
68.16, 0.096582, , 
68.19, 0.096490, , 
68.22, 0.096357, , 
68.25, 0.096170, , 
68.28, 0.096068, , 
68.31, 0.095954, , 
68.34, 0.095691, , 
68.37, 0.095507, , 
68.40, 0.095393, , 
68.43, 0.095282, , 
68.46, 0.095076, , 
68.49, 0.094806, , 
68.52, 0.094635, , 
68.55, 0.094381, , 
68.58, 0.094143, , 
68.61, 0.093902, , 
68.64, 0.093705, , 
68.67, 0.093524, , 
68.70, 0.093233, , 
68.73, 0.092995, , 
68.76, 0.092801, , 
68.79, 0.092592, , 
68.83, 0.092427, , 
68.85, 0.092230, , 
68.88, 0.092075, , 
68.91, 0.091910, , 
68.94, 0.091612, , 
68.97, 0.091434, , 
69.00, 0.091209, , 
69.03, 0.090987, , 
69.06, 0.090730, , 
69.09, 0.090508, , 
69.12, 0.090308, , 
69.15, 0.090048, , 
69.18, 0.089778, , 
69.21, 0.089591, , 
69.24, 0.089417, , 
69.27, 0.089192, , 
69.30, 0.088897, , 
69.33, 0.088678, , 
69.36, 0.088538, , 
69.39, 0.088364, , 
69.42, 0.088120, , 
69.45, 0.087970, , 
69.48, 0.087790, , 
69.51, 0.087558, , 
69.54, 0.087346, , 
69.57, 0.087238, , 
69.60, 0.087111, , 
69.63, 0.086936, , 
69.66, 0.086714, , 
69.69, 0.086515, , 
69.72, 0.086404, , 
69.75, 0.086147, , 
69.78, 0.086080, , 
69.81, 0.085874, , 
69.84, 0.085674, , 
69.87, 0.085392, , 
69.90, 0.085208, , 
69.93, 0.085093, , 
69.96, 0.084992, , 
69.99, 0.084773, , 
70.02, 0.084513, , 
70.05, 0.084351, , 
70.08, 0.084189, , 
70.11, 0.083974, , 
70.14, 0.083828, , 
70.17, 0.083695, , 
70.20, 0.083523, , 
70.23, 0.083320, , 
70.26, 0.083108, , 
70.29, 0.082981, , 
70.32, 0.082759, , 
70.35, 0.082527, , 
70.38, 0.082369, , 
70.38, 0.082328, 22, 0.586
70.41, 0.082159, , 
70.44, 0.081960, , 
70.47, 0.081700, , 
70.50, 0.081487, , 
70.53, 0.081313, , 
70.57, 0.081087, , 
70.59, 0.080865, , 
70.62, 0.080573, , 
70.65, 0.080367, , 
70.68, 0.080240, , 
70.71, 0.080041, , 
70.74, 0.079809, , 
70.77, 0.079657, , 
70.80, 0.079403, , 
70.83, 0.079165, , 
70.87, 0.078962, , 
70.89, 0.078791, , 
70.92, 0.078550, , 
70.95, 0.078245, , 
70.98, 0.078064, , 
71.01, 0.077865, , 
71.04, 0.077608, , 
71.07, 0.077360, , 
71.10, 0.077157, , 
71.13, 0.076961, , 
71.16, 0.076723, , 
71.19, 0.076542, , 
71.22, 0.076393, , 
71.25, 0.076253, , 
71.28, 0.076012, , 
71.31, 0.075733, , 
71.34, 0.075476, , 
71.37, 0.075270, , 
71.40, 0.075004, , 
71.43, 0.074772, , 
71.46, 0.074575, , 
71.49, 0.074391, , 
71.52, 0.074226, , 
71.55, 0.074008, , 
71.58, 0.073839, , 
71.61, 0.073678, , 
71.64, 0.073440, , 
71.67, 0.073202, , 
71.70, 0.073002, , 
71.73, 0.072815, , 
71.76, 0.072568, , 
71.79, 0.072418, , 
71.82, 0.072273, , 
71.85, 0.072098, , 
71.89, 0.071854, , 
71.91, 0.071667, , 
71.94, 0.071537, , 
71.97, 0.071407, , 
72.00, 0.071169, , 
72.03, 0.070931, , 
72.06, 0.070756, , 
72.09, 0.070614, , 
72.12, 0.070436, , 
72.15, 0.070198, , 
72.18, 0.070059, , 
72.21, 0.069843, , 
72.24, 0.069595, , 
72.27, 0.069488, , 
72.30, 0.069373, , 
72.33, 0.069275, , 
72.36, 0.069034, , 
72.39, 0.068793, , 
72.42, 0.068717, , 
72.45, 0.068542, , 
72.48, 0.068333, , 
72.51, 0.068241, , 
72.54, 0.068133, , 
72.57, 0.067965, , 
72.60, 0.067692, , 
72.63, 0.067505, , 
72.66, 0.067350, , 
72.69, 0.067191, , 
72.72, 0.066979, , 
72.75, 0.066798, , 
72.78, 0.066725, , 
72.81, 0.066598, , 
72.84, 0.066382, , 
72.87, 0.066201, , 
72.90, 0.066144, , 
72.93, 0.065976, , 
72.96, 0.065767, , 
72.99, 0.065653, , 
73.02, 0.065507, , 
73.05, 0.065307, , 
73.08, 0.065158, , 
73.11, 0.065028, , 
73.14, 0.064857, , 
73.17, 0.064736, , 
73.20, 0.064568, , 
73.23, 0.064409, , 
73.26, 0.064282, , 
73.29, 0.064130, , 
73.33, 0.063949, , 
73.35, 0.063765, , 
73.38, 0.063629, , 
73.41, 0.063423, , 
73.44, 0.063172, , 
73.47, 0.063102, , 
73.50, 0.062922, , 
73.53, 0.062741, , 
73.56, 0.062563, , 
73.58, 0.062484, 23, 0.585
73.59, 0.062424, , 
73.62, 0.062262, , 
73.65, 0.062078, , 
73.68, 0.061900, , 
73.71, 0.061751, , 
73.74, 0.061647, , 
73.77, 0.061437, , 
73.80, 0.061180, , 
73.83, 0.061095, , 
73.86, 0.061009, , 
73.89, 0.060793, , 
73.92, 0.060622, , 
73.95, 0.060555, , 
73.98, 0.060413, , 
74.01, 0.060213, , 
74.04, 0.060010, , 
74.07, 0.059912, , 
74.10, 0.059759, , 
74.13, 0.059604, , 
74.16, 0.059515, , 
74.19, 0.059464, , 
74.22, 0.059356, , 
74.25, 0.059166, , 
74.28, 0.058982, , 
74.31, 0.058862, , 
74.35, 0.058693, , 
74.37, 0.058586, , 
74.40, 0.058510, , 
74.43, 0.058418, , 
74.46, 0.058268, , 
74.49, 0.058088, , 
74.52, 0.058015, , 
74.55, 0.058034, , 
74.58, 0.057977, , 
74.61, 0.057783, , 
74.64, 0.057688, , 
74.67, 0.057631, , 
74.70, 0.057586, , 
74.73, 0.057422, , 
74.76, 0.057336, , 
74.79, 0.057266, , 
74.82, 0.057165, , 
74.85, 0.057012, , 
74.88, 0.056943, , 
74.91, 0.056838, , 
74.94, 0.056682, , 
74.97, 0.056575, , 
75.00, 0.056479, , 
75.03, 0.056381, , 
75.06, 0.056229, , 
75.09, 0.056124, , 
75.12, 0.055994, , 
75.15, 0.055896, , 
75.18, 0.055744, , 
75.21, 0.055661, , 
75.24, 0.055604, , 
75.27, 0.055480, , 
75.30, 0.055357, , 
75.33, 0.055131, , 
75.36, 0.055020, , 
75.39, 0.054916, , 
75.42, 0.054760, , 
75.45, 0.054662, , 
75.48, 0.054545, , 
75.51, 0.054434, , 
75.54, 0.054253, , 
75.57, 0.054091, , 
75.60, 0.053926, , 
75.63, 0.053837, , 
75.66, 0.053767, , 
75.69, 0.053637, , 
75.72, 0.053517, , 
75.75, 0.053387, , 
75.78, 0.053222, , 
75.81, 0.053162, , 
75.84, 0.053085, , 
75.87, 0.052936, , 
75.90, 0.052778, , 
75.93, 0.052600, , 
75.96, 0.052470, , 
75.99, 0.052353, , 
76.02, 0.052188, , 
76.05, 0.052147, , 
76.08, 0.052124, , 
76.11, 0.052026, , 
76.14, 0.051858, , 
76.17, 0.051756, , 
76.20, 0.051671, , 
76.23, 0.051553, , 
76.26, 0.051420, , 
76.29, 0.051277, , 
76.32, 0.051246, , 
76.36, 0.051097, , 
76.38, 0.050957, , 
76.41, 0.050868, , 
76.44, 0.050802, , 
76.47, 0.050675, , 
76.50, 0.050459, , 
76.53, 0.050320, , 
76.56, 0.050243, , 
76.59, 0.050180, , 
76.62, 0.049980, , 
76.65, 0.049834, , 
76.68, 0.049758, , 
76.71, 0.049638, , 
76.74, 0.049501, , 
76.77, 0.049403, , 
76.78, 0.049362, 24, 0.586
76.80, 0.049298, , 
76.83, 0.049247, , 
76.86, 0.049140, , 
76.89, 0.048956, , 
76.92, 0.048822, , 
76.95, 0.048686, , 
76.98, 0.048562, , 
77.01, 0.048480, , 
77.04, 0.048305, , 
77.07, 0.048210, , 
77.10, 0.048099, , 
77.13, 0.048074, , 
77.16, 0.047925, , 
77.19, 0.047792, , 
77.22, 0.047642, , 
77.25, 0.047573, , 
77.28, 0.047468, , 
77.31, 0.047287, , 
77.34, 0.047119, , 
77.37, 0.047084, , 
77.40, 0.047005, , 
77.43, 0.046843, , 
77.46, 0.046729, , 
77.49, 0.046669, , 
77.52, 0.046602, , 
77.55, 0.046485, , 
77.59, 0.046377, , 
77.61, 0.046313, , 
77.64, 0.046148, , 
77.67, 0.046069, , 
77.70, 0.046034, , 
77.73, 0.046015, , 
77.76, 0.045879, , 
77.79, 0.045736, , 
77.82, 0.045635, , 
77.85, 0.045578, , 
77.88, 0.045451, , 
77.91, 0.045279, , 
77.94, 0.045197, , 
77.97, 0.045140, , 
78.00, 0.045092, , 
78.03, 0.044927, , 
78.06, 0.044826, , 
78.09, 0.044762, , 
78.12, 0.044683, , 
78.15, 0.044509, , 
78.18, 0.044375, , 
78.21, 0.044290, , 
78.24, 0.044188, , 
78.27, 0.044093, , 
78.30, 0.044052, , 
78.33, 0.043957, , 
78.36, 0.043830, , 
78.39, 0.043690, , 
78.42, 0.043662, , 
78.45, 0.043592, , 
78.48, 0.043386, , 
78.51, 0.043246, , 
78.54, 0.043202, , 
78.57, 0.043135, , 
78.60, 0.042980, , 
78.63, 0.042789, , 
78.67, 0.042704, , 
78.69, 0.042653, , 
78.72, 0.042453, , 
78.75, 0.042298, , 
78.78, 0.042212, , 
78.81, 0.042066, , 
78.84, 0.041835, , 
78.87, 0.041762, , 
78.90, 0.041720, , 
78.93, 0.041632, , 
78.96, 0.041590, , 
78.99, 0.041524, , 
79.02, 0.041429, , 
79.05, 0.041280, , 
79.08, 0.041118, , 
79.11, 0.041038, , 
79.14, 0.040943, , 
79.17, 0.040823, , 
79.20, 0.040639, , 
79.23, 0.040585, , 
79.26, 0.040607, , 
79.29, 0.040547, , 
79.32, 0.040449, , 
79.35, 0.040337, , 
79.38, 0.040249, , 
79.42, 0.040131, , 
79.44, 0.040001, , 
79.47, 0.039874, , 
79.50, 0.039703, , 
79.53, 0.039541, , 
79.56, 0.039440, , 
79.59, 0.039345, , 
79.62, 0.039370, , 
79.65, 0.039322, , 
79.68, 0.039189, , 
79.71, 0.039066, , 
79.74, 0.039012, , 
79.77, 0.038920, , 
79.80, 0.038736, , 
79.83, 0.038637, , 
79.86, 0.038539, , 
79.89, 0.038412, , 
79.92, 0.038339, , 
79.95, 0.038307, , 
79.97, 0.038231, 25, 0.584
79.98, 0.038190, , 
80.01, 0.038025, , 
80.04, 0.037917, , 
80.07, 0.037882, , 
80.10, 0.037781, , 
80.13, 0.037603, , 
80.16, 0.037464, , 
80.19, 0.037403, , 
80.22, 0.037356, , 
80.25, 0.037296, , 
80.28, 0.037223, , 
80.31, 0.037093, , 
80.34, 0.036947, , 
80.37, 0.036861, , 
80.40, 0.036801, , 
80.43, 0.036817, , 
80.46, 0.036804, , 
80.49, 0.036636, , 
80.52, 0.036512, , 
80.55, 0.036404, , 
80.58, 0.036328, , 
80.61, 0.036268, , 
80.64, 0.036249, , 
80.67, 0.036141, , 
80.70, 0.036011, , 
80.73, 0.035871, , 
80.76, 0.035811, , 
80.79, 0.035890, , 
80.82, 0.035884, , 
80.85, 0.035830, , 
80.88, 0.035773, , 
80.91, 0.035706, , 
80.94, 0.035551, , 
80.97, 0.035405, , 
81.00, 0.035373, , 
81.03, 0.035377, , 
81.06, 0.035332, , 
81.09, 0.035291, , 
81.12, 0.035253, , 
81.15, 0.035085, , 
81.18, 0.034948, , 
81.21, 0.034853, , 
81.24, 0.034853, , 
81.27, 0.034869, , 
81.30, 0.034809, , 
81.33, 0.034704, , 
81.36, 0.034634, , 
81.39, 0.034574, , 
81.42, 0.034428, , 
81.45, 0.034320, , 
81.48, 0.034320, , 
81.51, 0.034336, , 
81.54, 0.034209, , 
81.57, 0.034105, , 
81.60, 0.033990, , 
81.63, 0.033937, , 
81.66, 0.033860, , 
81.69, 0.033838, , 
81.72, 0.033838, , 
81.75, 0.033835, , 
81.78, 0.033749, , 
81.81, 0.033645, , 
81.84, 0.033559, , 
81.87, 0.033454, , 
81.90, 0.033356, , 
81.93, 0.033347, , 
81.96, 0.033372, , 
81.99, 0.033381, , 
82.02, 0.033308, , 
82.05, 0.033283, , 
82.08, 0.033331, , 
82.11, 0.033248, , 
82.14, 0.033125, , 
82.17, 0.033010, , 
82.20, 0.032956, , 
82.23, 0.032899, , 
82.26, 0.032852, , 
82.29, 0.032820, , 
82.32, 0.032858, , 
82.35, 0.032836, , 
82.38, 0.032731, , 
82.41, 0.032725, , 
82.44, 0.032709, , 
82.47, 0.032544, , 
82.50, 0.032338, , 
82.53, 0.032274, , 
82.56, 0.032240, , 
82.59, 0.032186, , 
82.62, 0.032154, , 
82.65, 0.032189, , 
82.68, 0.032176, , 
82.71, 0.032195, , 
82.74, 0.032170, , 
82.77, 0.032179, , 
82.80, 0.032132, , 
82.83, 0.031983, , 
82.86, 0.031906, , 
82.89, 0.031811, , 
82.92, 0.031742, , 
82.95, 0.031669, , 
82.98, 0.031672, , 
83.01, 0.031703, , 
83.04, 0.031716, , 
83.07, 0.031672, , 
83.10, 0.031675, , 
83.13, 0.031710, , 
83.16, 0.031707, , 
83.17, 0.031694, 26, 0.586
83.19, 0.031684, , 
83.22, 0.031681, , 
83.25, 0.031710, , 
83.28, 0.031707, , 
83.31, 0.031681, , 
83.34, 0.031656, , 
83.37, 0.031723, , 
83.40, 0.031697, , 
83.43, 0.031697, , 
83.46, 0.031707, , 
83.49, 0.031726, , 
83.52, 0.031754, , 
83.55, 0.031742, , 
83.58, 0.031757, , 
83.61, 0.031792, , 
83.65, 0.031757, , 
83.67, 0.031757, , 
83.70, 0.031859, , 
83.73, 0.032065, , 
83.76, 0.032154, , 
83.79, 0.032195, , 
83.82, 0.032249, , 
83.85, 0.032255, , 
83.88, 0.032262, , 
83.91, 0.032230, , 
83.94, 0.032290, , 
83.97, 0.032338, , 
84.00, 0.032274, , 
84.03, 0.032252, , 
84.06, 0.032281, , 
84.09, 0.032300, , 
84.12, 0.032278, , 
84.15, 0.032370, , 
84.18, 0.032557, , 
84.21, 0.032661, , 
84.24, 0.032684, , 
84.27, 0.032725, , 
84.30, 0.032776, , 
84.33, 0.032814, , 
84.36, 0.032795, , 
84.39, 0.032782, , 
84.42, 0.032795, , 
84.45, 0.032785, , 
84.48, 0.032788, , 
84.51, 0.032804, , 
84.54, 0.032855, , 
84.57, 0.032833, , 
84.60, 0.032823, , 
84.63, 0.032804, , 
84.66, 0.032820, , 
84.69, 0.032753, , 
84.72, 0.032744, , 
84.75, 0.032820, , 
84.78, 0.032836, , 
84.82, 0.032779, , 
84.84, 0.032760, , 
84.87, 0.032918, , 
84.90, 0.033033, , 
84.93, 0.033128, , 
84.96, 0.033159, , 
84.99, 0.033239, , 
85.02, 0.033293, , 
85.05, 0.033236, , 
85.08, 0.033251, , 
85.11, 0.033280, , 
85.14, 0.033397, , 
85.17, 0.033473, , 
85.20, 0.033591, , 
85.23, 0.033721, , 
85.26, 0.033784, , 
85.29, 0.033756, , 
85.32, 0.033724, , 
85.35, 0.033711, , 
85.38, 0.033727, , 
85.41, 0.033714, , 
85.44, 0.033683, , 
85.47, 0.033714, , 
85.50, 0.033737, , 
85.53, 0.033680, , 
85.56, 0.033619, , 
85.59, 0.033727, , 
85.62, 0.033886, , 
85.65, 0.033981, , 
85.68, 0.034082, , 
85.71, 0.034197, , 
85.74, 0.034187, , 
85.77, 0.034159, , 
85.80, 0.034206, , 
85.83, 0.034228, , 
85.86, 0.034193, , 
85.89, 0.034222, , 
85.93, 0.034225, , 
85.95, 0.034209, , 
85.98, 0.034320, , 
86.01, 0.034466, , 
86.04, 0.034599, , 
86.07, 0.034707, , 
86.10, 0.034730, , 
86.13, 0.034663, , 
86.16, 0.034707, , 
86.19, 0.034749, , 
86.22, 0.034723, , 
86.25, 0.034695, , 
86.28, 0.034730, , 
86.31, 0.034745, , 
86.34, 0.034755, , 
86.37, 0.034891, , 
86.38, 0.034923, 27, 0.586
86.40, 0.035104, , 
86.43, 0.035231, , 
86.46, 0.035285, , 
86.49, 0.035297, , 
86.52, 0.035367, , 
86.55, 0.035415, , 
86.58, 0.035348, , 
86.61, 0.035345, , 
86.64, 0.035367, , 
86.67, 0.035358, , 
86.70, 0.035316, , 
86.73, 0.035323, , 
86.76, 0.035339, , 
86.79, 0.035383, , 
86.82, 0.035335, , 
86.85, 0.035405, , 
86.88, 0.035446, , 
86.91, 0.035538, , 
86.94, 0.035624, , 
86.97, 0.035757, , 
87.00, 0.035840, , 
87.03, 0.035862, , 
87.06, 0.035871, , 
87.09, 0.035868, , 
87.12, 0.035887, , 
87.15, 0.035868, , 
87.18, 0.035783, , 
87.21, 0.035837, , 
87.25, 0.035878, , 
87.27, 0.035824, , 
87.30, 0.035805, , 
87.33, 0.035852, , 
87.36, 0.035862, , 
87.39, 0.035890, , 
87.42, 0.036033, , 
87.45, 0.036097, , 
87.48, 0.036306, , 
87.51, 0.036315, , 
87.54, 0.036274, , 
87.57, 0.036341, , 
87.60, 0.036373, , 
87.63, 0.036335, , 
87.66, 0.036331, , 
87.69, 0.036382, , 
87.72, 0.036392, , 
87.76, 0.036322, , 
87.78, 0.036300, , 
87.81, 0.036363, , 
87.84, 0.036369, , 
87.87, 0.036303, , 
87.90, 0.036354, , 
87.93, 0.036404, , 
87.96, 0.036392, , 
87.99, 0.036360, , 
88.02, 0.036373, , 
88.05, 0.036436, , 
88.08, 0.036404, , 
88.11, 0.036338, , 
88.14, 0.036395, , 
88.17, 0.036553, , 
88.20, 0.036668, , 
88.23, 0.036817, , 
88.26, 0.037055, , 
88.29, 0.037191, , 
88.32, 0.037223, , 
88.35, 0.037353, , 
88.38, 0.037917, , 
88.41, 0.042548, , 
88.44, 0.056917, , 
88.47, 0.073313, , 
88.50, 0.090270, , 
88.53, 0.100582, , 
88.56, 0.107164, , 
88.59, 0.111208, , 
88.62, 0.113793, , 
88.65, 0.115807, , 
88.68, 0.116943, , 
88.71, 0.117831, , 
88.74, 0.118805, , 
88.78, 0.119655, , 
88.80, 0.120429, , 
88.83, 0.121193, , 
88.86, 0.121996, , 
88.89, 0.122786, , 
88.92, 0.121174, , 
88.95, 0.110888, , 
88.98, 0.098587, , 
89.01, 0.082978, , 
89.04, 0.068663, , 
89.07, 0.060933, , 
89.10, 0.055997, , 
89.13, 0.053767, , 
89.16, 0.052429, , 
89.19, 0.051623, , 
89.22, 0.051198, , 
89.25, 0.050795, , 
89.28, 0.050415, , 
89.31, 0.050113, , 
89.34, 0.049790, , 
89.37, 0.049581, , 
89.40, 0.049533, , 
89.43, 0.049660, , 
89.46, 0.049936, , 
89.49, 0.050291, , 
89.52, 0.050599, , 
89.55, 0.050941, , 
89.58, 0.051132, , 
89.61, 0.051135, , 
89.64, 0.051166, , 
89.67, 0.051236, , 
89.70, 0.051347, , 
89.73, 0.051455, , 
89.76, 0.051655, , 
89.79, 0.052131, , 
89.82, 0.052600, , 
89.85, 0.053035, , 
89.89, 0.053523, , 
89.91, 0.053869, , 
89.94, 0.054313, , 
89.97, 0.054538, , 
90.00, 0.054589, , 
90.03, 0.054595, , 
90.06, 0.054538, , 
90.09, 0.054589, , 
90.12, 0.054913, , 
90.15, 0.055227, , 
90.18, 0.055518, , 
90.21, 0.055699, , 
90.24, 0.056061, , 
90.27, 0.056689, , 
90.30, 0.056993, , 
90.33, 0.057266, , 
90.36, 0.057282, , 
90.39, 0.057155, , 
90.42, 0.056806, , 
90.45, 0.056448, , 
90.48, 0.056131, , 
90.51, 0.056134, , 
90.54, 0.056416, , 
90.57, 0.056873, , 
90.60, 0.057152, , 
90.64, 0.057209, , 
90.66, 0.057054, , 
90.69, 0.056873, , 
90.72, 0.056949, , 
90.75, 0.057047, , 
90.78, 0.056908, , 
90.81, 0.056641, , 
90.84, 0.056162, , 
90.87, 0.055858, , 
90.90, 0.055604, , 
90.93, 0.055452, , 
90.96, 0.055493, , 
90.99, 0.055528, , 
91.02, 0.055468, , 
91.05, 0.055249, , 
91.08, 0.054802, , 
91.11, 0.054364, , 
91.14, 0.054047, , 
91.17, 0.053907, , 
91.20, 0.053945, , 
91.23, 0.053970, , 
91.26, 0.053948, , 
91.29, 0.053882, , 
91.32, 0.053837, , 
91.35, 0.053612, , 
91.38, 0.053403, , 
91.41, 0.053393, , 
91.44, 0.053444, , 
91.47, 0.053488, , 
91.50, 0.053542, , 
91.53, 0.053698, , 
91.56, 0.053961, , 
91.59, 0.054173, , 
91.62, 0.054354, , 
91.65, 0.054567, , 
91.68, 0.054757, , 
91.71, 0.054668, , 
91.74, 0.054332, , 
91.77, 0.054024, , 
91.80, 0.053812, , 
91.83, 0.053720, , 
91.86, 0.053748, , 
91.89, 0.053980, , 
91.92, 0.054304, , 
91.95, 0.054535, , 
91.98, 0.054865, , 
92.01, 0.055223, , 
92.04, 0.055382, , 
92.07, 0.055287, , 
92.10, 0.055125, , 
92.13, 0.055128, , 
92.16, 0.055271, , 
92.19, 0.055350, , 
92.22, 0.055382, , 
92.25, 0.055474, , 
92.28, 0.055461, , 
92.31, 0.055366, , 
92.34, 0.055388, , 
92.37, 0.055474, , 
92.40, 0.055496, , 
92.43, 0.055360, , 
92.46, 0.055201, , 
92.49, 0.055017, , 
92.52, 0.054789, , 
92.55, 0.054668, , 
92.58, 0.054738, , 
92.61, 0.054744, , 
92.64, 0.054557, , 
92.67, 0.054364, , 
92.70, 0.054376, , 
92.73, 0.054532, , 
92.76, 0.054646, , 
92.79, 0.054919, , 
92.82, 0.055208, , 
92.85, 0.055452, , 
92.89, 0.055544, , 
92.91, 0.055550, , 
92.94, 0.055569, , 
92.97, 0.055471, , 
93.00, 0.055192, , 
93.03, 0.054849, , 
93.07, 0.054741, , 
93.09, 0.054729, , 
93.12, 0.054656, , 
93.15, 0.054643, , 
93.18, 0.054763, , 
93.21, 0.054833, , 
93.24, 0.054767, , 
93.27, 0.054770, , 
93.30, 0.054836, , 
93.33, 0.054814, , 
93.36, 0.054776, , 
93.39, 0.054913, , 
93.42, 0.055093, , 
93.45, 0.055366, , 
93.48, 0.055620, , 
93.51, 0.056051, , 
93.54, 0.056540, , 
93.57, 0.056857, , 
93.60, 0.057076, , 
93.63, 0.057307, , 
93.66, 0.057475, , 
93.69, 0.057529, , 
93.72, 0.057523, , 
93.75, 0.057602, , 
93.78, 0.057606, , 
93.81, 0.057555, , 
93.84, 0.057396, , 
93.87, 0.057298, , 
93.90, 0.057209, , 
93.93, 0.057108, , 
93.96, 0.056996, , 
93.99, 0.056841, , 
94.02, 0.056752, , 
94.06, 0.056635, , 
94.08, 0.056543, , 
94.11, 0.056407, , 
94.14, 0.056267, , 
94.17, 0.056134, , 
94.20, 0.055972, , 
94.23, 0.055877, , 
94.26, 0.055769, , 
94.29, 0.055633, , 
94.32, 0.055503, , 
94.35, 0.055490, , 
94.38, 0.055414, , 
94.41, 0.055252, , 
94.44, 0.055087, , 
94.47, 0.055068, , 
94.50, 0.055030, , 
94.53, 0.054966, , 
94.56, 0.054966, , 
94.59, 0.054855, , 
94.62, 0.054729, , 
94.65, 0.054595, , 
94.68, 0.054526, , 
94.71, 0.054529, , 
94.74, 0.054513, , 
94.77, 0.054456, , 
94.80, 0.054484, , 
94.83, 0.054535, , 
94.86, 0.054516, , 
94.89, 0.054434, , 
94.92, 0.054332, , 
94.95, 0.054224, , 
94.98, 0.054129, , 
95.01, 0.054024, , 
95.04, 0.054005, , 
95.07, 0.054028, , 
95.10, 0.054040, , 
95.13, 0.054043, , 
95.16, 0.054050, , 
95.19, 0.054116, , 
95.22, 0.054078, , 
95.25, 0.054034, , 
95.28, 0.053964, , 
95.31, 0.053882, , 
95.34, 0.053726, , 
95.37, 0.053637, , 
95.40, 0.053647, , 
95.43, 0.053675, , 
95.46, 0.053628, , 
95.49, 0.053590, , 
95.52, 0.053637, , 
95.55, 0.053666, , 
95.58, 0.053647, , 
95.62, 0.053599, , 
95.64, 0.053628, , 
95.67, 0.053660, , 
95.70, 0.053603, , 
95.73, 0.053526, , 
95.76, 0.053577, , 
95.79, 0.053644, , 
95.82, 0.053561, , 
95.85, 0.053568, , 
95.88, 0.053634, , 
95.91, 0.053622, , 
95.94, 0.053587, , 
95.97, 0.053549, , 
96.00, 0.053590, , 
