Gradient Profiler Text Data File: 5-C5_BY4741_42_012126.csv
Date: 2026-01-21
Time: 16:28:03

User: Karen
Experiment name: 
UV Unit: EM-1
Rotor Manufacturer: Beckman
Rotor Model: SW28.1
Speed: 28 rpm
Gradient: sucrose 10.0% to 50.0% w/v
Time: 4
w2t:  x 10^0
Sample Volume: 18 ml
Number of Tubes: 6
Volume per mm: 0.183 ml/mm

Absorbance Units Full Scale (AUFS): 2.00
Event Mark-triggered gradient; (with distance; auto start and stop)
Delay: No Delay
UV Wavelength: 254 nm
Samples / sec: 10 Hz
EM1 Speed: 0.30 mm/sec
Distance: 3.20 mm
Number: 30
Dead Volume: 0.000000 ml; Distance due to Dead Volume: 0.00 mm
Total Distance: 96.00 mm

Data Columns:
Distance(mm), Absorbance, Fraction Number, Fraction Volume(ml)
0.00, 0.080434, 0, 0.000
0.03, 0.080462, , 
0.07, 0.080450, , 
0.09, 0.080443, , 
0.12, 0.080507, , 
0.15, 0.080501, , 
0.18, 0.080459, , 
0.21, 0.080488, , 
0.24, 0.080599, , 
0.27, 0.080764, , 
0.30, 0.080802, , 
0.33, 0.080900, , 
0.36, 0.081049, , 
0.39, 0.081116, , 
0.42, 0.081297, , 
0.45, 0.081550, , 
0.48, 0.081750, , 
0.51, 0.082048, , 
0.54, 0.082613, , 
0.57, 0.085652, , 
0.60, 0.094406, , 
0.63, 0.115680, , 
0.66, 0.165220, , 
0.69, 0.230013, , 
0.73, 0.324965, , 
0.75, 0.400942, , 
0.78, 0.496966, , 
0.81, 0.612935, , 
0.84, 0.714510, , 
0.87, 0.834473, , 
0.90, 0.938303, , 
0.94, 1.042900, , 
0.96, 1.147638, , 
0.99, 1.252800, , 
1.02, 1.375789, , 
1.05, 1.481322, , 
1.08, 1.586069, , 
1.11, 1.704173, , 
1.14, 1.782129, , 
1.17, 1.873916, , 
1.20, 1.931188, , 
1.23, 1.969283, , 
1.26, 1.995949, , 
1.29, 2.009379, , 
1.32, 2.018784, , 
1.35, 2.022987, , 
1.38, 2.026419, , 
1.41, 2.029007, , 
1.44, 2.030279, , 
1.47, 2.031212, , 
1.50, 2.031710, , 
1.53, 2.032078, , 
1.56, 2.032300, , 
1.59, 2.032424, , 
1.62, 2.032617, , 
1.65, 2.032769, , 
1.68, 2.032877, , 
1.71, 2.032902, , 
1.74, 2.033013, , 
1.77, 2.033086, , 
1.80, 2.033144, , 
1.83, 2.033251, , 
1.86, 2.033385, , 
1.89, 2.033432, , 
1.92, 2.033445, , 
1.95, 2.033451, , 
1.98, 2.033486, , 
2.01, 2.033578, , 
2.04, 2.033597, , 
2.07, 2.033581, , 
2.10, 2.033642, , 
2.13, 2.033670, , 
2.16, 2.033689, , 
2.19, 2.033626, , 
2.22, 2.033702, , 
2.25, 2.033743, , 
2.28, 2.033711, , 
2.31, 2.033737, , 
2.34, 2.033806, , 
2.37, 2.033800, , 
2.40, 2.033813, , 
2.43, 2.033819, , 
2.46, 2.033857, , 
2.49, 2.033889, , 
2.52, 2.033854, , 
2.55, 2.033826, , 
2.58, 2.033762, , 
2.61, 2.033591, , 
2.64, 2.033359, , 
2.67, 2.032868, , 
2.70, 2.032392, , 
2.73, 2.031259, , 
2.76, 2.029835, , 
2.79, 2.028110, , 
2.82, 2.025788, , 
2.85, 2.023396, , 
2.88, 2.020116, , 
2.91, 2.017563, , 
2.94, 2.013405, , 
2.97, 2.009360, , 
3.00, 2.004916, , 
3.03, 1.999242, , 
3.06, 1.993961, , 
3.09, 1.988207, , 
3.12, 1.982139, , 
3.15, 1.975674, , 
3.18, 1.968753, 1, 0.582
3.18, 1.967542, , 
3.21, 1.960208, , 
3.24, 1.952751, , 
3.27, 1.944038, , 
3.30, 1.936479, , 
3.33, 1.928723, , 
3.36, 1.920708, , 
3.39, 1.912658, , 
3.42, 1.903066, , 
3.45, 1.894609, , 
3.48, 1.884646, , 
3.52, 1.875942, , 
3.54, 1.868447, , 
3.57, 1.857812, , 
3.60, 1.848645, , 
3.63, 1.838114, , 
3.66, 1.829042, , 
3.69, 1.819875, , 
3.72, 1.810607, , 
3.75, 1.801110, , 
3.78, 1.789568, , 
3.81, 1.779433, , 
3.84, 1.769159, , 
3.87, 1.757115, , 
3.90, 1.746740, , 
3.93, 1.736384, , 
3.96, 1.726208, , 
3.99, 1.716166, , 
4.02, 1.704268, , 
4.05, 1.694086, , 
4.08, 1.682347, , 
4.11, 1.672190, , 
4.14, 1.663607, , 
4.17, 1.651512, , 
4.20, 1.641238, , 
4.23, 1.629344, , 
4.26, 1.619393, , 
4.29, 1.609674, , 
4.32, 1.598446, , 
4.35, 1.590503, , 
4.38, 1.579284, , 
4.41, 1.569673, , 
4.44, 1.560138, , 
4.47, 1.549084, , 
4.50, 1.539682, , 
4.54, 1.528800, , 
4.56, 1.521085, , 
4.59, 1.511804, , 
4.62, 1.500960, , 
4.65, 1.491802, , 
4.68, 1.481198, , 
4.71, 1.471965, , 
4.74, 1.464156, , 
4.77, 1.453130, , 
4.80, 1.443735, , 
4.83, 1.432880, , 
4.86, 1.423631, , 
4.89, 1.414483, , 
4.92, 1.403924, , 
4.95, 1.396305, , 
4.98, 1.385523, , 
5.01, 1.376277, , 
5.04, 1.367186, , 
5.07, 1.356573, , 
5.10, 1.347400, , 
5.13, 1.338300, , 
5.16, 1.329253, , 
5.19, 1.318595, , 
5.22, 1.309533, , 
5.25, 1.299256, , 
5.28, 1.290629, , 
5.31, 1.283393, , 
5.34, 1.273246, , 
5.37, 1.264517, , 
5.40, 1.254262, , 
5.43, 1.245498, , 
5.46, 1.236924, , 
5.49, 1.228630, , 
5.52, 1.220396, , 
5.55, 1.210670, , 
5.58, 1.202306, , 
5.61, 1.193983, , 
5.64, 1.184270, , 
5.67, 1.175976, , 
5.70, 1.167688, , 
5.73, 1.159421, , 
5.76, 1.151095, , 
5.79, 1.141224, , 
5.82, 1.132806, , 
5.85, 1.123077, , 
5.88, 1.114792, , 
5.91, 1.107925, , 
5.94, 1.098371, , 
5.97, 1.090223, , 
6.00, 1.080564, , 
6.03, 1.072085, , 
6.06, 1.063677, , 
6.09, 1.053990, , 
6.12, 1.047068, , 
6.15, 1.038834, , 
6.18, 1.029372, , 
6.21, 1.021484, , 
6.24, 1.012352, , 
6.27, 1.004602, , 
6.30, 0.997025, , 
6.33, 0.989485, , 
6.36, 0.981939, , 
6.38, 0.976854, 2, 0.586
6.40, 0.973061, , 
6.42, 0.965578, , 
6.45, 0.958264, , 
6.48, 0.951044, , 
6.51, 0.942778, , 
6.54, 0.935863, , 
6.57, 0.928952, , 
6.60, 0.920603, , 
6.63, 0.913210, , 
6.66, 0.905784, , 
6.69, 0.898473, , 
6.72, 0.891165, , 
6.75, 0.882657, , 
6.78, 0.875473, , 
6.81, 0.868304, , 
6.84, 0.860987, , 
6.87, 0.852435, , 
6.90, 0.844036, , 
6.93, 0.838136, , 
6.96, 0.830961, , 
6.99, 0.822349, , 
7.02, 0.814914, , 
7.05, 0.806315, , 
7.08, 0.798963, , 
7.11, 0.791915, , 
7.14, 0.785241, , 
7.17, 0.778821, , 
7.20, 0.771418, , 
7.23, 0.765064, , 
7.26, 0.758622, , 
7.29, 0.750984, , 
7.32, 0.745519, , 
7.35, 0.738128, , 
7.38, 0.732054, , 
7.41, 0.726034, , 
7.44, 0.719068, , 
7.47, 0.713225, , 
7.50, 0.706441, , 
7.53, 0.701556, , 
7.56, 0.695551, , 
7.59, 0.688503, , 
7.62, 0.682381, , 
7.65, 0.675111, , 
7.68, 0.668894, , 
7.71, 0.662750, , 
7.74, 0.656695, , 
7.77, 0.650662, , 
7.80, 0.643582, , 
7.83, 0.637594, , 
7.86, 0.631646, , 
7.89, 0.624706, , 
7.92, 0.618756, , 
7.95, 0.612869, , 
7.98, 0.606867, , 
8.01, 0.600701, , 
8.04, 0.593628, , 
8.07, 0.587880, , 
8.10, 0.581460, , 
8.13, 0.576055, , 
8.16, 0.571621, , 
8.19, 0.565559, , 
8.22, 0.560284, , 
8.25, 0.554001, , 
8.28, 0.548700, , 
8.31, 0.543679, , 
8.34, 0.537935, , 
8.37, 0.533856, , 
8.40, 0.528229, , 
8.43, 0.523461, , 
8.46, 0.518592, , 
8.49, 0.512854, , 
8.52, 0.508071, , 
8.55, 0.503357, , 
8.58, 0.498558, , 
8.61, 0.493718, , 
8.64, 0.488009, , 
8.67, 0.483108, , 
8.70, 0.478217, , 
8.73, 0.472618, , 
8.77, 0.468022, , 
8.79, 0.463426, , 
8.82, 0.458709, , 
8.85, 0.453130, , 
8.88, 0.448328, , 
8.91, 0.443471, , 
8.94, 0.437828, , 
8.97, 0.433867, , 
9.00, 0.429290, , 
9.03, 0.424081, , 
9.06, 0.419695, , 
9.09, 0.414762, , 
9.12, 0.410794, , 
9.15, 0.406937, , 
9.18, 0.403051, , 
9.21, 0.399213, , 
9.24, 0.394811, , 
9.27, 0.391017, , 
9.30, 0.387296, , 
9.33, 0.382995, , 
9.36, 0.379465, , 
9.39, 0.375973, , 
9.42, 0.372493, , 
9.45, 0.368998, , 
9.48, 0.364823, , 
9.51, 0.361077, , 
9.54, 0.356649, , 
9.57, 0.352913, , 
9.58, 0.352291, 3, 0.586
9.60, 0.349810, , 
9.63, 0.345265, , 
9.66, 0.341316, , 
9.69, 0.336717, , 
9.72, 0.332812, , 
9.75, 0.328974, , 
9.78, 0.325250, , 
9.81, 0.321701, , 
9.84, 0.317631, , 
9.87, 0.314174, , 
9.90, 0.310888, , 
9.93, 0.307354, , 
9.96, 0.304553, , 
9.99, 0.301946, , 
10.02, 0.299263, , 
10.05, 0.297623, , 
10.08, 0.295570, , 
10.11, 0.293921, , 
10.14, 0.292417, , 
10.17, 0.290892, , 
10.20, 0.289661, , 
10.24, 0.288212, , 
10.26, 0.287193, , 
10.29, 0.285997, , 
10.32, 0.284557, , 
10.35, 0.283209, , 
10.38, 0.281554, , 
10.41, 0.280123, , 
10.44, 0.278496, , 
10.47, 0.276596, , 
10.50, 0.274569, , 
10.53, 0.272158, , 
10.56, 0.270027, , 
10.59, 0.267867, , 
10.62, 0.265278, , 
10.65, 0.263356, , 
10.68, 0.260457, , 
10.71, 0.258075, , 
10.74, 0.255763, , 
10.77, 0.253193, , 
10.80, 0.250954, , 
10.83, 0.248207, , 
10.86, 0.246193, , 
10.89, 0.243906, , 
10.92, 0.241302, , 
10.95, 0.239126, , 
10.98, 0.236807, , 
11.01, 0.234980, , 
11.04, 0.233150, , 
11.07, 0.231221, , 
11.10, 0.229306, , 
11.13, 0.227164, , 
11.16, 0.225315, , 
11.19, 0.223587, , 
11.22, 0.221693, , 
11.25, 0.220056, , 
11.28, 0.218366, , 
11.31, 0.216688, , 
11.34, 0.215102, , 
11.37, 0.213316, , 
11.40, 0.211752, , 
11.43, 0.209973, , 
11.47, 0.208596, , 
11.49, 0.207200, , 
11.52, 0.205386, , 
11.55, 0.203809, , 
11.58, 0.201986, , 
11.61, 0.200381, , 
11.64, 0.198855, , 
11.67, 0.197396, , 
11.70, 0.196010, , 
11.73, 0.194262, , 
11.76, 0.192673, , 
11.79, 0.191147, , 
11.82, 0.189723, , 
11.85, 0.188124, , 
11.88, 0.186729, , 
11.91, 0.185387, , 
11.94, 0.184182, , 
11.97, 0.182830, , 
12.00, 0.181647, , 
12.03, 0.180547, , 
12.06, 0.179449, , 
12.09, 0.178520, , 
12.12, 0.177400, , 
12.15, 0.176651, , 
12.18, 0.175808, , 
12.21, 0.174828, , 
12.24, 0.173990, , 
12.27, 0.173127, , 
12.30, 0.172363, , 
12.33, 0.171560, , 
12.36, 0.170691, , 
12.39, 0.169800, , 
12.42, 0.168994, , 
12.45, 0.168040, , 
12.48, 0.167132, , 
12.51, 0.166117, , 
12.54, 0.165185, , 
12.57, 0.164265, , 
12.60, 0.163367, , 
12.63, 0.162520, , 
12.66, 0.161562, , 
12.69, 0.160652, , 
12.72, 0.159729, , 
12.75, 0.158806, , 
12.78, 0.157893, , 
12.79, 0.157743, 4, 0.586
12.81, 0.156836, , 
12.84, 0.155989, , 
12.87, 0.155257, , 
12.91, 0.154702, , 
12.93, 0.153966, , 
12.96, 0.153243, , 
12.99, 0.152573, , 
13.02, 0.151764, , 
13.05, 0.151063, , 
13.08, 0.150280, , 
13.11, 0.149788, , 
13.14, 0.149176, , 
13.17, 0.148504, , 
13.20, 0.147983, , 
13.23, 0.147435, , 
13.26, 0.146981, , 
13.29, 0.146474, , 
13.32, 0.145969, , 
13.35, 0.145440, , 
13.38, 0.144742, , 
13.41, 0.144158, , 
13.44, 0.143578, , 
13.47, 0.142950, , 
13.50, 0.142445, , 
13.53, 0.141925, , 
13.56, 0.141424, , 
13.59, 0.140996, , 
13.62, 0.140352, , 
13.65, 0.139721, , 
13.68, 0.139127, , 
13.72, 0.138550, , 
13.74, 0.137982, , 
13.77, 0.137139, , 
13.80, 0.136431, , 
13.83, 0.135692, , 
13.86, 0.135064, , 
13.89, 0.134385, , 
13.92, 0.133722, , 
13.95, 0.133085, , 
13.98, 0.132320, , 
14.01, 0.131616, , 
14.04, 0.131007, , 
14.07, 0.130325, , 
14.10, 0.129716, , 
14.13, 0.129072, , 
14.16, 0.128505, , 
14.19, 0.128003, , 
14.22, 0.127287, , 
14.25, 0.126592, , 
14.28, 0.125875, , 
14.31, 0.125260, , 
14.34, 0.124701, , 
14.37, 0.123785, , 
14.40, 0.123112, , 
14.43, 0.122307, , 
14.46, 0.121568, , 
14.49, 0.120892, , 
14.52, 0.120102, , 
14.55, 0.119544, , 
14.58, 0.118713, , 
14.61, 0.117933, , 
14.64, 0.117238, , 
14.67, 0.116309, , 
14.70, 0.115684, , 
14.73, 0.114849, , 
14.76, 0.114202, , 
14.79, 0.113520, , 
14.82, 0.112712, , 
14.85, 0.112049, , 
14.88, 0.111430, , 
14.91, 0.110758, , 
14.94, 0.110092, , 
14.97, 0.109524, , 
15.00, 0.108972, , 
15.03, 0.108309, , 
15.06, 0.107678, , 
15.09, 0.107062, , 
15.12, 0.106472, , 
15.15, 0.106063, , 
15.18, 0.105476, , 
15.21, 0.105023, , 
15.24, 0.104569, , 
15.27, 0.103862, , 
15.30, 0.103240, , 
15.33, 0.102631, , 
15.36, 0.102241, , 
15.39, 0.101759, , 
15.42, 0.101080, , 
15.45, 0.100522, , 
15.48, 0.099910, , 
15.51, 0.099313, , 
15.54, 0.098660, , 
15.57, 0.098117, , 
15.60, 0.097610, , 
15.63, 0.096871, , 
15.66, 0.096240, , 
15.69, 0.095754, , 
15.72, 0.095231, , 
15.75, 0.094714, , 
15.78, 0.094257, , 
15.81, 0.093845, , 
15.84, 0.093404, , 
15.87, 0.092862, , 
15.90, 0.092373, , 
15.93, 0.091907, , 
15.96, 0.091586, , 
15.99, 0.091250, 5, 0.586
15.99, 0.091165, , 
16.02, 0.090641, , 
16.05, 0.090359, , 
16.08, 0.090026, , 
16.11, 0.089658, , 
16.14, 0.089312, , 
16.17, 0.089024, , 
16.20, 0.088732, , 
16.23, 0.088303, , 
16.26, 0.087926, , 
16.29, 0.087574, , 
16.32, 0.087149, , 
16.35, 0.086822, , 
16.38, 0.086502, , 
16.41, 0.086210, , 
16.44, 0.085845, , 
16.47, 0.085319, , 
16.50, 0.085011, , 
16.53, 0.084745, , 
16.56, 0.084342, , 
16.59, 0.083986, , 
16.62, 0.083508, , 
16.65, 0.083143, , 
16.68, 0.082775, , 
16.71, 0.082378, , 
16.74, 0.082061, , 
16.77, 0.081744, , 
16.80, 0.081376, , 
16.83, 0.081087, , 
16.86, 0.080859, , 
16.89, 0.080640, , 
16.92, 0.080437, , 
16.95, 0.080114, , 
16.98, 0.079892, , 
17.01, 0.079685, , 
17.04, 0.079466, , 
17.07, 0.079267, , 
17.10, 0.079013, , 
17.13, 0.078851, , 
17.16, 0.078661, , 
17.19, 0.078448, , 
17.22, 0.078385, , 
17.25, 0.078195, , 
17.28, 0.078023, , 
17.31, 0.077782, , 
17.34, 0.077681, , 
17.37, 0.077649, , 
17.40, 0.077440, , 
17.43, 0.077192, , 
17.47, 0.076973, , 
17.49, 0.076859, , 
17.52, 0.076691, , 
17.55, 0.076412, , 
17.58, 0.076339, , 
17.61, 0.076184, , 
17.64, 0.075987, , 
17.68, 0.075854, , 
17.70, 0.075755, , 
17.73, 0.075682, , 
17.76, 0.075533, , 
17.79, 0.075378, , 
17.82, 0.075314, , 
17.85, 0.075235, , 
17.88, 0.075165, , 
17.91, 0.075073, , 
17.94, 0.075089, , 
17.97, 0.075096, , 
18.00, 0.075140, , 
18.03, 0.075295, , 
18.06, 0.075432, , 
18.09, 0.075486, , 
18.12, 0.075498, , 
18.15, 0.075575, , 
18.18, 0.075616, , 
18.21, 0.075635, , 
18.24, 0.075692, , 
18.27, 0.075825, , 
18.30, 0.075952, , 
18.33, 0.076025, , 
18.36, 0.076085, , 
18.39, 0.076272, , 
18.42, 0.076387, , 
18.45, 0.076501, , 
18.48, 0.076647, , 
18.51, 0.076878, , 
18.54, 0.077103, , 
18.57, 0.077291, , 
18.60, 0.077525, , 
18.63, 0.077877, , 
18.66, 0.078369, , 
18.69, 0.078708, , 
18.72, 0.078972, , 
18.75, 0.079371, , 
18.78, 0.079774, , 
18.81, 0.080291, , 
18.84, 0.080776, , 
18.87, 0.081313, , 
18.91, 0.081903, , 
18.93, 0.082340, , 
18.96, 0.082949, , 
18.99, 0.083726, , 
19.02, 0.084313, , 
19.05, 0.085084, , 
19.08, 0.085791, , 
19.11, 0.086622, , 
19.14, 0.087396, , 
19.17, 0.088072, , 
19.18, 0.088300, 6, 0.585
19.20, 0.088897, , 
19.23, 0.089785, , 
19.26, 0.090654, , 
19.29, 0.091599, , 
19.32, 0.092202, , 
19.35, 0.093321, , 
19.38, 0.094222, , 
19.41, 0.095018, , 
19.44, 0.096145, , 
19.47, 0.097172, , 
19.50, 0.098339, , 
19.53, 0.099060, , 
19.56, 0.099970, , 
19.59, 0.101048, , 
19.62, 0.101921, , 
19.65, 0.102904, , 
19.68, 0.103786, , 
19.71, 0.104683, , 
19.74, 0.105543, , 
19.77, 0.106387, , 
19.80, 0.107405, , 
19.83, 0.108322, , 
19.86, 0.109200, , 
19.89, 0.110130, , 
19.92, 0.110926, , 
19.95, 0.111598, , 
19.99, 0.112388, , 
20.01, 0.112956, , 
20.04, 0.113714, , 
20.07, 0.114291, , 
20.10, 0.114818, , 
20.13, 0.115338, , 
20.16, 0.115830, , 
20.19, 0.116305, , 
20.22, 0.116727, , 
20.25, 0.117073, , 
20.28, 0.117542, , 
20.31, 0.117879, , 
20.34, 0.118056, , 
20.37, 0.118253, , 
20.40, 0.118434, , 
20.43, 0.118589, , 
20.46, 0.118634, , 
20.49, 0.118662, , 
20.52, 0.118703, , 
20.55, 0.118681, , 
20.58, 0.118500, , 
20.61, 0.118399, , 
20.64, 0.118285, , 
20.67, 0.118129, , 
20.70, 0.117923, , 
20.73, 0.117619, , 
20.76, 0.117406, , 
20.79, 0.117086, , 
20.82, 0.116845, , 
20.85, 0.116486, , 
20.88, 0.116071, , 
20.91, 0.115725, , 
20.94, 0.115259, , 
20.97, 0.114992, , 
21.00, 0.114732, , 
21.03, 0.114393, , 
21.06, 0.113939, , 
21.09, 0.113479, , 
21.12, 0.113099, , 
21.15, 0.112651, , 
21.18, 0.112061, , 
21.22, 0.111614, , 
21.24, 0.111268, , 
21.27, 0.110862, , 
21.30, 0.110409, , 
21.33, 0.109923, , 
21.36, 0.109540, , 
21.39, 0.108991, , 
21.42, 0.108661, , 
21.46, 0.108122, , 
21.48, 0.107703, , 
21.51, 0.107256, , 
21.54, 0.106732, , 
21.57, 0.106323, , 
21.60, 0.105930, , 
21.63, 0.105451, , 
21.66, 0.104943, , 
21.69, 0.104464, , 
21.72, 0.104058, , 
21.75, 0.103507, , 
21.78, 0.103139, , 
21.81, 0.102752, , 
21.84, 0.102263, , 
21.87, 0.101781, , 
21.90, 0.101289, , 
21.93, 0.100893, , 
21.96, 0.100430, , 
21.99, 0.099964, , 
22.02, 0.099567, , 
22.05, 0.099180, , 
22.08, 0.098834, , 
22.11, 0.098482, , 
22.14, 0.098057, , 
22.17, 0.097705, , 
22.20, 0.097309, , 
22.23, 0.096836, , 
22.26, 0.096395, , 
22.29, 0.095926, , 
22.32, 0.095485, , 
22.35, 0.095034, , 
22.38, 0.094774, 7, 0.585
22.38, 0.094720, , 
22.41, 0.094508, , 
22.44, 0.094124, , 
22.47, 0.093648, , 
22.50, 0.093179, , 
22.53, 0.092820, , 
22.56, 0.092462, , 
22.60, 0.092056, , 
22.62, 0.091818, , 
22.65, 0.091396, , 
22.68, 0.091047, , 
22.71, 0.090701, , 
22.74, 0.090429, , 
22.77, 0.090251, , 
22.80, 0.089981, , 
22.83, 0.089734, , 
22.86, 0.089528, , 
22.89, 0.089280, , 
22.92, 0.089024, , 
22.95, 0.088814, , 
22.98, 0.088687, , 
23.01, 0.088560, , 
23.04, 0.088351, , 
23.07, 0.088183, , 
23.10, 0.088104, , 
23.13, 0.088085, , 
23.16, 0.088034, , 
23.19, 0.087999, , 
23.22, 0.088024, , 
23.25, 0.088021, , 
23.28, 0.087996, , 
23.31, 0.087970, , 
23.34, 0.087999, , 
23.37, 0.088075, , 
23.40, 0.088183, , 
23.43, 0.088332, , 
23.46, 0.088652, , 
23.49, 0.089001, , 
23.52, 0.089372, , 
23.55, 0.089997, , 
23.58, 0.090616, , 
23.61, 0.091253, , 
23.64, 0.091967, , 
23.67, 0.092827, , 
23.70, 0.094073, , 
23.73, 0.095231, , 
23.76, 0.096481, , 
23.79, 0.098200, , 
23.82, 0.099891, , 
23.85, 0.101743, , 
23.88, 0.103795, , 
23.91, 0.106171, , 
23.94, 0.109397, , 
23.97, 0.112436, , 
24.00, 0.116331, , 
24.03, 0.119398, , 
24.06, 0.123426, , 
24.09, 0.128597, , 
24.12, 0.133481, , 
24.15, 0.139794, , 
24.18, 0.145738, , 
24.21, 0.152142, , 
24.24, 0.159088, , 
24.27, 0.166571, , 
24.30, 0.175912, , 
24.33, 0.184404, , 
24.36, 0.193450, , 
24.39, 0.204847, , 
24.42, 0.215200, , 
24.45, 0.226010, , 
24.48, 0.237365, , 
24.51, 0.249289, , 
24.54, 0.263743, , 
24.57, 0.276574, , 
24.60, 0.292027, , 
24.63, 0.305768, , 
24.66, 0.317495, , 
24.69, 0.334211, , 
24.72, 0.348751, , 
24.75, 0.365895, , 
24.78, 0.380635, , 
24.81, 0.395429, , 
24.85, 0.412853, , 
24.87, 0.425375, , 
24.90, 0.442866, , 
24.93, 0.457596, , 
24.96, 0.474544, , 
24.99, 0.489043, , 
25.02, 0.503332, , 
25.05, 0.517320, , 
25.08, 0.531077, , 
25.11, 0.544548, , 
25.14, 0.559688, , 
25.17, 0.572192, , 
25.20, 0.586342, , 
25.23, 0.598097, , 
25.26, 0.606360, , 
25.29, 0.620075, , 
25.32, 0.630314, , 
25.35, 0.641600, , 
25.38, 0.650643, , 
25.41, 0.659176, , 
25.44, 0.668460, , 
25.47, 0.674705, , 
25.50, 0.682737, , 
25.53, 0.688913, , 
25.56, 0.694559, , 
25.58, 0.698073, 8, 0.586
25.59, 0.700560, , 
25.62, 0.705121, , 
25.65, 0.709936, , 
25.68, 0.713079, , 
25.71, 0.716400, , 
25.74, 0.719471, , 
25.77, 0.722005, , 
25.80, 0.724283, , 
25.83, 0.725869, , 
25.87, 0.727087, , 
25.89, 0.727851, , 
25.92, 0.728476, , 
25.95, 0.728717, , 
25.98, 0.728565, , 
26.01, 0.728140, , 
26.04, 0.727331, , 
26.07, 0.726646, , 
26.10, 0.725117, , 
26.13, 0.723655, , 
26.16, 0.722129, , 
26.19, 0.720048, , 
26.22, 0.717958, , 
26.25, 0.715224, , 
26.28, 0.713159, , 
26.31, 0.710491, , 
26.34, 0.707113, , 
26.37, 0.704430, , 
26.40, 0.700573, , 
26.43, 0.697324, , 
26.46, 0.693861, , 
26.49, 0.690302, , 
26.52, 0.686705, , 
26.55, 0.682391, , 
26.58, 0.678550, , 
26.61, 0.674636, , 
26.64, 0.670065, , 
26.67, 0.666021, , 
26.70, 0.661884, , 
26.73, 0.657770, , 
26.76, 0.653625, , 
26.79, 0.648648, , 
26.82, 0.644306, , 
26.85, 0.639154, , 
26.89, 0.634730, , 
26.91, 0.630993, , 
26.94, 0.625632, , 
26.97, 0.621084, , 
27.00, 0.616513, , 
27.03, 0.611809, , 
27.06, 0.606230, , 
27.09, 0.601516, , 
27.12, 0.595937, , 
27.15, 0.590960, , 
27.18, 0.586760, , 
27.21, 0.580918, , 
27.24, 0.575925, , 
27.27, 0.570060, , 
27.30, 0.564998, , 
27.33, 0.559967, , 
27.36, 0.554153, , 
27.39, 0.549132, , 
27.42, 0.544117, , 
27.45, 0.539210, , 
27.48, 0.534252, , 
27.51, 0.528438, , 
27.54, 0.523468, , 
27.57, 0.517847, , 
27.60, 0.513035, , 
27.63, 0.509035, , 
27.66, 0.503554, , 
27.69, 0.498917, , 
27.72, 0.493486, , 
27.75, 0.488846, , 
27.78, 0.484326, , 
27.81, 0.479114, , 
27.84, 0.475375, , 
27.87, 0.470049, , 
27.90, 0.465542, , 
27.93, 0.461174, , 
27.96, 0.456159, , 
27.99, 0.451864, , 
28.02, 0.447560, , 
28.05, 0.443319, , 
28.08, 0.439018, , 
28.11, 0.434079, , 
28.14, 0.429861, , 
28.17, 0.425753, , 
28.20, 0.421163, , 
28.23, 0.417890, , 
28.26, 0.413328, , 
28.29, 0.409468, , 
28.32, 0.405617, , 
28.35, 0.400939, , 
28.38, 0.397098, , 
28.41, 0.392705, , 
28.44, 0.389571, , 
28.47, 0.385818, , 
28.50, 0.381581, , 
28.53, 0.378028, , 
28.56, 0.373911, , 
28.59, 0.370469, , 
28.62, 0.367117, , 
28.65, 0.363830, , 
28.68, 0.360789, , 
28.71, 0.356656, , 
28.74, 0.353471, , 
28.77, 0.350258, , 
28.77, 0.349718, 9, 0.585
28.80, 0.346474, , 
28.83, 0.343222, , 
28.86, 0.340111, , 
28.89, 0.337139, , 
28.92, 0.334154, , 
28.95, 0.330633, , 
28.98, 0.327651, , 
29.01, 0.324118, , 
29.05, 0.321130, , 
29.07, 0.318694, , 
29.10, 0.315278, , 
29.13, 0.312356, , 
29.16, 0.308962, , 
29.19, 0.306136, , 
29.22, 0.303377, , 
29.25, 0.300547, , 
29.28, 0.297702, , 
29.31, 0.294397, , 
29.34, 0.291599, , 
29.37, 0.288776, , 
29.40, 0.285519, , 
29.43, 0.282794, , 
29.46, 0.280171, , 
29.49, 0.277579, , 
29.52, 0.275032, , 
29.55, 0.272054, , 
29.58, 0.269522, , 
29.61, 0.266566, , 
29.64, 0.264045, , 
29.67, 0.262056, , 
29.70, 0.259417, , 
29.73, 0.257139, , 
29.76, 0.254564, , 
29.79, 0.252378, , 
29.82, 0.250177, , 
29.85, 0.247671, , 
29.88, 0.245933, , 
29.91, 0.243528, , 
29.94, 0.241137, , 
29.97, 0.239123, , 
30.00, 0.237077, , 
30.03, 0.235405, , 
30.06, 0.233255, , 
30.09, 0.231152, , 
30.12, 0.228896, , 
30.15, 0.227000, , 
30.18, 0.225052, , 
30.21, 0.222667, , 
30.24, 0.220665, , 
30.27, 0.218673, , 
30.30, 0.216630, , 
30.33, 0.214588, , 
30.36, 0.212199, , 
30.39, 0.210283, , 
30.42, 0.208082, , 
30.45, 0.206150, , 
30.48, 0.204520, , 
30.51, 0.202303, , 
30.54, 0.200409, , 
30.57, 0.198106, , 
30.60, 0.196162, , 
30.63, 0.194360, , 
30.66, 0.192717, , 
30.69, 0.191042, , 
30.72, 0.188990, , 
30.75, 0.187350, , 
30.78, 0.185691, , 
30.81, 0.183750, , 
30.84, 0.182117, , 
30.87, 0.180566, , 
30.90, 0.179027, , 
30.93, 0.177403, , 
30.96, 0.175519, , 
30.99, 0.173955, , 
31.02, 0.172166, , 
31.05, 0.170704, , 
31.08, 0.169575, , 
31.11, 0.168011, , 
31.14, 0.166577, , 
31.17, 0.164956, , 
31.20, 0.163577, , 
31.23, 0.162267, , 
31.26, 0.160817, , 
31.29, 0.159732, , 
31.32, 0.158394, , 
31.35, 0.157341, , 
31.38, 0.156199, , 
31.41, 0.154860, , 
31.44, 0.153760, , 
31.47, 0.152529, , 
31.50, 0.151720, , 
31.53, 0.150676, , 
31.56, 0.149484, , 
31.59, 0.148532, , 
31.62, 0.147321, , 
31.65, 0.146236, , 
31.68, 0.145202, , 
31.71, 0.144130, , 
31.74, 0.142848, , 
31.77, 0.141858, , 
31.80, 0.140920, , 
31.83, 0.139813, , 
31.86, 0.138966, , 
31.89, 0.137932, , 
31.92, 0.136844, , 
31.95, 0.135943, , 
31.98, 0.135137, 10, 0.586
31.98, 0.134963, , 
32.01, 0.133795, , 
32.04, 0.132834, , 
32.07, 0.131765, , 
32.10, 0.130972, , 
32.13, 0.129999, , 
32.16, 0.128863, , 
32.19, 0.127864, , 
32.22, 0.126665, , 
32.25, 0.125735, , 
32.28, 0.124892, , 
32.31, 0.124067, , 
32.34, 0.123233, , 
32.37, 0.122303, , 
32.40, 0.121533, , 
32.43, 0.120765, , 
32.46, 0.119712, , 
32.49, 0.118859, , 
32.52, 0.118044, , 
32.55, 0.117292, , 
32.58, 0.116505, , 
32.61, 0.115582, , 
32.64, 0.114805, , 
32.67, 0.113888, , 
32.70, 0.113270, , 
32.73, 0.112543, , 
32.76, 0.111814, , 
32.79, 0.111119, , 
32.82, 0.110218, , 
32.85, 0.109498, , 
32.88, 0.108832, , 
32.91, 0.108147, , 
32.94, 0.107437, , 
32.97, 0.106637, , 
33.00, 0.106035, , 
33.03, 0.105381, , 
33.06, 0.104588, , 
33.09, 0.103976, , 
33.12, 0.103437, , 
33.15, 0.102787, , 
33.18, 0.102117, , 
33.21, 0.101464, , 
33.24, 0.100934, , 
33.27, 0.100243, , 
33.30, 0.099570, , 
33.33, 0.099117, , 
33.36, 0.098539, , 
33.39, 0.098038, , 
33.42, 0.097442, , 
33.45, 0.096972, , 
33.48, 0.096493, , 
33.51, 0.095796, , 
33.54, 0.095364, , 
33.57, 0.094901, , 
33.60, 0.094390, , 
33.63, 0.093892, , 
33.66, 0.093337, , 
33.69, 0.092938, , 
33.72, 0.092494, , 
33.75, 0.092027, , 
33.78, 0.091564, , 
33.81, 0.091085, , 
33.84, 0.090625, , 
33.87, 0.090178, , 
33.90, 0.089826, , 
33.94, 0.089515, , 
33.96, 0.089201, , 
33.99, 0.088798, , 
34.02, 0.088424, , 
34.05, 0.088142, , 
34.08, 0.087844, , 
34.11, 0.087368, , 
34.14, 0.087098, , 
34.17, 0.086822, , 
34.20, 0.086461, , 
34.23, 0.086118, , 
34.26, 0.085791, , 
34.29, 0.085547, , 
34.32, 0.085290, , 
34.35, 0.084935, , 
34.38, 0.084634, , 
34.41, 0.084421, , 
34.44, 0.084205, , 
34.47, 0.083948, , 
34.50, 0.083733, , 
34.53, 0.083527, , 
34.56, 0.083282, , 
34.59, 0.083025, , 
34.62, 0.082807, , 
34.65, 0.082638, , 
34.68, 0.082416, , 
34.71, 0.082102, , 
34.74, 0.081915, , 
34.77, 0.081712, , 
34.80, 0.081439, , 
34.83, 0.081240, , 
34.86, 0.081129, , 
34.89, 0.080960, , 
34.92, 0.080789, , 
34.95, 0.080662, , 
34.98, 0.080510, , 
35.01, 0.080358, , 
35.04, 0.080129, , 
35.07, 0.079841, , 
35.10, 0.079638, , 
35.13, 0.079457, , 
35.16, 0.079191, , 
35.19, 0.078988, 11, 0.588
35.19, 0.078937, , 
35.22, 0.078718, , 
35.25, 0.078582, , 
35.28, 0.078404, , 
35.31, 0.078179, , 
35.34, 0.078017, , 
35.37, 0.077785, , 
35.40, 0.077601, , 
35.43, 0.077487, , 
35.46, 0.077363, , 
35.49, 0.077272, , 
35.52, 0.077049, , 
35.55, 0.076827, , 
35.58, 0.076688, , 
35.61, 0.076402, , 
35.64, 0.076155, , 
35.67, 0.075898, , 
35.70, 0.075724, , 
35.73, 0.075524, , 
35.76, 0.075229, , 
35.79, 0.075038, , 
35.82, 0.074877, , 
35.85, 0.074636, , 
35.88, 0.074356, , 
35.91, 0.074090, , 
35.94, 0.073874, , 
35.97, 0.073573, , 
36.00, 0.073249, , 
36.03, 0.072967, , 
36.06, 0.072739, , 
36.09, 0.072517, , 
36.12, 0.072155, , 
36.15, 0.071854, , 
36.18, 0.071667, , 
36.21, 0.071365, , 
36.24, 0.071099, , 
36.27, 0.070864, , 
36.30, 0.070522, , 
36.33, 0.070147, , 
36.36, 0.069814, , 
36.39, 0.069643, , 
36.42, 0.069427, , 
36.45, 0.069120, , 
36.48, 0.068831, , 
36.51, 0.068469, , 
36.54, 0.068143, , 
36.57, 0.067829, , 
36.60, 0.067502, , 
36.63, 0.067220, , 
36.66, 0.066902, , 
36.69, 0.066566, , 
36.72, 0.066186, , 
36.75, 0.065957, , 
36.78, 0.065729, , 
36.81, 0.065421, , 
36.84, 0.065136, , 
36.87, 0.064914, , 
36.90, 0.064584, , 
36.93, 0.064289, , 
36.96, 0.064051, , 
36.99, 0.063835, , 
37.02, 0.063616, , 
37.05, 0.063350, , 
37.08, 0.063112, , 
37.11, 0.062877, , 
37.14, 0.062554, , 
37.17, 0.062316, , 
37.20, 0.062151, , 
37.23, 0.061983, , 
37.26, 0.061796, , 
37.29, 0.061539, , 
37.32, 0.061333, , 
37.35, 0.061174, , 
37.38, 0.060892, , 
37.41, 0.060628, , 
37.44, 0.060435, , 
37.47, 0.060248, , 
37.50, 0.060089, , 
37.53, 0.059851, , 
37.56, 0.059689, , 
37.59, 0.059525, , 
37.62, 0.059299, , 
37.65, 0.059099, , 
37.68, 0.058919, , 
37.71, 0.058779, , 
37.74, 0.058576, , 
37.77, 0.058364, , 
37.80, 0.058272, , 
37.83, 0.058167, , 
37.86, 0.057980, , 
37.90, 0.057758, , 
37.92, 0.057663, , 
37.95, 0.057539, , 
37.98, 0.057326, , 
38.01, 0.057152, , 
38.04, 0.057000, , 
38.07, 0.056917, , 
38.10, 0.056759, , 
38.13, 0.056644, , 
38.16, 0.056537, , 
38.19, 0.056384, , 
38.22, 0.056165, , 
38.25, 0.055978, , 
38.28, 0.055858, , 
38.31, 0.055798, , 
38.34, 0.055607, , 
38.37, 0.055503, , 
38.38, 0.055483, 12, 0.584
38.40, 0.055395, , 
38.43, 0.055303, , 
38.46, 0.055097, , 
38.49, 0.054884, , 
38.52, 0.054849, , 
38.55, 0.054779, , 
38.58, 0.054560, , 
38.61, 0.054396, , 
38.64, 0.054326, , 
38.67, 0.054288, , 
38.70, 0.054199, , 
38.73, 0.054148, , 
38.76, 0.054142, , 
38.79, 0.053996, , 
38.82, 0.053790, , 
38.85, 0.053720, , 
38.88, 0.053739, , 
38.91, 0.053675, , 
38.94, 0.053526, , 
38.97, 0.053403, , 
39.00, 0.053339, , 
39.03, 0.053244, , 
39.06, 0.053111, , 
39.09, 0.053013, , 
39.12, 0.052914, , 
39.15, 0.052781, , 
39.18, 0.052673, , 
39.21, 0.052670, , 
39.24, 0.052568, , 
39.27, 0.052391, , 
39.30, 0.052264, , 
39.33, 0.052261, , 
39.36, 0.052245, , 
39.39, 0.052159, , 
39.42, 0.052150, , 
39.45, 0.052191, , 
39.48, 0.052216, , 
39.51, 0.052188, , 
39.54, 0.052172, , 
39.57, 0.052191, , 
39.60, 0.052197, , 
39.63, 0.052181, , 
39.66, 0.052251, , 
39.69, 0.052438, , 
39.72, 0.052549, , 
39.75, 0.052553, , 
39.78, 0.052581, , 
39.81, 0.052638, , 
39.84, 0.052654, , 
39.87, 0.052667, , 
39.90, 0.052619, , 
39.93, 0.052645, , 
39.96, 0.052654, , 
39.99, 0.052610, , 
40.02, 0.052648, , 
40.05, 0.052689, , 
40.08, 0.052721, , 
40.11, 0.052651, , 
40.14, 0.052651, , 
40.17, 0.052756, , 
40.20, 0.052813, , 
40.23, 0.052905, , 
40.26, 0.053032, , 
40.29, 0.053098, , 
40.32, 0.053133, , 
40.35, 0.053101, , 
40.38, 0.053238, , 
40.41, 0.053425, , 
40.44, 0.053517, , 
40.47, 0.053523, , 
40.50, 0.053625, , 
40.53, 0.053774, , 
40.56, 0.053856, , 
40.59, 0.053990, , 
40.62, 0.054167, , 
40.65, 0.054335, , 
40.68, 0.054383, , 
40.71, 0.054478, , 
40.74, 0.054595, , 
40.77, 0.054814, , 
40.80, 0.054913, , 
40.83, 0.055017, , 
40.86, 0.055227, , 
40.89, 0.055357, , 
40.92, 0.055452, , 
40.95, 0.055620, , 
40.98, 0.055874, , 
41.02, 0.056115, , 
41.04, 0.056219, , 
41.07, 0.056334, , 
41.10, 0.056537, , 
41.13, 0.056708, , 
41.16, 0.056914, , 
41.19, 0.057114, , 
41.22, 0.057323, , 
41.25, 0.057488, , 
41.28, 0.057644, , 
41.31, 0.057856, , 
41.34, 0.058091, , 
41.37, 0.058310, , 
41.40, 0.058440, , 
41.43, 0.058601, , 
41.46, 0.058820, , 
41.49, 0.059039, , 
41.52, 0.059223, , 
41.55, 0.059394, , 
41.58, 0.059550, , 
41.58, 0.059588, 13, 0.587
41.61, 0.059762, , 
41.64, 0.059959, , 
41.67, 0.060181, , 
41.70, 0.060394, , 
41.73, 0.060521, , 
41.76, 0.060666, , 
41.79, 0.060825, , 
41.82, 0.060993, , 
41.85, 0.061041, , 
41.88, 0.061120, , 
41.91, 0.061282, , 
41.94, 0.061475, , 
41.97, 0.061507, , 
42.01, 0.061478, , 
42.03, 0.061536, , 
42.06, 0.061596, , 
42.09, 0.061574, , 
42.12, 0.061564, , 
42.15, 0.061570, , 
42.18, 0.061634, , 
42.21, 0.061602, , 
42.24, 0.061570, , 
42.27, 0.061608, , 
42.30, 0.061583, , 
42.33, 0.061570, , 
42.36, 0.061586, , 
42.39, 0.061599, , 
42.42, 0.061643, , 
42.45, 0.061548, , 
42.48, 0.061482, , 
42.51, 0.061367, , 
42.54, 0.061237, , 
42.57, 0.061130, , 
42.60, 0.061091, , 
42.63, 0.060980, , 
42.66, 0.060819, , 
42.69, 0.060676, , 
42.72, 0.060632, , 
42.75, 0.060540, , 
42.78, 0.060333, , 
42.81, 0.060102, , 
42.84, 0.059931, , 
42.87, 0.059728, , 
42.90, 0.059505, , 
42.93, 0.059280, , 
42.96, 0.059134, , 
42.99, 0.058947, , 
43.03, 0.058640, , 
43.05, 0.058405, , 
43.08, 0.058148, , 
43.11, 0.057964, , 
43.14, 0.057697, , 
43.17, 0.057406, , 
43.20, 0.057203, , 
43.23, 0.056977, , 
43.26, 0.056740, , 
43.29, 0.056445, , 
43.32, 0.056156, , 
43.35, 0.055899, , 
43.38, 0.055537, , 
43.41, 0.055372, , 
43.44, 0.055208, , 
43.47, 0.055077, , 
43.50, 0.054913, , 
43.53, 0.054649, , 
43.56, 0.054487, , 
43.59, 0.054291, , 
43.62, 0.053983, , 
43.65, 0.053831, , 
43.68, 0.053666, , 
43.71, 0.053545, , 
43.74, 0.053339, , 
43.77, 0.053070, , 
43.80, 0.052952, , 
43.83, 0.052762, , 
43.86, 0.052622, , 
43.89, 0.052461, , 
43.92, 0.052327, , 
43.95, 0.052185, , 
43.98, 0.051966, , 
44.01, 0.051845, , 
44.04, 0.051744, , 
44.07, 0.051557, , 
44.10, 0.051363, , 
44.13, 0.051227, , 
44.16, 0.051230, , 
44.19, 0.051119, , 
44.22, 0.050929, , 
44.25, 0.050859, , 
44.28, 0.050789, , 
44.31, 0.050745, , 
44.34, 0.050608, , 
44.37, 0.050469, , 
44.40, 0.050424, , 
44.43, 0.050313, , 
44.46, 0.050228, , 
44.49, 0.050212, , 
44.52, 0.050075, , 
44.55, 0.049933, , 
44.58, 0.049790, , 
44.61, 0.049771, , 
44.64, 0.049742, , 
44.68, 0.049682, , 
44.70, 0.049644, , 
44.73, 0.049622, , 
44.76, 0.049555, , 
44.78, 0.049447, 14, 0.585
44.79, 0.049400, , 
44.82, 0.049292, , 
44.85, 0.049289, , 
44.88, 0.049263, , 
44.92, 0.049232, , 
44.94, 0.049203, , 
44.97, 0.049206, , 
45.00, 0.049175, , 
45.03, 0.049168, , 
45.06, 0.049149, , 
45.09, 0.049171, , 
45.12, 0.049181, , 
45.15, 0.049105, , 
45.18, 0.049083, , 
45.21, 0.049124, , 
45.24, 0.049155, , 
45.27, 0.049003, , 
45.30, 0.048991, , 
45.33, 0.049067, , 
45.36, 0.049079, , 
45.39, 0.049000, , 
45.42, 0.049070, , 
45.45, 0.049247, , 
45.48, 0.049397, , 
45.51, 0.049431, , 
45.54, 0.049492, , 
45.57, 0.049530, , 
45.60, 0.049527, , 
45.63, 0.049622, , 
45.66, 0.049806, , 
45.69, 0.049933, , 
45.72, 0.049993, , 
45.75, 0.050037, , 
45.78, 0.050202, , 
45.81, 0.050402, , 
45.84, 0.050513, , 
45.87, 0.050684, , 
45.90, 0.050856, , 
45.94, 0.051033, , 
45.96, 0.051170, , 
45.99, 0.051268, , 
46.02, 0.051538, , 
46.05, 0.051775, , 
46.08, 0.051966, , 
46.11, 0.052210, , 
46.14, 0.052391, , 
46.17, 0.052695, , 
46.20, 0.052902, , 
46.23, 0.053162, , 
46.26, 0.053457, , 
46.29, 0.053701, , 
46.33, 0.053901, , 
46.35, 0.054081, , 
46.38, 0.054326, , 
46.41, 0.054624, , 
46.44, 0.054878, , 
46.47, 0.055204, , 
46.51, 0.055499, , 
46.53, 0.055712, , 
46.56, 0.055909, , 
46.59, 0.056165, , 
46.62, 0.056578, , 
46.65, 0.056841, , 
46.68, 0.057111, , 
46.72, 0.057393, , 
46.74, 0.057621, , 
46.77, 0.057916, , 
46.80, 0.058164, , 
46.83, 0.058490, , 
46.86, 0.058722, , 
46.89, 0.058935, , 
46.92, 0.059198, , 
46.95, 0.059442, , 
46.98, 0.059813, , 
47.01, 0.060086, , 
47.04, 0.060260, , 
47.07, 0.060451, , 
47.10, 0.060654, , 
47.13, 0.060812, , 
47.16, 0.061025, , 
47.19, 0.061231, , 
47.22, 0.061447, , 
47.25, 0.061561, , 
47.28, 0.061672, , 
47.31, 0.061891, , 
47.34, 0.061980, , 
47.37, 0.062014, , 
47.40, 0.062049, , 
47.43, 0.062116, , 
47.46, 0.062081, , 
47.49, 0.062078, , 
47.52, 0.062084, , 
47.55, 0.062103, , 
47.58, 0.062126, , 
47.61, 0.062119, , 
47.64, 0.062164, , 
47.67, 0.062208, , 
47.70, 0.062141, , 
47.73, 0.061957, , 
47.76, 0.061818, , 
47.79, 0.061742, , 
47.82, 0.061608, , 
47.85, 0.061386, , 
47.88, 0.061298, , 
47.91, 0.061149, , 
47.94, 0.060958, , 
47.97, 0.060781, , 
47.98, 0.060765, 15, 0.585
48.00, 0.060676, , 
48.03, 0.060584, , 
48.06, 0.060352, , 
48.09, 0.060121, , 
48.12, 0.059842, , 
48.16, 0.059547, , 
48.18, 0.059293, , 
48.21, 0.058957, , 
48.24, 0.058763, , 
48.27, 0.058471, , 
48.30, 0.058107, , 
48.33, 0.057831, , 
48.36, 0.057704, , 
48.39, 0.057488, , 
48.42, 0.057165, , 
48.45, 0.056927, , 
48.48, 0.056708, , 
48.51, 0.056353, , 
48.54, 0.056045, , 
48.57, 0.055778, , 
48.60, 0.055563, , 
48.63, 0.055423, , 
48.66, 0.055236, , 
48.69, 0.055043, , 
48.72, 0.054862, , 
48.75, 0.054640, , 
48.78, 0.054446, , 
48.81, 0.054208, , 
48.84, 0.054050, , 
48.87, 0.053755, , 
48.90, 0.053485, , 
48.93, 0.053377, , 
48.96, 0.053289, , 
48.99, 0.053168, , 
49.02, 0.052892, , 
49.05, 0.052781, , 
49.08, 0.052664, , 
49.11, 0.052454, , 
49.14, 0.052321, , 
49.17, 0.052270, , 
49.20, 0.052188, , 
49.23, 0.052036, , 
49.26, 0.051880, , 
49.29, 0.051842, , 
49.32, 0.051753, , 
49.35, 0.051563, , 
49.39, 0.051436, , 
49.41, 0.051382, , 
49.44, 0.051319, , 
49.47, 0.051087, , 
49.50, 0.050954, , 
49.53, 0.050884, , 
49.56, 0.050840, , 
49.59, 0.050789, , 
49.62, 0.050710, , 
49.65, 0.050726, , 
49.68, 0.050757, , 
49.71, 0.050649, , 
49.74, 0.050516, , 
49.77, 0.050446, , 
49.80, 0.050386, , 
49.83, 0.050262, , 
49.86, 0.050193, , 
49.89, 0.050256, , 
49.92, 0.050348, , 
49.95, 0.050440, , 
49.98, 0.050551, , 
50.01, 0.050700, , 
50.04, 0.050681, , 
50.07, 0.050656, , 
50.10, 0.050713, , 
50.13, 0.050811, , 
50.16, 0.050929, , 
50.19, 0.050986, , 
50.22, 0.051135, , 
50.25, 0.051233, , 
50.28, 0.051338, , 
50.31, 0.051436, , 
50.34, 0.051563, , 
50.37, 0.051753, , 
50.40, 0.051899, , 
50.43, 0.051991, , 
50.46, 0.052086, , 
50.49, 0.052264, , 
50.52, 0.052476, , 
50.55, 0.052638, , 
50.58, 0.052863, , 
50.61, 0.053082, , 
50.64, 0.053279, , 
50.67, 0.053530, , 
50.70, 0.053793, , 
50.73, 0.054110, , 
50.76, 0.054392, , 
50.79, 0.054662, , 
50.82, 0.054925, , 
50.85, 0.055173, , 
50.88, 0.055369, , 
50.91, 0.055563, , 
50.94, 0.055826, , 
50.97, 0.056134, , 
51.00, 0.056391, , 
51.03, 0.056600, , 
51.06, 0.056933, , 
51.09, 0.057209, , 
51.12, 0.057437, , 
51.15, 0.057672, , 
51.18, 0.057910, , 
51.19, 0.057942, 16, 0.587
51.21, 0.058126, , 
51.24, 0.058297, , 
51.27, 0.058614, , 
51.30, 0.058874, , 
51.33, 0.059061, , 
51.36, 0.059239, , 
51.39, 0.059398, , 
51.42, 0.059613, , 
51.45, 0.059747, , 
51.48, 0.059826, , 
51.51, 0.059984, , 
51.54, 0.060172, , 
51.57, 0.060324, , 
51.60, 0.060479, , 
51.63, 0.060619, , 
51.66, 0.060739, , 
51.69, 0.060847, , 
51.72, 0.060961, , 
51.75, 0.061063, , 
51.78, 0.061120, , 
51.81, 0.061117, , 
51.84, 0.061098, , 
51.87, 0.061117, , 
51.90, 0.060965, , 
51.93, 0.060796, , 
51.96, 0.060704, , 
51.99, 0.060676, , 
52.02, 0.060670, , 
52.05, 0.060609, , 
52.08, 0.060508, , 
52.11, 0.060419, , 
52.14, 0.060292, , 
52.17, 0.060124, , 
52.20, 0.059959, , 
52.23, 0.059826, , 
52.26, 0.059696, , 
52.29, 0.059458, , 
52.32, 0.059249, , 
52.35, 0.059176, , 
52.38, 0.059061, , 
52.41, 0.058855, , 
52.44, 0.058643, , 
52.47, 0.058484, , 
52.50, 0.058341, , 
52.53, 0.058100, , 
52.56, 0.057935, , 
52.59, 0.057799, , 
52.62, 0.057586, , 
52.65, 0.057339, , 
52.68, 0.057076, , 
52.71, 0.056914, , 
52.75, 0.056667, , 
52.77, 0.056451, , 
52.80, 0.056207, , 
52.83, 0.055975, , 
52.86, 0.055778, , 
52.89, 0.055591, , 
52.92, 0.055464, , 
52.95, 0.055347, , 
52.98, 0.055201, , 
53.01, 0.055036, , 
53.04, 0.054919, , 
53.07, 0.054836, , 
53.10, 0.054633, , 
53.13, 0.054396, , 
53.16, 0.054313, , 
53.19, 0.054148, , 
53.22, 0.053961, , 
53.25, 0.053821, , 
53.28, 0.053764, , 
53.31, 0.053663, , 
53.34, 0.053466, , 
53.37, 0.053352, , 
53.40, 0.053298, , 
53.43, 0.053257, , 
53.46, 0.053187, , 
53.49, 0.053114, , 
53.52, 0.053051, , 
53.55, 0.052911, , 
53.58, 0.052803, , 
53.61, 0.052702, , 
53.64, 0.052714, , 
53.67, 0.052686, , 
53.70, 0.052645, , 
53.73, 0.052632, , 
53.76, 0.052673, , 
53.79, 0.052692, , 
53.82, 0.052654, , 
53.85, 0.052733, , 
53.88, 0.052946, , 
53.91, 0.053022, , 
53.94, 0.053063, , 
53.97, 0.053114, , 
54.00, 0.053158, , 
54.03, 0.053187, , 
54.06, 0.053276, , 
54.09, 0.053453, , 
54.12, 0.053583, , 
54.15, 0.053710, , 
54.18, 0.053821, , 
54.21, 0.054005, , 
54.24, 0.054246, , 
54.27, 0.054364, , 
54.30, 0.054475, , 
54.33, 0.054640, , 
54.36, 0.054811, , 
54.38, 0.054887, 17, 0.585
54.39, 0.054919, , 
54.42, 0.055081, , 
54.45, 0.055319, , 
54.48, 0.055525, , 
54.51, 0.055706, , 
54.54, 0.055896, , 
54.57, 0.056048, , 
54.60, 0.056169, , 
54.63, 0.056343, , 
54.66, 0.056521, , 
54.69, 0.056819, , 
54.72, 0.056965, , 
54.75, 0.057069, , 
54.78, 0.057228, , 
54.81, 0.057450, , 
54.84, 0.057590, , 
54.87, 0.057669, , 
54.90, 0.057888, , 
54.93, 0.058161, , 
54.96, 0.058345, , 
55.00, 0.058500, , 
55.02, 0.058621, , 
55.05, 0.058827, , 
55.08, 0.058988, , 
55.11, 0.059074, , 
55.14, 0.059242, , 
55.17, 0.059442, , 
55.20, 0.059515, , 
55.23, 0.059620, , 
55.26, 0.059781, , 
55.29, 0.059953, , 
55.32, 0.060013, , 
55.35, 0.060035, , 
55.38, 0.060115, , 
55.41, 0.060156, , 
55.44, 0.060115, , 
55.47, 0.060111, , 
55.50, 0.060130, , 
55.53, 0.060162, , 
55.56, 0.060130, , 
55.59, 0.060105, , 
55.62, 0.060137, , 
55.65, 0.060143, , 
55.68, 0.060118, , 
55.71, 0.060111, , 
55.74, 0.060146, , 
55.77, 0.060092, , 
55.80, 0.059946, , 
55.83, 0.059781, , 
55.86, 0.059715, , 
55.89, 0.059670, , 
55.92, 0.059486, , 
55.95, 0.059350, , 
55.98, 0.059249, , 
56.01, 0.059169, , 
56.04, 0.059036, , 
56.07, 0.058877, , 
56.10, 0.058804, , 
56.13, 0.058646, , 
56.16, 0.058459, , 
56.19, 0.058310, , 
56.22, 0.058249, , 
56.25, 0.058065, , 
56.29, 0.057789, , 
56.31, 0.057672, , 
56.34, 0.057539, , 
56.37, 0.057330, , 
56.40, 0.057152, , 
56.43, 0.057031, , 
56.46, 0.056866, , 
56.49, 0.056730, , 
56.52, 0.056559, , 
56.55, 0.056556, , 
56.58, 0.056426, , 
56.61, 0.056223, , 
56.64, 0.056083, , 
56.67, 0.056026, , 
56.70, 0.055991, , 
56.73, 0.055782, , 
56.76, 0.055629, , 
56.79, 0.055569, , 
56.82, 0.055541, , 
56.85, 0.055544, , 
56.88, 0.055518, , 
56.91, 0.055547, , 
56.94, 0.055512, , 
56.97, 0.055477, , 
57.00, 0.055493, , 
57.03, 0.055553, , 
57.06, 0.055560, , 
57.09, 0.055531, , 
57.12, 0.055480, , 
57.15, 0.055547, , 
57.18, 0.055553, , 
57.21, 0.055541, , 
57.24, 0.055652, , 
57.27, 0.055861, , 
57.30, 0.056013, , 
57.33, 0.056070, , 
57.36, 0.056159, , 
57.39, 0.056378, , 
57.42, 0.056562, , 
57.45, 0.056597, , 
57.48, 0.056759, , 
57.51, 0.057006, , 
57.54, 0.057098, , 
57.57, 0.057228, , 
57.58, 0.057234, 18, 0.585
57.60, 0.057425, , 
57.63, 0.057688, , 
57.66, 0.057932, , 
57.69, 0.058119, , 
57.72, 0.058303, , 
57.75, 0.058484, , 
57.78, 0.058582, , 
57.81, 0.058741, , 
57.84, 0.058979, , 
57.87, 0.059198, , 
57.90, 0.059410, , 
57.93, 0.059496, , 
57.96, 0.059689, , 
57.99, 0.059902, , 
58.02, 0.059940, , 
58.05, 0.060102, , 
58.08, 0.060248, , 
58.11, 0.060371, , 
58.14, 0.060429, , 
58.17, 0.060451, , 
58.20, 0.060498, , 
58.23, 0.060530, , 
58.26, 0.060479, , 
58.29, 0.060498, , 
58.32, 0.060552, , 
58.35, 0.060676, , 
58.38, 0.060800, , 
58.41, 0.060914, , 
58.44, 0.061022, , 
58.48, 0.061063, , 
58.50, 0.061091, , 
58.53, 0.061263, , 
58.56, 0.061421, , 
58.59, 0.061513, , 
58.62, 0.061577, , 
58.65, 0.061726, , 
58.68, 0.061888, , 
58.71, 0.061973, , 
58.74, 0.061999, , 
58.77, 0.062116, , 
58.80, 0.062106, , 
58.83, 0.062087, , 
58.86, 0.062037, , 
58.89, 0.061983, , 
58.92, 0.061872, , 
58.95, 0.061716, , 
58.98, 0.061628, , 
59.01, 0.061602, , 
59.04, 0.061558, , 
59.07, 0.061399, , 
59.10, 0.061234, , 
59.13, 0.061149, , 
59.16, 0.061088, , 
59.19, 0.060946, , 
59.22, 0.060809, , 
59.25, 0.060746, , 
59.28, 0.060644, , 
59.31, 0.060565, , 
59.34, 0.060527, , 
59.37, 0.060511, , 
59.40, 0.060406, , 
59.43, 0.060222, , 
59.46, 0.060121, , 
59.50, 0.060140, , 
59.52, 0.060156, , 
59.55, 0.060092, , 
59.58, 0.060038, , 
59.61, 0.060067, , 
59.64, 0.060092, , 
59.67, 0.060054, , 
59.71, 0.060032, , 
59.73, 0.060061, , 
59.76, 0.060064, , 
59.79, 0.060057, , 
59.82, 0.060156, , 
59.85, 0.060308, , 
59.88, 0.060409, , 
59.91, 0.060435, , 
59.94, 0.060527, , 
59.97, 0.060600, , 
60.00, 0.060749, , 
60.03, 0.060873, , 
60.06, 0.060911, , 
60.09, 0.061034, , 
60.12, 0.061158, , 
60.15, 0.061253, , 
60.18, 0.061405, , 
60.21, 0.061520, , 
60.24, 0.061624, , 
60.27, 0.061716, , 
60.30, 0.061862, , 
60.33, 0.061970, , 
60.36, 0.061999, , 
60.39, 0.062087, , 
60.42, 0.062230, , 
60.45, 0.062316, , 
60.48, 0.062382, , 
60.51, 0.062440, , 
60.54, 0.062516, , 
60.57, 0.062662, , 
60.60, 0.062760, , 
60.63, 0.062842, , 
60.66, 0.062941, , 
60.69, 0.062998, , 
60.73, 0.062991, , 
60.75, 0.062988, , 
60.78, 0.063020, 19, 0.586
60.78, 0.063033, , 
60.81, 0.063112, , 
60.84, 0.063188, , 
60.87, 0.063318, , 
60.90, 0.063432, , 
60.93, 0.063515, , 
60.96, 0.063470, , 
60.99, 0.063470, , 
61.02, 0.063499, , 
61.05, 0.063502, , 
61.08, 0.063474, , 
61.11, 0.063483, , 
61.14, 0.063556, , 
61.17, 0.063521, , 
61.20, 0.063436, , 
61.23, 0.063328, , 
61.26, 0.063185, , 
61.29, 0.063087, , 
61.32, 0.063030, , 
61.35, 0.063030, , 
61.38, 0.063023, , 
61.41, 0.062972, , 
61.44, 0.062960, , 
61.47, 0.062928, , 
61.50, 0.062807, , 
61.53, 0.062677, , 
61.56, 0.062547, , 
61.59, 0.062509, , 
61.62, 0.062462, , 
61.65, 0.062401, , 
61.68, 0.062338, , 
61.71, 0.062405, , 
61.74, 0.062449, , 
61.77, 0.062389, , 
61.80, 0.062351, , 
61.83, 0.062392, , 
61.86, 0.062440, , 
61.89, 0.062373, , 
61.92, 0.062395, , 
61.95, 0.062386, , 
61.98, 0.062459, , 
62.01, 0.062395, , 
62.04, 0.062367, , 
62.07, 0.062408, , 
62.10, 0.062398, , 
62.13, 0.062360, , 
62.16, 0.062452, , 
62.19, 0.062595, , 
62.22, 0.062693, , 
62.25, 0.062735, , 
62.28, 0.062814, , 
62.31, 0.062858, , 
62.34, 0.062852, , 
62.37, 0.062849, , 
62.40, 0.062938, , 
62.44, 0.063118, , 
62.46, 0.063226, , 
62.49, 0.063315, , 
62.52, 0.063436, , 
62.55, 0.063588, , 
62.58, 0.063686, , 
62.61, 0.063756, , 
62.64, 0.063835, , 
62.67, 0.064013, , 
62.70, 0.064165, , 
62.73, 0.064260, , 
62.76, 0.064374, , 
62.79, 0.064473, , 
62.82, 0.064574, , 
62.85, 0.064631, , 
62.88, 0.064799, , 
62.91, 0.064917, , 
62.94, 0.064958, , 
62.97, 0.064949, , 
63.00, 0.065028, , 
63.03, 0.064980, , 
63.06, 0.064933, , 
63.09, 0.064907, , 
63.12, 0.064952, , 
63.15, 0.064964, , 
63.18, 0.064866, , 
63.21, 0.064774, , 
63.24, 0.064698, , 
63.27, 0.064606, , 
63.30, 0.064530, , 
63.33, 0.064523, , 
63.36, 0.064533, , 
63.39, 0.064508, , 
63.42, 0.064470, , 
63.45, 0.064438, , 
63.48, 0.064466, , 
63.51, 0.064511, , 
63.54, 0.064463, , 
63.57, 0.064495, , 
63.60, 0.064549, , 
63.63, 0.064536, , 
63.66, 0.064476, , 
63.69, 0.064457, , 
63.72, 0.064511, , 
63.75, 0.064482, , 
63.78, 0.064457, , 
63.81, 0.064489, , 
63.84, 0.064527, , 
63.87, 0.064482, , 
63.90, 0.064425, , 
63.94, 0.064482, , 
63.96, 0.064501, , 
63.98, 0.064501, 20, 0.587
63.99, 0.064492, , 
64.02, 0.064520, , 
64.05, 0.064692, , 
64.08, 0.064834, , 
64.11, 0.064917, , 
64.14, 0.064930, , 
64.17, 0.064955, , 
64.20, 0.064996, , 
64.23, 0.065018, , 
64.26, 0.065145, , 
64.29, 0.065301, , 
64.32, 0.065386, , 
64.35, 0.065405, , 
64.38, 0.065402, , 
64.41, 0.065507, , 
64.44, 0.065656, , 
64.47, 0.065707, , 
64.50, 0.065808, , 
64.53, 0.065929, , 
64.56, 0.065954, , 
64.59, 0.065938, , 
64.62, 0.065945, , 
64.65, 0.065979, , 
64.68, 0.065964, , 
64.71, 0.065938, , 
64.74, 0.066005, , 
64.77, 0.065964, , 
64.80, 0.065862, , 
64.83, 0.065697, , 
64.86, 0.065605, , 
64.89, 0.065586, , 
64.92, 0.065529, , 
64.95, 0.065447, , 
64.98, 0.065453, , 
65.01, 0.065516, , 
65.04, 0.065510, , 
65.07, 0.065437, , 
65.10, 0.065481, , 
65.13, 0.065526, , 
65.16, 0.065488, , 
65.19, 0.065440, , 
65.22, 0.065472, , 
65.25, 0.065510, , 
65.28, 0.065491, , 
65.31, 0.065447, , 
65.34, 0.065481, , 
65.37, 0.065488, , 
65.40, 0.065462, , 
65.43, 0.065443, , 
65.46, 0.065475, , 
65.49, 0.065450, , 
65.52, 0.065447, , 
65.55, 0.065481, , 
65.58, 0.065529, , 
65.61, 0.065589, , 
65.64, 0.065707, , 
65.67, 0.065821, , 
65.70, 0.065957, , 
65.73, 0.066011, , 
65.76, 0.065989, , 
65.80, 0.066017, , 
65.82, 0.066049, , 
65.85, 0.065979, , 
65.88, 0.065929, , 
65.91, 0.065986, , 
65.94, 0.066049, , 
65.97, 0.066030, , 
66.00, 0.066002, , 
66.03, 0.065995, , 
66.06, 0.066049, , 
66.09, 0.066017, , 
66.12, 0.065986, , 
66.15, 0.066017, , 
66.18, 0.066030, , 
66.21, 0.066014, , 
66.24, 0.065983, , 
66.27, 0.066014, , 
66.30, 0.066043, , 
66.33, 0.065979, , 
66.36, 0.065995, , 
66.39, 0.066068, , 
66.42, 0.066065, , 
66.45, 0.066030, , 
66.48, 0.065979, , 
66.51, 0.065887, , 
66.54, 0.065754, , 
66.57, 0.065631, , 
66.60, 0.065539, , 
66.63, 0.065516, , 
66.66, 0.065577, , 
66.69, 0.065545, , 
66.72, 0.065494, , 
66.75, 0.065526, , 
66.78, 0.065561, , 
66.81, 0.065526, , 
66.84, 0.065548, , 
66.87, 0.065592, , 
66.90, 0.065554, , 
66.93, 0.065513, , 
66.96, 0.065507, , 
66.99, 0.065554, , 
67.02, 0.065567, , 
67.05, 0.065504, , 
67.08, 0.065485, , 
67.11, 0.065494, , 
67.14, 0.065516, , 
67.17, 0.065437, , 
67.18, 0.065402, 21, 0.585
67.20, 0.065421, , 
67.23, 0.065475, , 
67.26, 0.065488, , 
67.29, 0.065459, , 
67.32, 0.065494, , 
67.35, 0.065494, , 
67.38, 0.065450, , 
67.41, 0.065402, , 
67.44, 0.065421, , 
67.47, 0.065443, , 
67.50, 0.065383, , 
67.53, 0.065190, , 
67.56, 0.065085, , 
67.59, 0.065060, , 
67.62, 0.064974, , 
67.65, 0.064923, , 
67.68, 0.064964, , 
67.71, 0.064977, , 
67.74, 0.064945, , 
67.77, 0.064898, , 
67.80, 0.064825, , 
67.83, 0.064784, , 
67.86, 0.064666, , 
67.89, 0.064514, , 
67.92, 0.064492, , 
67.95, 0.064451, , 
67.98, 0.064381, , 
68.01, 0.064384, , 
68.04, 0.064425, , 
68.07, 0.064438, , 
68.10, 0.064422, , 
68.13, 0.064349, , 
68.16, 0.064279, , 
68.19, 0.064168, , 
68.23, 0.064079, , 
68.25, 0.064060, , 
68.28, 0.064060, , 
68.31, 0.064048, , 
68.34, 0.064000, , 
68.37, 0.064006, , 
68.40, 0.064045, , 
68.43, 0.064022, , 
68.46, 0.063911, , 
68.49, 0.063769, , 
68.52, 0.063708, , 
68.55, 0.063629, , 
68.58, 0.063534, , 
68.61, 0.063547, , 
68.64, 0.063556, , 
68.67, 0.063420, , 
68.70, 0.063226, , 
68.73, 0.063198, , 
68.76, 0.063182, , 
68.79, 0.063087, , 
68.82, 0.063007, , 
68.85, 0.062960, , 
68.88, 0.062842, , 
68.91, 0.062690, , 
68.94, 0.062604, , 
68.97, 0.062579, , 
69.00, 0.062601, , 
69.03, 0.062535, , 
69.06, 0.062373, , 
69.09, 0.062256, , 
69.12, 0.062179, , 
69.15, 0.062110, , 
69.18, 0.062053, , 
69.21, 0.062056, , 
69.24, 0.062091, , 
69.27, 0.062005, , 
69.30, 0.061875, , 
69.33, 0.061767, , 
69.36, 0.061624, , 
69.39, 0.061542, , 
69.42, 0.061501, , 
69.45, 0.061421, , 
69.48, 0.061329, , 
69.51, 0.061183, , 
69.54, 0.061114, , 
69.57, 0.061142, , 
69.60, 0.061110, , 
69.63, 0.061069, , 
69.66, 0.060952, , 
69.69, 0.060898, , 
69.72, 0.060758, , 
69.75, 0.060632, , 
69.78, 0.060578, , 
69.81, 0.060600, , 
69.84, 0.060597, , 
69.87, 0.060530, , 
69.90, 0.060454, , 
69.93, 0.060356, , 
69.96, 0.060254, , 
69.99, 0.060118, , 
70.02, 0.060073, , 
70.05, 0.060076, , 
70.08, 0.060042, , 
70.11, 0.059905, , 
70.14, 0.059766, , 
70.17, 0.059648, , 
70.20, 0.059563, , 
70.24, 0.059464, , 
70.26, 0.059325, , 
70.29, 0.059233, , 
70.32, 0.059138, , 
70.35, 0.059014, , 
70.38, 0.058900, 22, 0.585
70.38, 0.058893, , 
70.41, 0.058830, , 
70.44, 0.058735, , 
70.47, 0.058598, , 
70.50, 0.058589, , 
70.53, 0.058630, , 
70.56, 0.058608, , 
70.59, 0.058443, , 
70.62, 0.058386, , 
70.65, 0.058268, , 
70.68, 0.058145, , 
70.71, 0.058056, , 
70.74, 0.058053, , 
70.77, 0.058119, , 
70.80, 0.058050, , 
70.83, 0.057983, , 
70.86, 0.057869, , 
70.89, 0.057682, , 
70.92, 0.057599, , 
70.95, 0.057539, , 
70.98, 0.057507, , 
71.01, 0.057396, , 
71.04, 0.057180, , 
71.07, 0.057193, , 
71.10, 0.057108, , 
71.13, 0.056955, , 
71.16, 0.056841, , 
71.19, 0.056638, , 
71.22, 0.056597, , 
71.26, 0.056537, , 
71.28, 0.056445, , 
71.31, 0.056353, , 
71.34, 0.056242, , 
71.37, 0.056178, , 
71.40, 0.056016, , 
71.43, 0.055905, , 
71.47, 0.055788, , 
71.49, 0.055683, , 
71.52, 0.055582, , 
71.55, 0.055477, , 
71.58, 0.055325, , 
71.61, 0.055233, , 
71.64, 0.055131, , 
71.67, 0.055131, , 
71.70, 0.055068, , 
71.73, 0.054906, , 
71.76, 0.054741, , 
71.79, 0.054703, , 
71.82, 0.054624, , 
71.85, 0.054434, , 
71.88, 0.054272, , 
71.91, 0.054231, , 
71.94, 0.054177, , 
71.97, 0.054018, , 
72.00, 0.053847, , 
72.03, 0.053752, , 
72.06, 0.053707, , 
72.09, 0.053561, , 
72.12, 0.053425, , 
72.15, 0.053336, , 
72.18, 0.053269, , 
72.21, 0.053174, , 
72.24, 0.053120, , 
72.27, 0.053051, , 
72.30, 0.052908, , 
72.33, 0.052759, , 
72.36, 0.052645, , 
72.39, 0.052670, , 
72.42, 0.052626, , 
72.45, 0.052521, , 
72.48, 0.052486, , 
72.51, 0.052397, , 
72.54, 0.052258, , 
72.57, 0.052096, , 
72.60, 0.052023, , 
72.63, 0.052055, , 
72.66, 0.052042, , 
72.69, 0.051940, , 
72.72, 0.051874, , 
72.75, 0.051703, , 
72.78, 0.051563, , 
72.81, 0.051509, , 
72.84, 0.051528, , 
72.87, 0.051528, , 
72.90, 0.051389, , 
72.93, 0.051233, , 
72.96, 0.051147, , 
72.99, 0.051081, , 
73.02, 0.050913, , 
73.05, 0.050738, , 
73.08, 0.050681, , 
73.11, 0.050630, , 
73.14, 0.050545, , 
73.17, 0.050456, , 
73.20, 0.050316, , 
73.23, 0.050259, , 
73.26, 0.050129, , 
73.29, 0.050028, , 
73.32, 0.049983, , 
73.35, 0.049898, , 
73.38, 0.049749, , 
73.41, 0.049647, , 
73.44, 0.049609, , 
73.47, 0.049587, , 
73.50, 0.049577, , 
73.53, 0.049600, , 
73.56, 0.049565, , 
73.58, 0.049508, 23, 0.586
73.59, 0.049466, , 
73.62, 0.049317, , 
73.65, 0.049251, , 
73.69, 0.049235, , 
73.71, 0.049228, , 
73.74, 0.049025, , 
73.77, 0.048911, , 
73.80, 0.048832, , 
73.83, 0.048702, , 
73.86, 0.048635, , 
73.90, 0.048664, , 
73.93, 0.048648, , 
73.95, 0.048540, , 
73.99, 0.048451, , 
74.01, 0.048369, , 
74.04, 0.048255, , 
74.07, 0.048210, , 
74.10, 0.048140, , 
74.13, 0.048014, , 
74.16, 0.047912, , 
74.19, 0.047773, , 
74.22, 0.047696, , 
74.25, 0.047636, , 
74.28, 0.047471, , 
74.31, 0.047309, , 
74.34, 0.047189, , 
74.37, 0.047202, , 
74.41, 0.047170, , 
74.43, 0.047125, , 
74.46, 0.047081, , 
74.49, 0.047008, , 
74.52, 0.046900, , 
74.55, 0.046773, , 
74.58, 0.046681, , 
74.61, 0.046653, , 
74.64, 0.046653, , 
74.67, 0.046621, , 
74.70, 0.046456, , 
74.73, 0.046351, , 
74.76, 0.046259, , 
74.79, 0.046187, , 
74.82, 0.046126, , 
74.85, 0.046136, , 
74.88, 0.046082, , 
74.91, 0.045885, , 
74.94, 0.045755, , 
74.97, 0.045727, , 
75.00, 0.045660, , 
75.03, 0.045539, , 
75.06, 0.045428, , 
75.09, 0.045365, , 
75.12, 0.045194, , 
75.15, 0.045102, , 
75.18, 0.045111, , 
75.21, 0.045121, , 
75.24, 0.045111, , 
75.27, 0.045000, , 
75.30, 0.044924, , 
75.33, 0.044829, , 
75.36, 0.044727, , 
75.39, 0.044645, , 
75.42, 0.044689, , 
75.45, 0.044693, , 
75.48, 0.044629, , 
75.51, 0.044607, , 
75.54, 0.044623, , 
75.57, 0.044575, , 
75.60, 0.044413, , 
75.63, 0.044277, , 
75.66, 0.044233, , 
75.69, 0.044223, , 
75.72, 0.044172, , 
75.75, 0.044106, , 
75.78, 0.044036, , 
75.81, 0.043919, , 
75.85, 0.043782, , 
75.87, 0.043703, , 
75.90, 0.043706, , 
75.93, 0.043697, , 
75.96, 0.043509, , 
75.99, 0.043376, , 
76.02, 0.043341, , 
76.05, 0.043259, , 
76.08, 0.043161, , 
76.11, 0.043148, , 
76.14, 0.043195, , 
76.17, 0.043154, , 
76.20, 0.043040, , 
76.23, 0.042910, , 
76.26, 0.042824, , 
76.29, 0.042767, , 
76.32, 0.042643, , 
76.35, 0.042637, , 
76.38, 0.042634, , 
76.41, 0.042425, , 
76.44, 0.042298, , 
76.47, 0.042225, , 
76.50, 0.042199, , 
76.53, 0.042149, , 
76.56, 0.041971, , 
76.59, 0.041828, , 
76.62, 0.041749, , 
76.65, 0.041670, , 
76.68, 0.041584, , 
76.71, 0.041562, , 
76.74, 0.041556, , 
76.77, 0.041381, 24, 0.585
76.78, 0.041359, , 
76.80, 0.041261, , 
76.83, 0.041191, , 
76.86, 0.041165, , 
76.89, 0.041115, , 
76.92, 0.041058, , 
76.95, 0.040962, , 
76.98, 0.040839, , 
77.01, 0.040690, , 
77.04, 0.040585, , 
77.08, 0.040544, , 
77.10, 0.040575, , 
77.13, 0.040547, , 
77.16, 0.040521, , 
77.19, 0.040423, , 
77.22, 0.040287, , 
77.25, 0.040109, , 
77.29, 0.040100, , 
77.31, 0.040093, , 
77.34, 0.040033, , 
77.37, 0.039916, , 
77.40, 0.039811, , 
77.43, 0.039776, , 
77.46, 0.039678, , 
77.49, 0.039551, , 
77.52, 0.039548, , 
77.55, 0.039570, , 
77.58, 0.039510, , 
77.61, 0.039395, , 
77.64, 0.039284, , 
77.67, 0.039202, , 
77.70, 0.039104, , 
77.73, 0.039053, , 
77.76, 0.039062, , 
77.79, 0.039088, , 
77.82, 0.038993, , 
77.85, 0.038812, , 
77.88, 0.038688, , 
77.91, 0.038599, , 
77.94, 0.038504, , 
77.97, 0.038491, , 
78.00, 0.038491, , 
78.03, 0.038498, , 
78.06, 0.038450, , 
78.09, 0.038412, , 
78.12, 0.038377, , 
78.15, 0.038273, , 
78.18, 0.038104, , 
78.21, 0.038006, , 
78.24, 0.037949, , 
78.27, 0.037914, , 
78.30, 0.037822, , 
78.33, 0.037809, , 
78.36, 0.037860, , 
78.39, 0.037806, , 
78.42, 0.037705, , 
78.45, 0.037568, , 
78.48, 0.037457, , 
78.51, 0.037359, , 
78.54, 0.037277, , 
78.57, 0.037229, , 
78.60, 0.037147, , 
78.63, 0.036982, , 
78.66, 0.036848, , 
78.69, 0.036779, , 
78.72, 0.036766, , 
78.75, 0.036785, , 
78.78, 0.036693, , 
78.82, 0.036541, , 
78.84, 0.036439, , 
78.87, 0.036338, , 
78.90, 0.036258, , 
78.93, 0.036233, , 
78.96, 0.036262, , 
78.99, 0.036217, , 
79.02, 0.036176, , 
79.05, 0.036040, , 
79.08, 0.035900, , 
79.11, 0.035802, , 
79.14, 0.035726, , 
79.17, 0.035741, , 
79.20, 0.035745, , 
79.23, 0.035732, , 
79.26, 0.035760, , 
79.29, 0.035783, , 
79.32, 0.035697, , 
79.35, 0.035576, , 
79.38, 0.035431, , 
79.41, 0.035399, , 
79.44, 0.035364, , 
79.47, 0.035304, , 
79.50, 0.035323, , 
79.53, 0.035386, , 
79.56, 0.035310, , 
79.59, 0.035266, , 
79.62, 0.035167, , 
79.65, 0.035044, , 
79.68, 0.034964, , 
79.71, 0.034802, , 
79.74, 0.034831, , 
79.77, 0.034841, , 
79.80, 0.034802, , 
79.83, 0.034761, , 
79.86, 0.034739, , 
79.89, 0.034653, , 
79.92, 0.034495, , 
79.95, 0.034362, , 
79.97, 0.034365, 25, 0.585
79.98, 0.034371, , 
80.01, 0.034415, , 
80.04, 0.034365, , 
80.07, 0.034330, , 
80.10, 0.034308, , 
80.13, 0.034228, , 
80.16, 0.034057, , 
80.19, 0.033876, , 
80.23, 0.033857, , 
80.25, 0.033889, , 
80.28, 0.033848, , 
80.31, 0.033787, , 
80.34, 0.033819, , 
80.37, 0.033816, , 
80.40, 0.033775, , 
80.43, 0.033749, , 
80.46, 0.033705, , 
80.49, 0.033550, , 
80.52, 0.033400, , 
80.55, 0.033318, , 
80.58, 0.033334, , 
80.61, 0.033321, , 
80.64, 0.033248, , 
80.67, 0.033255, , 
80.70, 0.033251, , 
80.73, 0.033140, , 
80.76, 0.032915, , 
80.79, 0.032877, , 
80.82, 0.032953, , 
80.85, 0.032864, , 
80.88, 0.032782, , 
80.91, 0.032791, , 
80.94, 0.032801, , 
80.97, 0.032750, , 
81.00, 0.032750, , 
81.03, 0.032807, , 
81.06, 0.032849, , 
81.09, 0.032823, , 
81.12, 0.032785, , 
81.15, 0.032820, , 
81.18, 0.032849, , 
81.21, 0.032741, , 
81.24, 0.032481, , 
81.27, 0.032439, , 
81.30, 0.032424, , 
81.33, 0.032303, , 
81.36, 0.032255, , 
81.39, 0.032312, , 
81.42, 0.032322, , 
81.46, 0.032243, , 
81.48, 0.032278, , 
81.51, 0.032309, , 
81.54, 0.032186, , 
81.57, 0.032021, , 
81.60, 0.031906, , 
81.63, 0.031887, , 
81.66, 0.031849, , 
81.69, 0.031764, , 
81.72, 0.031764, , 
81.75, 0.031783, , 
81.78, 0.031748, , 
81.81, 0.031723, , 
81.84, 0.031767, , 
81.87, 0.031818, , 
81.90, 0.031795, , 
81.93, 0.031770, , 
81.96, 0.031776, , 
81.99, 0.031853, , 
82.02, 0.031815, , 
82.05, 0.031754, , 
82.08, 0.031726, , 
82.11, 0.031707, , 
82.14, 0.031592, , 
82.17, 0.031424, , 
82.20, 0.031374, , 
82.23, 0.031386, , 
82.26, 0.031361, , 
82.29, 0.031313, , 
82.32, 0.031310, , 
82.35, 0.031355, , 
82.38, 0.031320, , 
82.41, 0.031329, , 
82.44, 0.031364, , 
82.47, 0.031393, , 
82.50, 0.031374, , 
82.53, 0.031345, , 
82.56, 0.031415, , 
82.59, 0.031408, , 
82.62, 0.031380, , 
82.65, 0.031345, , 
82.68, 0.031389, , 
82.71, 0.031389, , 
82.74, 0.031317, , 
82.77, 0.031345, , 
82.80, 0.031367, , 
82.83, 0.031383, , 
82.86, 0.031307, , 
82.89, 0.031313, , 
82.92, 0.031377, , 
82.95, 0.031336, , 
82.98, 0.031294, , 
83.01, 0.031358, , 
83.04, 0.031393, , 
83.07, 0.031332, , 
83.10, 0.031304, , 
83.13, 0.031342, , 
83.16, 0.031361, , 
83.19, 0.031345, 26, 0.588
83.19, 0.031348, , 
83.22, 0.031317, , 
83.25, 0.031336, , 
83.28, 0.031355, , 
83.31, 0.031269, , 
83.34, 0.031221, , 
83.37, 0.031275, , 
83.40, 0.031361, , 
83.43, 0.031421, , 
83.46, 0.031542, , 
83.49, 0.031656, , 
83.52, 0.031713, , 
83.55, 0.031703, , 
83.58, 0.031723, , 
83.61, 0.031770, , 
83.64, 0.031761, , 
83.67, 0.031738, , 
83.70, 0.031757, , 
83.73, 0.031726, , 
83.76, 0.031742, , 
83.80, 0.031678, , 
83.82, 0.031700, , 
83.85, 0.031735, , 
83.88, 0.031773, , 
83.91, 0.031742, , 
83.94, 0.031748, , 
83.97, 0.031773, , 
84.00, 0.031751, , 
84.03, 0.031726, , 
84.06, 0.031770, , 
84.09, 0.031938, , 
84.12, 0.032084, , 
84.15, 0.032059, , 
84.18, 0.032163, , 
84.21, 0.032198, , 
84.24, 0.032170, , 
84.27, 0.032160, , 
84.30, 0.032195, , 
84.33, 0.032240, , 
84.36, 0.032246, , 
84.39, 0.032233, , 
84.42, 0.032249, , 
84.45, 0.032290, , 
84.49, 0.032271, , 
84.51, 0.032259, , 
84.54, 0.032284, , 
84.57, 0.032249, , 
84.60, 0.032106, , 
84.63, 0.031957, , 
84.66, 0.031919, , 
84.69, 0.031891, , 
84.72, 0.031795, , 
84.75, 0.031786, , 
84.78, 0.031846, , 
84.81, 0.031805, , 
84.84, 0.031742, , 
84.87, 0.031776, , 
84.90, 0.031805, , 
84.93, 0.031792, , 
84.96, 0.031776, , 
84.99, 0.031757, , 
85.02, 0.031783, , 
85.05, 0.031786, , 
85.08, 0.031773, , 
85.11, 0.031808, , 
85.14, 0.031853, , 
85.17, 0.031786, , 
85.21, 0.031767, , 
85.23, 0.031811, , 
85.26, 0.031849, , 
85.29, 0.031786, , 
85.32, 0.031751, , 
85.35, 0.031773, , 
85.38, 0.031802, , 
85.42, 0.031789, , 
85.44, 0.031726, , 
85.47, 0.031745, , 
85.50, 0.031795, , 
85.53, 0.031792, , 
85.56, 0.031783, , 
85.59, 0.031805, , 
85.62, 0.031815, , 
85.65, 0.031818, , 
85.68, 0.031723, , 
85.71, 0.031770, , 
85.74, 0.031830, , 
85.77, 0.031764, , 
85.80, 0.031748, , 
85.83, 0.031792, , 
85.86, 0.031764, , 
85.89, 0.031726, , 
85.92, 0.031748, , 
85.95, 0.031805, , 
85.98, 0.031830, , 
86.01, 0.031764, , 
86.04, 0.031786, , 
86.07, 0.031821, , 
86.10, 0.031830, , 
86.13, 0.031783, , 
86.16, 0.031726, , 
86.19, 0.031754, , 
86.22, 0.031792, , 
86.25, 0.031754, , 
86.28, 0.031764, , 
86.31, 0.031795, , 
86.34, 0.031789, , 
86.37, 0.031764, , 
86.38, 0.031748, 27, 0.585
86.40, 0.031776, , 
86.43, 0.031853, , 
86.46, 0.031868, , 
86.49, 0.031830, , 
86.52, 0.031859, , 
86.55, 0.031827, , 
86.58, 0.031789, , 
86.61, 0.031748, , 
86.64, 0.031767, , 
86.67, 0.031792, , 
86.70, 0.031732, , 
86.73, 0.031684, , 
86.76, 0.031697, , 
86.79, 0.031751, , 
86.82, 0.031735, , 
86.85, 0.031700, , 
86.88, 0.031751, , 
86.91, 0.031795, , 
86.94, 0.031757, , 
86.97, 0.031770, , 
87.00, 0.031789, , 
87.03, 0.031761, , 
87.06, 0.031723, , 
87.09, 0.031688, , 
87.12, 0.031757, , 
87.15, 0.031764, , 
87.18, 0.031732, , 
87.21, 0.031761, , 
87.24, 0.031792, , 
87.27, 0.031799, , 
87.30, 0.031764, , 
87.33, 0.031719, , 
87.36, 0.031780, , 
87.39, 0.031767, , 
87.42, 0.031754, , 
87.45, 0.031780, , 
87.48, 0.031795, , 
87.51, 0.031843, , 
87.54, 0.031789, , 
87.57, 0.031783, , 
87.60, 0.031846, , 
87.63, 0.031795, , 
87.66, 0.031767, , 
87.69, 0.031843, , 
87.72, 0.031891, , 
87.75, 0.031827, , 
87.78, 0.031795, , 
87.81, 0.031859, , 
87.84, 0.031862, , 
87.88, 0.031805, , 
87.90, 0.031805, , 
87.93, 0.031837, , 
87.96, 0.031830, , 
87.99, 0.031805, , 
88.03, 0.031748, , 
88.05, 0.031764, , 
88.08, 0.031795, , 
88.11, 0.031780, , 
88.14, 0.031767, , 
88.17, 0.031846, , 
88.20, 0.032014, , 
88.23, 0.032347, , 
88.27, 0.032776, , 
88.29, 0.033023, , 
88.32, 0.033229, , 
88.35, 0.033328, , 
88.38, 0.033543, , 
88.41, 0.033730, , 
88.44, 0.033902, , 
88.47, 0.034016, , 
88.50, 0.034184, , 
88.53, 0.034403, , 
88.56, 0.034618, , 
88.59, 0.034685, , 
88.62, 0.036750, , 
88.65, 0.045631, , 
88.68, 0.059052, , 
88.71, 0.081538, , 
88.74, 0.098501, , 
88.77, 0.112664, , 
88.80, 0.120267, , 
88.83, 0.124990, , 
88.86, 0.128321, , 
88.89, 0.129903, , 
88.92, 0.131458, , 
88.95, 0.132390, , 
88.98, 0.133171, , 
89.01, 0.134002, , 
89.04, 0.134642, , 
89.07, 0.135416, , 
89.10, 0.136044, , 
89.13, 0.136675, , 
89.16, 0.133231, , 
89.19, 0.121901, , 
89.22, 0.101216, , 
89.25, 0.083488, , 
89.28, 0.069605, , 
89.31, 0.060337, , 
89.34, 0.054878, , 
89.37, 0.051579, , 
89.40, 0.050243, , 
89.43, 0.049685, , 
89.46, 0.049628, , 
89.49, 0.049847, , 
89.52, 0.050110, , 
89.55, 0.050545, , 
89.58, 0.051052, , 
89.61, 0.051509, , 
89.64, 0.051725, , 
89.67, 0.051931, , 
89.70, 0.052013, , 
89.73, 0.052293, , 
89.76, 0.052505, , 
89.79, 0.052765, , 
89.82, 0.053244, , 
89.85, 0.053555, , 
89.88, 0.053825, , 
89.91, 0.054123, , 
89.94, 0.054478, , 
89.97, 0.054729, , 
90.00, 0.054706, , 
90.03, 0.054694, , 
90.06, 0.054599, , 
90.09, 0.054304, , 
90.12, 0.054050, , 
90.15, 0.054043, , 
90.18, 0.054088, , 
90.21, 0.054288, , 
90.24, 0.054535, , 
90.27, 0.054748, , 
90.30, 0.054966, , 
90.33, 0.054998, , 
90.36, 0.054909, , 
90.39, 0.054773, , 
90.42, 0.054633, , 
90.45, 0.054307, , 
90.48, 0.054018, , 
90.51, 0.053980, , 
90.54, 0.054272, , 
90.57, 0.054560, , 
90.60, 0.054811, , 
90.63, 0.054976, , 
90.66, 0.055182, , 
90.69, 0.055309, , 
90.72, 0.055309, , 
90.75, 0.055274, , 
90.78, 0.055109, , 
90.81, 0.054998, , 
90.84, 0.055077, , 
90.87, 0.055312, , 
90.90, 0.055496, , 
90.93, 0.055614, , 
90.96, 0.055823, , 
90.99, 0.056112, , 
91.02, 0.056169, , 
91.05, 0.056108, , 
91.08, 0.056013, , 
91.11, 0.055886, , 
91.14, 0.055788, , 
91.17, 0.055671, , 
91.20, 0.055582, , 
91.24, 0.055442, , 
91.26, 0.055319, , 
91.29, 0.055252, , 
91.32, 0.055277, , 
91.35, 0.055160, , 
91.38, 0.054773, , 
91.41, 0.054402, , 
91.44, 0.054227, , 
91.47, 0.054193, , 
91.50, 0.054154, , 
91.53, 0.054221, , 
91.56, 0.054345, , 
91.59, 0.054313, , 
91.62, 0.054234, , 
91.65, 0.054164, , 
91.68, 0.054208, , 
91.71, 0.054215, , 
91.74, 0.054205, , 
91.77, 0.054281, , 
91.80, 0.054335, , 
91.83, 0.054335, , 
91.86, 0.054329, , 
91.89, 0.054507, , 
91.92, 0.054754, , 
91.95, 0.054789, , 
91.98, 0.054640, , 
92.01, 0.054538, , 
92.04, 0.054392, , 
92.07, 0.054227, , 
92.10, 0.053986, , 
92.13, 0.053840, , 
92.16, 0.053894, , 
92.19, 0.053955, , 
92.22, 0.054015, , 
92.25, 0.054066, , 
92.28, 0.054062, , 
92.31, 0.053955, , 
92.34, 0.053872, , 
92.37, 0.053996, , 
92.40, 0.054135, , 
92.43, 0.054173, , 
92.46, 0.054231, , 
92.49, 0.054440, , 
92.52, 0.054545, , 
92.55, 0.054560, , 
92.58, 0.054586, , 
92.61, 0.054716, , 
92.64, 0.054976, , 
92.67, 0.055065, , 
92.70, 0.055103, , 
92.73, 0.055230, , 
92.76, 0.055420, , 
92.79, 0.055753, , 
92.82, 0.056223, , 
92.85, 0.056590, , 
92.88, 0.056632, , 
92.91, 0.056441, , 
92.94, 0.056270, , 
92.97, 0.056213, , 
93.00, 0.056121, , 
93.03, 0.056067, , 
93.06, 0.056169, , 
93.09, 0.056289, , 
93.12, 0.056286, , 
93.15, 0.056035, , 
93.18, 0.055740, , 
93.21, 0.055683, , 
93.24, 0.055693, , 
93.27, 0.055525, , 
93.30, 0.055331, , 
93.33, 0.055005, , 
93.36, 0.054735, , 
93.39, 0.054646, , 
93.42, 0.054840, , 
93.45, 0.055106, , 
93.49, 0.055312, , 
93.51, 0.055436, , 
93.54, 0.055677, , 
93.57, 0.055756, , 
93.60, 0.055902, , 
93.63, 0.056159, , 
93.66, 0.056454, , 
93.69, 0.056822, , 
93.72, 0.057076, , 
93.75, 0.057320, , 
93.78, 0.057707, , 
93.81, 0.058053, , 
93.84, 0.058338, , 
93.87, 0.058576, , 
93.90, 0.058757, , 
93.93, 0.058922, , 
93.96, 0.058944, , 
93.99, 0.058954, , 
94.02, 0.059030, , 
94.05, 0.059065, , 
94.08, 0.059055, , 
94.11, 0.059004, , 
94.14, 0.059052, , 
94.17, 0.059058, , 
94.20, 0.059011, , 
94.23, 0.059042, , 
94.26, 0.059093, , 
94.29, 0.059096, , 
94.32, 0.059036, , 
94.35, 0.058950, , 
94.38, 0.058839, , 
94.41, 0.058706, , 
94.44, 0.058576, , 
94.47, 0.058570, , 
94.50, 0.058589, , 
94.53, 0.058570, , 
94.56, 0.058421, , 
94.59, 0.058284, , 
94.62, 0.058180, , 
94.65, 0.058084, , 
94.68, 0.057894, , 
94.71, 0.057723, , 
94.74, 0.057647, , 
94.77, 0.057536, , 
94.80, 0.057450, , 
94.83, 0.057387, , 
94.86, 0.057288, , 
94.89, 0.057114, , 
94.92, 0.057028, , 
94.95, 0.057016, , 
94.98, 0.057012, , 
95.01, 0.056939, , 
95.04, 0.056797, , 
95.07, 0.056727, , 
95.10, 0.056648, , 
95.13, 0.056559, , 
95.16, 0.056467, , 
95.19, 0.056470, , 
95.22, 0.056445, , 
95.25, 0.056343, , 
95.28, 0.056242, , 
95.31, 0.056159, , 
95.34, 0.056073, , 
95.37, 0.055978, , 
95.40, 0.055950, , 
95.43, 0.055994, , 
95.46, 0.056004, , 
95.49, 0.055943, , 
95.52, 0.055950, , 
95.55, 0.055997, , 
95.58, 0.056010, , 
95.61, 0.055972, , 
95.64, 0.055918, , 
95.67, 0.055858, , 
95.70, 0.055712, , 
95.73, 0.055594, , 
95.76, 0.055569, , 
95.79, 0.055598, , 
95.82, 0.055633, , 
95.85, 0.055582, , 
95.88, 0.055566, , 
95.91, 0.055598, , 
95.94, 0.055601, , 
95.97, 0.055588, , 
96.00, 0.055582, , 
