Gradient Profiler Text Data File: 6-C6_BY4741_46_012126.csv
Date: 2026-01-21
Time: 16:40:12

User: Karen
Experiment name: 
UV Unit: EM-1
Rotor Manufacturer: Beckman
Rotor Model: SW28.1
Speed: 28 rpm
Gradient: sucrose 10.0% to 50.0% w/v
Time: 4
w2t:  x 10^0
Sample Volume: 18 ml
Number of Tubes: 6
Volume per mm: 0.183 ml/mm

Absorbance Units Full Scale (AUFS): 2.00
Event Mark-triggered gradient; (with distance; auto start and stop)
Delay: No Delay
UV Wavelength: 254 nm
Samples / sec: 10 Hz
EM1 Speed: 0.30 mm/sec
Distance: 3.20 mm
Number: 30
Dead Volume: 0.000000 ml; Distance due to Dead Volume: 0.00 mm
Total Distance: 96.00 mm

Data Columns:
Distance(mm), Absorbance, Fraction Number, Fraction Volume(ml)
0.00, 0.080244, 0, 0.000
0.03, 0.080298, , 
0.06, 0.080320, , 
0.09, 0.080291, , 
0.12, 0.080332, , 
0.15, 0.080355, , 
0.18, 0.080336, , 
0.21, 0.080294, , 
0.24, 0.080323, , 
0.27, 0.080329, , 
0.30, 0.080285, , 
0.33, 0.080278, , 
0.36, 0.080298, , 
0.39, 0.080304, , 
0.42, 0.080307, , 
0.45, 0.080443, , 
0.48, 0.080615, , 
0.51, 0.080789, , 
0.54, 0.081608, , 
0.57, 0.084890, , 
0.60, 0.094955, , 
0.63, 0.124537, , 
0.66, 0.163209, , 
0.69, 0.241657, , 
0.72, 0.325720, , 
0.75, 0.419124, , 
0.78, 0.534617, , 
0.81, 0.636563, , 
0.84, 0.740222, , 
0.87, 0.844401, , 
0.90, 0.949090, , 
0.93, 1.071714, , 
0.96, 1.177038, , 
0.99, 1.282483, , 
1.02, 1.405570, , 
1.05, 1.511110, , 
1.08, 1.615673, , 
1.11, 1.733228, , 
1.14, 1.824481, , 
1.17, 1.898939, , 
1.20, 1.952148, , 
1.23, 1.986167, , 
1.26, 2.008761, , 
1.29, 2.019212, , 
1.32, 2.024954, , 
1.35, 2.028376, , 
1.38, 2.030007, , 
1.41, 2.030961, , 
1.44, 2.031570, , 
1.47, 2.031853, , 
1.50, 2.032170, , 
1.53, 2.032420, , 
1.56, 2.032573, , 
1.60, 2.032668, , 
1.62, 2.032798, , 
1.65, 2.032925, , 
1.68, 2.032969, , 
1.71, 2.032985, , 
1.74, 2.033134, , 
1.77, 2.033245, , 
1.80, 2.033261, , 
1.83, 2.033264, , 
1.86, 2.033293, , 
1.89, 2.033400, , 
1.92, 2.033426, , 
1.95, 2.033400, , 
1.98, 2.033445, , 
2.01, 2.033524, , 
2.04, 2.033505, , 
2.07, 2.033508, , 
2.10, 2.033603, , 
2.13, 2.033670, , 
2.16, 2.033623, , 
2.19, 2.033591, , 
2.22, 2.033664, , 
2.25, 2.033692, , 
2.28, 2.033683, , 
2.31, 2.033667, , 
2.34, 2.033743, , 
2.37, 2.033768, , 
2.40, 2.033762, , 
2.43, 2.033765, , 
2.46, 2.033794, , 
2.49, 2.033791, , 
2.52, 2.033762, , 
2.55, 2.033832, , 
2.58, 2.033841, , 
2.61, 2.033829, , 
2.64, 2.033835, , 
2.67, 2.033841, , 
2.70, 2.033905, , 
2.73, 2.033917, , 
2.76, 2.033876, , 
2.79, 2.033819, , 
2.82, 2.033851, , 
2.85, 2.033851, , 
2.88, 2.033857, , 
2.91, 2.033892, , 
2.94, 2.033968, , 
2.97, 2.033940, , 
3.00, 2.033924, , 
3.04, 2.033962, , 
3.06, 2.033975, , 
3.09, 2.033924, , 
3.12, 2.033886, , 
3.15, 2.033902, , 
3.18, 2.033981, 1, 0.582
3.19, 2.033975, , 
3.21, 2.033943, , 
3.24, 2.033917, , 
3.27, 2.033956, , 
3.30, 2.034063, , 
3.33, 2.033952, , 
3.36, 2.033562, , 
3.39, 2.033010, , 
3.42, 2.032040, , 
3.45, 2.030625, , 
3.48, 2.028798, , 
3.51, 2.026137, , 
3.54, 2.023133, , 
3.57, 2.019482, , 
3.60, 2.014448, , 
3.63, 2.009548, , 
3.66, 2.004124, , 
3.69, 1.998135, , 
3.72, 1.991670, , 
3.75, 1.983382, , 
3.78, 1.975652, , 
3.81, 1.966003, , 
3.84, 1.957249, , 
3.87, 1.949677, , 
3.90, 1.938553, , 
3.93, 1.928647, , 
3.96, 1.916975, , 
3.99, 1.906882, , 
4.02, 1.896715, , 
4.05, 1.884802, , 
4.08, 1.876326, , 
4.11, 1.864574, , 
4.14, 1.854462, , 
4.17, 1.844296, , 
4.20, 1.832512, , 
4.23, 1.822356, , 
4.27, 1.810337, , 
4.29, 1.801852, , 
4.32, 1.791699, , 
4.35, 1.779750, , 
4.38, 1.769511, , 
4.41, 1.757553, , 
4.44, 1.747454, , 
4.48, 1.737300, , 
4.50, 1.727068, , 
4.53, 1.716695, , 
4.56, 1.704480, , 
4.59, 1.693934, , 
4.62, 1.683279, , 
4.65, 1.670997, , 
4.68, 1.662275, , 
4.71, 1.650015, , 
4.74, 1.639497, , 
4.77, 1.628988, , 
4.80, 1.616643, , 
4.83, 1.605947, , 
4.86, 1.593491, , 
4.89, 1.584689, , 
4.92, 1.574101, , 
4.95, 1.561629, , 
4.98, 1.550873, , 
5.01, 1.538204, , 
5.04, 1.527315, , 
5.07, 1.516502, , 
5.10, 1.505676, , 
5.13, 1.494869, , 
5.16, 1.482309, , 
5.19, 1.471416, , 
5.22, 1.460536, , 
5.25, 1.447849, , 
5.29, 1.437020, , 
5.31, 1.426153, , 
5.34, 1.415311, , 
5.37, 1.404482, , 
5.40, 1.391820, , 
5.43, 1.380930, , 
5.46, 1.370038, , 
5.50, 1.357461, , 
5.52, 1.349614, , 
5.55, 1.335943, , 
5.58, 1.325228, , 
5.61, 1.314627, , 
5.64, 1.304097, , 
5.67, 1.291872, , 
5.70, 1.281493, , 
5.73, 1.271372, , 
5.76, 1.259816, , 
5.79, 1.249936, , 
5.82, 1.240023, , 
5.85, 1.228570, , 
5.88, 1.218749, , 
5.91, 1.209005, , 
5.94, 1.199391, , 
5.97, 1.189853, , 
6.00, 1.178891, , 
6.03, 1.169559, , 
6.06, 1.158949, , 
6.09, 1.150112, , 
6.12, 1.142709, , 
6.15, 1.132416, , 
6.18, 1.123696, , 
6.21, 1.115106, , 
6.24, 1.105035, , 
6.27, 1.096405, , 
6.31, 1.086572, , 
6.33, 1.079698, , 
6.36, 1.070287, , 
6.38, 1.064983, 2, 0.586
6.39, 1.062348, , 
6.42, 1.054491, , 
6.45, 1.045175, , 
6.48, 1.037140, , 
6.51, 1.029198, , 
6.54, 1.021585, , 
6.57, 1.014280, , 
6.60, 1.005814, , 
6.63, 0.998439, , 
6.66, 0.989628, , 
6.69, 0.981885, , 
6.72, 0.975278, , 
6.75, 0.965952, , 
6.78, 0.957959, , 
6.81, 0.949861, , 
6.84, 0.940095, , 
6.87, 0.931556, , 
6.90, 0.921641, , 
6.93, 0.914564, , 
6.96, 0.906177, , 
6.99, 0.896614, , 
7.02, 0.888541, , 
7.05, 0.879022, , 
7.08, 0.870547, , 
7.11, 0.861881, , 
7.14, 0.853323, , 
7.17, 0.844915, , 
7.20, 0.835472, , 
7.23, 0.827650, , 
7.26, 0.818778, , 
7.29, 0.812555, , 
7.32, 0.805085, , 
7.35, 0.796517, , 
7.38, 0.789203, , 
7.41, 0.780550, , 
7.44, 0.772988, , 
7.47, 0.765480, , 
7.50, 0.758124, , 
7.53, 0.750714, , 
7.56, 0.742125, , 
7.59, 0.734887, , 
7.62, 0.726586, , 
7.66, 0.719392, , 
7.68, 0.712283, , 
7.71, 0.705388, , 
7.74, 0.697635, , 
7.77, 0.691000, , 
7.80, 0.684342, , 
7.83, 0.677646, , 
7.86, 0.670918, , 
7.89, 0.663033, , 
7.92, 0.656499, , 
7.95, 0.650323, , 
7.98, 0.643249, , 
8.01, 0.638171, , 
8.04, 0.631025, , 
8.07, 0.624877, , 
8.10, 0.618787, , 
8.13, 0.611860, , 
8.16, 0.606058, , 
8.19, 0.599496, , 
8.22, 0.594719, , 
8.25, 0.588968, , 
8.28, 0.582263, , 
8.31, 0.576658, , 
8.34, 0.570212, , 
8.37, 0.564681, , 
8.40, 0.559228, , 
8.43, 0.553848, , 
8.46, 0.548386, , 
8.49, 0.541995, , 
8.52, 0.536599, , 
8.55, 0.531296, , 
8.58, 0.525234, , 
8.61, 0.520159, , 
8.64, 0.515132, , 
8.67, 0.510133, , 
8.70, 0.505045, , 
8.73, 0.499072, , 
8.76, 0.494010, , 
8.79, 0.488960, , 
8.82, 0.483190, , 
8.85, 0.479175, , 
8.88, 0.473684, , 
8.91, 0.469155, , 
8.94, 0.464121, , 
8.97, 0.459823, , 
9.00, 0.455566, , 
9.04, 0.450726, , 
9.06, 0.447189, , 
9.09, 0.442900, , 
9.12, 0.437943, , 
9.15, 0.433626, , 
9.18, 0.428484, , 
9.21, 0.424183, , 
9.24, 0.420043, , 
9.27, 0.415888, , 
9.30, 0.411708, , 
9.33, 0.406769, , 
9.36, 0.402566, , 
9.39, 0.398370, , 
9.42, 0.393466, , 
9.45, 0.389989, , 
9.48, 0.385168, , 
9.51, 0.380994, , 
9.54, 0.376892, , 
9.57, 0.372334, , 
9.58, 0.371706, 3, 0.585
9.60, 0.368668, , 
9.63, 0.364595, , 
9.66, 0.361832, , 
9.69, 0.358632, , 
9.72, 0.355044, , 
9.75, 0.352082, , 
9.78, 0.348868, , 
9.81, 0.346391, , 
9.84, 0.344072, , 
9.87, 0.341871, , 
9.90, 0.339790, , 
9.93, 0.337541, , 
9.96, 0.335705, , 
9.99, 0.333925, , 
10.02, 0.331876, , 
10.05, 0.330224, , 
10.08, 0.328603, , 
10.11, 0.326909, , 
10.14, 0.325196, , 
10.17, 0.323236, , 
10.20, 0.321593, , 
10.23, 0.319541, , 
10.26, 0.317720, , 
10.29, 0.316128, , 
10.32, 0.313720, , 
10.35, 0.311484, , 
10.38, 0.308753, , 
10.41, 0.306453, , 
10.44, 0.304081, , 
10.48, 0.301264, , 
10.50, 0.299269, , 
10.53, 0.296516, , 
10.56, 0.294089, , 
10.59, 0.291618, , 
10.62, 0.288906, , 
10.65, 0.286578, , 
10.68, 0.284167, , 
10.71, 0.281687, , 
10.74, 0.279295, , 
10.77, 0.276659, , 
10.80, 0.274537, , 
10.83, 0.272089, , 
10.86, 0.269970, , 
10.89, 0.268200, , 
10.92, 0.265802, , 
10.95, 0.263778, , 
10.98, 0.261504, , 
11.01, 0.259594, , 
11.04, 0.257596, , 
11.07, 0.255274, , 
11.10, 0.253736, , 
11.13, 0.251617, , 
11.16, 0.249752, , 
11.19, 0.247820, , 
11.22, 0.245666, , 
11.25, 0.243830, , 
11.28, 0.241549, , 
11.31, 0.239963, , 
11.34, 0.238136, , 
11.37, 0.236033, , 
11.40, 0.234174, , 
11.43, 0.232344, , 
11.46, 0.230616, , 
11.49, 0.228639, , 
11.52, 0.226549, , 
11.55, 0.225074, , 
11.58, 0.223352, , 
11.61, 0.221315, , 
11.64, 0.219555, , 
11.67, 0.217788, , 
11.70, 0.215876, , 
11.73, 0.214340, , 
11.76, 0.212535, , 
11.79, 0.211295, , 
11.82, 0.209862, , 
11.85, 0.208218, , 
11.88, 0.206813, , 
11.91, 0.205224, , 
11.94, 0.203930, , 
11.97, 0.202737, , 
12.00, 0.201459, , 
12.03, 0.200324, , 
12.06, 0.199096, , 
12.09, 0.198011, , 
12.12, 0.196914, , 
12.15, 0.195673, , 
12.19, 0.194633, , 
12.21, 0.193551, , 
12.24, 0.192413, , 
12.27, 0.191350, , 
12.30, 0.190237, , 
12.33, 0.189127, , 
12.36, 0.187734, , 
12.39, 0.186719, , 
12.42, 0.185507, , 
12.45, 0.184115, , 
12.48, 0.182910, , 
12.51, 0.181568, , 
12.54, 0.180416, , 
12.57, 0.179341, , 
12.60, 0.178079, , 
12.63, 0.177038, , 
12.66, 0.176017, , 
12.69, 0.175186, , 
12.72, 0.174358, , 
12.75, 0.173489, , 
12.78, 0.172817, , 
12.79, 0.172706, 4, 0.587
12.81, 0.172131, , 
12.84, 0.171491, , 
12.87, 0.170989, , 
12.90, 0.170422, , 
12.93, 0.169895, , 
12.96, 0.169340, , 
12.99, 0.168950, , 
13.02, 0.168592, , 
13.05, 0.168087, , 
13.08, 0.167640, , 
13.11, 0.167167, , 
13.14, 0.166641, , 
13.17, 0.165968, , 
13.21, 0.165096, , 
13.23, 0.164474, , 
13.26, 0.163532, , 
13.29, 0.162650, , 
13.32, 0.161769, , 
13.35, 0.160779, , 
13.38, 0.159932, , 
13.41, 0.159015, , 
13.44, 0.158130, , 
13.47, 0.157150, , 
13.50, 0.156284, , 
13.53, 0.155355, , 
13.56, 0.154473, , 
13.59, 0.153503, , 
13.62, 0.152627, , 
13.65, 0.151571, , 
13.68, 0.150848, , 
13.71, 0.150010, , 
13.74, 0.148976, , 
13.77, 0.148034, , 
13.80, 0.147067, , 
13.83, 0.146229, , 
13.86, 0.145547, , 
13.89, 0.144631, , 
13.92, 0.143927, , 
13.95, 0.142937, , 
13.98, 0.142090, , 
14.01, 0.141031, , 
14.04, 0.140317, , 
14.07, 0.139499, , 
14.10, 0.138455, , 
14.13, 0.137576, , 
14.16, 0.136682, , 
14.19, 0.135936, , 
14.22, 0.135137, , 
14.25, 0.134322, , 
14.28, 0.133516, , 
14.31, 0.132571, , 
14.34, 0.131657, , 
14.37, 0.130728, , 
14.40, 0.129748, , 
14.43, 0.128850, , 
14.46, 0.127921, , 
14.49, 0.126966, , 
14.52, 0.125996, , 
14.55, 0.124841, , 
14.58, 0.123874, , 
14.61, 0.122789, , 
14.64, 0.121929, , 
14.67, 0.121206, , 
14.70, 0.120159, , 
14.73, 0.119322, , 
14.76, 0.118618, , 
14.79, 0.117688, , 
14.82, 0.116867, , 
14.86, 0.116045, , 
14.88, 0.115509, , 
14.91, 0.114700, , 
14.94, 0.113974, , 
14.97, 0.113276, , 
15.00, 0.112591, , 
15.03, 0.111893, , 
15.06, 0.111211, , 
15.09, 0.110570, , 
15.12, 0.109968, , 
15.15, 0.109159, , 
15.18, 0.108487, , 
15.21, 0.107957, , 
15.24, 0.107288, , 
15.27, 0.106764, , 
15.30, 0.105968, , 
15.33, 0.105324, , 
15.36, 0.104687, , 
15.39, 0.103909, , 
15.42, 0.103246, , 
15.45, 0.102558, , 
15.48, 0.102035, , 
15.51, 0.101353, , 
15.54, 0.100598, , 
15.57, 0.100014, , 
15.60, 0.099440, , 
15.63, 0.098888, , 
15.66, 0.098286, , 
15.69, 0.097765, , 
15.72, 0.097286, , 
15.75, 0.096589, , 
15.78, 0.095999, , 
15.81, 0.095463, , 
15.84, 0.094860, , 
15.87, 0.094463, , 
15.90, 0.094089, , 
15.93, 0.093778, , 
15.96, 0.093407, , 
15.98, 0.093030, 5, 0.585
15.99, 0.092887, , 
16.02, 0.092490, , 
16.05, 0.092056, , 
16.09, 0.091609, , 
16.11, 0.091222, , 
16.14, 0.090695, , 
16.17, 0.090299, , 
16.20, 0.089769, , 
16.23, 0.089280, , 
16.26, 0.088840, , 
16.29, 0.088443, , 
16.32, 0.087958, , 
16.35, 0.087463, , 
16.38, 0.087022, , 
16.41, 0.086629, , 
16.44, 0.086070, , 
16.47, 0.085630, , 
16.50, 0.085258, , 
16.53, 0.084843, , 
16.56, 0.084373, , 
16.59, 0.083822, , 
16.62, 0.083416, , 
16.65, 0.082959, , 
16.68, 0.082588, , 
16.71, 0.082277, , 
16.74, 0.081944, , 
16.77, 0.081566, , 
16.80, 0.081125, , 
16.83, 0.080748, , 
16.86, 0.080466, , 
16.89, 0.080104, , 
16.92, 0.079803, , 
16.95, 0.079489, , 
16.98, 0.079238, , 
17.01, 0.078965, , 
17.04, 0.078458, , 
17.07, 0.078115, , 
17.11, 0.077814, , 
17.13, 0.077528, , 
17.16, 0.077170, , 
17.19, 0.076865, , 
17.22, 0.076599, , 
17.25, 0.076282, , 
17.28, 0.075971, , 
17.31, 0.075657, , 
17.34, 0.075463, , 
17.37, 0.075200, , 
17.40, 0.074874, , 
17.43, 0.074620, , 
17.46, 0.074379, , 
17.49, 0.074065, , 
17.52, 0.073770, , 
17.55, 0.073516, , 
17.58, 0.073319, , 
17.61, 0.073024, , 
17.64, 0.072815, , 
17.67, 0.072564, , 
17.70, 0.072396, , 
17.73, 0.072165, , 
17.76, 0.071901, , 
17.79, 0.071771, , 
17.82, 0.071638, , 
17.85, 0.071553, , 
17.88, 0.071416, , 
17.91, 0.071283, , 
17.94, 0.071166, , 
17.97, 0.071016, , 
18.00, 0.070953, , 
18.03, 0.070931, , 
18.06, 0.070909, , 
18.09, 0.070890, , 
18.12, 0.070801, , 
18.15, 0.070702, , 
18.18, 0.070607, , 
18.21, 0.070541, , 
18.24, 0.070626, , 
18.27, 0.070740, , 
18.30, 0.070855, , 
18.33, 0.070845, , 
18.36, 0.070829, , 
18.39, 0.070877, , 
18.42, 0.070905, , 
18.45, 0.070950, , 
18.48, 0.071055, , 
18.51, 0.071223, , 
18.54, 0.071388, , 
18.57, 0.071638, , 
18.60, 0.071905, , 
18.63, 0.072174, , 
18.67, 0.072495, , 
18.69, 0.072720, , 
18.72, 0.073037, , 
18.75, 0.073351, , 
18.78, 0.073655, , 
18.81, 0.074042, , 
18.84, 0.074442, , 
18.87, 0.074915, , 
18.90, 0.075410, , 
18.93, 0.075961, , 
18.96, 0.076590, , 
18.99, 0.077116, , 
19.02, 0.077728, , 
19.05, 0.078334, , 
19.08, 0.078880, , 
19.11, 0.079628, , 
19.14, 0.080253, , 
19.17, 0.080983, , 
19.18, 0.081170, 6, 0.586
19.20, 0.081627, , 
19.23, 0.082334, , 
19.26, 0.083044, , 
19.29, 0.083644, , 
19.32, 0.084339, , 
19.35, 0.085173, , 
19.38, 0.085858, , 
19.41, 0.086568, , 
19.44, 0.087501, , 
19.47, 0.088326, , 
19.50, 0.089112, , 
19.53, 0.089848, , 
19.56, 0.090644, , 
19.59, 0.091469, , 
19.62, 0.092024, , 
19.65, 0.092703, , 
19.68, 0.093512, , 
19.71, 0.094225, , 
19.74, 0.094949, , 
19.77, 0.095586, , 
19.80, 0.096297, , 
19.83, 0.096839, , 
19.86, 0.097296, , 
19.89, 0.097851, , 
19.92, 0.098362, , 
19.95, 0.098806, , 
19.98, 0.099285, , 
20.01, 0.099719, , 
20.04, 0.100138, , 
20.07, 0.100449, , 
20.10, 0.100693, , 
20.13, 0.100963, , 
20.16, 0.101156, , 
20.19, 0.101327, , 
20.22, 0.101458, , 
20.25, 0.101578, , 
20.28, 0.101695, , 
20.31, 0.101730, , 
20.34, 0.101727, , 
20.37, 0.101705, , 
20.40, 0.101616, , 
20.43, 0.101470, , 
20.46, 0.101346, , 
20.49, 0.101191, , 
20.52, 0.101058, , 
20.55, 0.100880, , 
20.58, 0.100718, , 
20.61, 0.100607, , 
20.64, 0.100401, , 
20.67, 0.100106, , 
20.70, 0.099799, , 
20.73, 0.099538, , 
20.76, 0.099215, , 
20.79, 0.098885, , 
20.82, 0.098562, , 
20.85, 0.098336, , 
20.88, 0.098006, , 
20.91, 0.097705, , 
20.94, 0.097432, , 
20.97, 0.097109, , 
21.00, 0.096773, , 
21.03, 0.096316, , 
21.06, 0.096110, , 
21.09, 0.095850, , 
21.12, 0.095412, , 
21.15, 0.095012, , 
21.18, 0.094663, , 
21.21, 0.094403, , 
21.24, 0.094054, , 
21.27, 0.093645, , 
21.30, 0.093312, , 
21.33, 0.093014, , 
21.36, 0.092681, , 
21.39, 0.092297, , 
21.42, 0.091862, , 
21.45, 0.091466, , 
21.48, 0.091095, , 
21.51, 0.090746, , 
21.54, 0.090419, , 
21.57, 0.090054, , 
21.60, 0.089766, , 
21.63, 0.089395, , 
21.67, 0.089093, , 
21.69, 0.088887, , 
21.72, 0.088579, , 
21.75, 0.088250, , 
21.78, 0.087904, , 
21.81, 0.087653, , 
21.84, 0.087342, , 
21.87, 0.087028, , 
21.90, 0.086794, , 
21.93, 0.086470, , 
21.96, 0.086204, , 
21.99, 0.085963, , 
22.02, 0.085715, , 
22.05, 0.085569, , 
22.08, 0.085427, , 
22.11, 0.085224, , 
22.14, 0.085055, , 
22.17, 0.084802, , 
22.20, 0.084504, , 
22.23, 0.084212, , 
22.26, 0.084053, , 
22.29, 0.083936, , 
22.32, 0.083672, , 
22.35, 0.083466, , 
22.38, 0.083282, 7, 0.586
22.39, 0.083254, , 
22.41, 0.083095, , 
22.44, 0.082864, , 
22.47, 0.082623, , 
22.50, 0.082537, , 
22.53, 0.082381, , 
22.56, 0.082172, , 
22.59, 0.082055, , 
22.62, 0.081991, , 
22.65, 0.081868, , 
22.68, 0.081687, , 
22.71, 0.081608, , 
22.74, 0.081579, , 
22.77, 0.081547, , 
22.80, 0.081481, , 
22.83, 0.081484, , 
22.86, 0.081503, , 
22.89, 0.081471, , 
22.92, 0.081360, , 
22.95, 0.081262, , 
22.98, 0.081211, , 
23.01, 0.081230, , 
23.04, 0.081313, , 
23.07, 0.081420, , 
23.10, 0.081481, , 
23.13, 0.081563, , 
23.16, 0.081677, , 
23.19, 0.081855, , 
23.22, 0.082248, , 
23.25, 0.082521, , 
23.28, 0.082746, , 
23.31, 0.082981, , 
23.34, 0.083349, , 
23.37, 0.083764, , 
23.40, 0.084243, , 
23.43, 0.085002, , 
23.46, 0.085775, , 
23.49, 0.086559, , 
23.52, 0.087428, , 
23.55, 0.088430, , 
23.58, 0.089709, , 
23.61, 0.090924, , 
23.64, 0.092351, , 
23.67, 0.094292, , 
23.70, 0.095719, , 
23.73, 0.098003, , 
23.76, 0.100214, , 
23.79, 0.102764, , 
23.82, 0.106092, , 
23.85, 0.109140, , 
23.88, 0.112502, , 
23.91, 0.116962, , 
23.94, 0.121181, , 
23.97, 0.125739, , 
24.00, 0.130646, , 
24.03, 0.135997, , 
24.06, 0.142807, , 
24.09, 0.149205, , 
24.12, 0.157306, , 
24.15, 0.163504, , 
24.18, 0.171326, , 
24.21, 0.181159, , 
24.24, 0.190249, , 
24.27, 0.201551, , 
24.30, 0.211711, , 
24.33, 0.222451, , 
24.36, 0.233778, , 
24.39, 0.245736, , 
24.42, 0.260260, , 
24.45, 0.273269, , 
24.48, 0.286762, , 
24.51, 0.303009, , 
24.54, 0.317333, , 
24.57, 0.332070, , 
24.60, 0.347098, , 
24.63, 0.362330, , 
24.66, 0.380286, , 
24.69, 0.395873, , 
24.72, 0.414340, , 
24.75, 0.430111, , 
24.78, 0.443164, , 
24.81, 0.461437, , 
24.84, 0.477192, , 
24.87, 0.495453, , 
24.90, 0.510783, , 
24.93, 0.525872, , 
24.96, 0.543035, , 
24.99, 0.555082, , 
25.02, 0.571516, , 
25.05, 0.585282, , 
25.08, 0.598674, , 
25.11, 0.613617, , 
25.14, 0.625889, , 
25.18, 0.639640, , 
25.20, 0.649057, , 
25.23, 0.659883, , 
25.26, 0.671946, , 
25.29, 0.681788, , 
25.32, 0.692570, , 
25.35, 0.701032, , 
25.38, 0.706818, , 
25.41, 0.716140, , 
25.44, 0.722992, , 
25.47, 0.730278, , 
25.50, 0.735911, , 
25.53, 0.741088, , 
25.56, 0.746423, , 
25.58, 0.748475, 8, 0.585
25.59, 0.749772, , 
25.62, 0.753880, , 
25.65, 0.756941, , 
25.68, 0.759599, , 
25.71, 0.762181, , 
25.74, 0.763941, , 
25.77, 0.765220, , 
25.80, 0.766041, , 
25.83, 0.766444, , 
25.86, 0.766447, , 
25.89, 0.766206, , 
25.92, 0.765559, , 
25.96, 0.764604, , 
25.98, 0.763342, , 
26.01, 0.761911, , 
26.04, 0.760291, , 
26.07, 0.757972, , 
26.10, 0.755723, , 
26.13, 0.752903, , 
26.16, 0.750994, , 
26.19, 0.747923, , 
26.22, 0.744418, , 
26.25, 0.741259, , 
26.28, 0.737380, , 
26.31, 0.733862, , 
26.34, 0.730259, , 
26.37, 0.726570, , 
26.40, 0.722706, , 
26.43, 0.717983, , 
26.46, 0.713800, , 
26.49, 0.709530, , 
26.52, 0.704366, , 
26.55, 0.699757, , 
26.58, 0.695145, , 
26.61, 0.690479, , 
26.64, 0.685725, , 
26.67, 0.680082, , 
26.70, 0.675286, , 
26.73, 0.669760, , 
26.76, 0.664971, , 
26.79, 0.660930, , 
26.82, 0.655242, , 
26.85, 0.650307, , 
26.88, 0.644550, , 
26.91, 0.639557, , 
26.94, 0.634523, , 
26.98, 0.628674, , 
27.00, 0.624418, , 
27.03, 0.618464, , 
27.06, 0.613405, , 
27.09, 0.608377, , 
27.12, 0.602395, , 
27.15, 0.597218, , 
27.18, 0.592048, , 
27.21, 0.586827, , 
27.24, 0.581606, , 
27.27, 0.575529, , 
27.30, 0.570311, , 
27.33, 0.564230, , 
27.36, 0.559034, , 
27.39, 0.554759, , 
27.42, 0.548906, , 
27.45, 0.543866, , 
27.48, 0.537957, , 
27.51, 0.532974, , 
27.54, 0.528067, , 
27.57, 0.522364, , 
27.60, 0.518329, , 
27.63, 0.512842, , 
27.66, 0.508303, , 
27.69, 0.503779, , 
27.72, 0.498397, , 
27.75, 0.493902, , 
27.78, 0.488735, , 
27.81, 0.484989, , 
27.84, 0.480589, , 
27.87, 0.475647, , 
27.90, 0.471448, , 
27.93, 0.466874, , 
27.96, 0.462481, , 
27.99, 0.458459, , 
28.02, 0.454545, , 
28.05, 0.450624, , 
28.08, 0.445987, , 
28.11, 0.442104, , 
28.14, 0.438336, , 
28.17, 0.433870, , 
28.21, 0.430051, , 
28.23, 0.426327, , 
28.26, 0.422683, , 
28.29, 0.419098, , 
28.32, 0.414899, , 
28.35, 0.411387, , 
28.38, 0.407387, , 
28.41, 0.404866, , 
28.44, 0.401085, , 
28.47, 0.397221, , 
28.50, 0.393935, , 
28.53, 0.390081, , 
28.56, 0.386789, , 
28.59, 0.383671, , 
28.62, 0.380613, , 
28.65, 0.377451, , 
28.68, 0.373813, , 
28.71, 0.371031, , 
28.74, 0.367786, , 
28.77, 0.364325, , 
28.78, 0.363827, 9, 0.585
28.80, 0.361353, , 
28.83, 0.358333, , 
28.86, 0.355266, , 
28.89, 0.352123, , 
28.92, 0.348567, , 
28.95, 0.345604, , 
28.98, 0.342106, , 
29.01, 0.339029, , 
29.04, 0.336479, , 
29.07, 0.333044, , 
29.10, 0.330151, , 
29.13, 0.326671, , 
29.16, 0.323683, , 
29.19, 0.320768, , 
29.22, 0.317346, , 
29.25, 0.314903, , 
29.28, 0.311592, , 
29.31, 0.308883, , 
29.34, 0.306228, , 
29.37, 0.303107, , 
29.40, 0.300430, , 
29.43, 0.297826, , 
29.46, 0.295206, , 
29.49, 0.292617, , 
29.52, 0.289712, , 
29.55, 0.287269, , 
29.58, 0.284237, , 
29.61, 0.281614, , 
29.65, 0.279051, , 
29.67, 0.276466, , 
29.70, 0.273865, , 
29.73, 0.271305, , 
29.76, 0.268365, , 
29.79, 0.265805, , 
29.82, 0.262766, , 
29.85, 0.260172, , 
29.88, 0.257628, , 
29.91, 0.255144, , 
29.94, 0.252232, , 
29.97, 0.250132, , 
30.00, 0.247287, , 
30.03, 0.244832, , 
30.06, 0.242358, , 
30.09, 0.239522, , 
30.12, 0.237213, , 
30.16, 0.234485, , 
30.18, 0.232496, , 
30.21, 0.230168, , 
30.24, 0.227605, , 
30.27, 0.225515, , 
30.30, 0.223085, , 
30.33, 0.221084, , 
30.36, 0.219415, , 
30.39, 0.217046, , 
30.42, 0.214975, , 
30.45, 0.212567, , 
30.48, 0.210629, , 
30.51, 0.208713, , 
30.54, 0.206414, , 
30.57, 0.204999, , 
30.60, 0.202636, , 
30.63, 0.200758, , 
30.66, 0.198804, , 
30.69, 0.196609, , 
30.72, 0.194814, , 
30.75, 0.192657, , 
30.78, 0.191055, , 
30.81, 0.189174, , 
30.84, 0.187068, , 
30.87, 0.185241, , 
30.90, 0.183103, , 
30.93, 0.181397, , 
30.96, 0.179671, , 
30.99, 0.177923, , 
31.02, 0.176134, , 
31.05, 0.174139, , 
31.08, 0.172522, , 
31.11, 0.170866, , 
31.14, 0.168918, , 
31.17, 0.167345, , 
31.20, 0.165762, , 
31.23, 0.164217, , 
31.26, 0.162736, , 
31.29, 0.161103, , 
31.32, 0.159745, , 
31.35, 0.158146, , 
31.39, 0.156808, , 
31.41, 0.155729, , 
31.44, 0.154200, , 
31.47, 0.152967, , 
31.50, 0.151323, , 
31.53, 0.150048, , 
31.56, 0.148716, , 
31.59, 0.147378, , 
31.62, 0.146112, , 
31.65, 0.144656, , 
31.68, 0.143365, , 
31.71, 0.142017, , 
31.74, 0.140475, , 
31.77, 0.139210, , 
31.80, 0.137884, , 
31.83, 0.136644, , 
31.86, 0.135454, , 
31.89, 0.134094, , 
31.92, 0.132980, , 
31.95, 0.131797, , 
31.98, 0.130642, 10, 0.586
31.98, 0.130446, , 
32.01, 0.129402, , 
32.04, 0.128340, , 
32.07, 0.127039, , 
32.10, 0.126110, , 
32.13, 0.125066, , 
32.16, 0.123877, , 
32.19, 0.122909, , 
32.22, 0.121840, , 
32.25, 0.121009, , 
32.28, 0.120115, , 
32.31, 0.119192, , 
32.34, 0.118408, , 
32.37, 0.117580, , 
32.40, 0.116829, , 
32.43, 0.115972, , 
32.46, 0.115005, , 
32.49, 0.114215, , 
32.52, 0.113340, , 
32.55, 0.112436, , 
32.58, 0.111573, , 
32.61, 0.110666, , 
32.64, 0.109882, , 
32.67, 0.108867, , 
32.70, 0.108160, , 
32.73, 0.107249, , 
32.76, 0.106399, , 
32.79, 0.105483, , 
32.82, 0.104763, , 
32.85, 0.104027, , 
32.88, 0.103186, , 
32.91, 0.102273, , 
32.94, 0.101369, , 
32.97, 0.100649, , 
33.00, 0.099906, , 
33.03, 0.099117, , 
33.06, 0.098650, , 
33.09, 0.097949, , 
33.12, 0.097166, , 
33.15, 0.096462, , 
33.18, 0.095777, , 
33.21, 0.095250, , 
33.24, 0.094533, , 
33.27, 0.093984, , 
33.30, 0.093372, , 
33.33, 0.092630, , 
33.36, 0.091996, , 
33.39, 0.091263, , 
33.42, 0.090565, , 
33.45, 0.089902, , 
33.48, 0.089192, , 
33.51, 0.088567, , 
33.54, 0.087951, , 
33.57, 0.087269, , 
33.60, 0.086686, , 
33.63, 0.086029, , 
33.66, 0.085509, , 
33.69, 0.084982, , 
33.72, 0.084209, , 
33.75, 0.083717, , 
33.78, 0.083127, , 
33.81, 0.082619, , 
33.84, 0.082121, , 
33.87, 0.081649, , 
33.90, 0.081281, , 
33.93, 0.080742, , 
33.96, 0.080301, , 
33.99, 0.079879, , 
34.02, 0.079365, , 
34.05, 0.078800, , 
34.09, 0.078134, , 
34.11, 0.077776, , 
34.14, 0.077424, , 
34.17, 0.076996, , 
34.20, 0.076628, , 
34.23, 0.076323, , 
34.26, 0.076015, , 
34.29, 0.075667, , 
34.32, 0.075235, , 
34.35, 0.074889, , 
34.38, 0.074420, , 
34.41, 0.073976, , 
34.44, 0.073602, , 
34.47, 0.073291, , 
34.50, 0.073015, , 
34.53, 0.072561, , 
34.56, 0.072238, , 
34.59, 0.071965, , 
34.62, 0.071600, , 
34.65, 0.071223, , 
34.68, 0.070798, , 
34.71, 0.070503, , 
34.74, 0.070160, , 
34.77, 0.069751, , 
34.80, 0.069453, , 
34.83, 0.069059, , 
34.86, 0.068736, , 
34.89, 0.068438, , 
34.92, 0.068111, , 
34.95, 0.067898, , 
34.98, 0.067661, , 
35.01, 0.067404, , 
35.04, 0.067232, , 
35.07, 0.066998, , 
35.10, 0.066741, , 
35.13, 0.066481, , 
35.16, 0.066297, , 
35.18, 0.066208, 11, 0.586
35.19, 0.066151, , 
35.22, 0.065859, , 
35.25, 0.065586, , 
35.28, 0.065380, , 
35.32, 0.065190, , 
35.34, 0.064974, , 
35.37, 0.064669, , 
35.40, 0.064473, , 
35.43, 0.064232, , 
35.46, 0.063953, , 
35.49, 0.063769, , 
35.52, 0.063585, , 
35.55, 0.063340, , 
35.58, 0.063026, , 
35.61, 0.062785, , 
35.64, 0.062589, , 
35.67, 0.062338, , 
35.70, 0.062072, , 
35.73, 0.061865, , 
35.76, 0.061691, , 
35.79, 0.061494, , 
35.82, 0.061171, , 
35.85, 0.060971, , 
35.88, 0.060774, , 
35.91, 0.060524, , 
35.94, 0.060333, , 
35.97, 0.060086, , 
36.00, 0.059905, , 
36.03, 0.059623, , 
36.06, 0.059407, , 
36.09, 0.059201, , 
36.12, 0.058954, , 
36.15, 0.058808, , 
36.18, 0.058601, , 
36.21, 0.058456, , 
36.24, 0.058341, , 
36.27, 0.058157, , 
36.30, 0.057948, , 
36.33, 0.057793, , 
36.36, 0.057615, , 
36.39, 0.057393, , 
36.42, 0.057069, , 
36.45, 0.056889, , 
36.48, 0.056695, , 
36.51, 0.056470, , 
36.54, 0.056229, , 
36.57, 0.056007, , 
36.60, 0.055817, , 
36.63, 0.055490, , 
36.66, 0.055280, , 
36.69, 0.055116, , 
36.72, 0.054874, , 
36.75, 0.054684, , 
36.78, 0.054361, , 
36.81, 0.054142, , 
36.84, 0.053980, , 
36.87, 0.053688, , 
36.90, 0.053488, , 
36.93, 0.053361, , 
36.96, 0.053197, , 
36.99, 0.052974, , 
37.02, 0.052711, , 
37.05, 0.052546, , 
37.08, 0.052372, , 
37.11, 0.052232, , 
37.14, 0.052191, , 
37.17, 0.052175, , 
37.20, 0.052064, , 
37.23, 0.051887, , 
37.26, 0.051766, , 
37.29, 0.051661, , 
37.32, 0.051465, , 
37.35, 0.051293, , 
37.38, 0.051211, , 
37.41, 0.051160, , 
37.44, 0.051002, , 
37.47, 0.050808, , 
37.50, 0.050710, , 
37.53, 0.050564, , 
37.56, 0.050415, , 
37.59, 0.050234, , 
37.62, 0.050050, , 
37.65, 0.049964, , 
37.68, 0.049806, , 
37.71, 0.049638, , 
37.74, 0.049466, , 
37.77, 0.049311, , 
37.80, 0.049032, , 
37.83, 0.048841, , 
37.86, 0.048727, , 
37.89, 0.048588, , 
37.92, 0.048359, , 
37.95, 0.048248, , 
37.98, 0.048118, , 
38.01, 0.047963, , 
38.04, 0.047833, , 
38.07, 0.047684, , 
38.10, 0.047611, , 
38.13, 0.047465, , 
38.16, 0.047281, , 
38.19, 0.047135, , 
38.22, 0.047011, , 
38.25, 0.046903, , 
38.28, 0.046773, , 
38.31, 0.046640, , 
38.34, 0.046535, , 
38.37, 0.046336, , 
38.38, 0.046301, 12, 0.585
38.41, 0.046171, , 
38.43, 0.046056, , 
38.46, 0.045917, , 
38.49, 0.045812, , 
38.52, 0.045628, , 
38.55, 0.045473, , 
38.58, 0.045384, , 
38.61, 0.045283, , 
38.64, 0.045118, , 
38.67, 0.045051, , 
38.70, 0.044943, , 
38.73, 0.044823, , 
38.76, 0.044613, , 
38.79, 0.044547, , 
38.82, 0.044502, , 
38.85, 0.044318, , 
38.88, 0.044172, , 
38.91, 0.044099, , 
38.94, 0.044080, , 
38.97, 0.043998, , 
39.00, 0.043973, , 
39.03, 0.043969, , 
39.06, 0.044020, , 
39.09, 0.044001, , 
39.12, 0.043998, , 
39.15, 0.044007, , 
39.18, 0.043931, , 
39.21, 0.043773, , 
39.24, 0.043690, , 
39.27, 0.043617, , 
39.30, 0.043582, , 
39.33, 0.043503, , 
39.36, 0.043452, , 
39.39, 0.043402, , 
39.42, 0.043294, , 
39.45, 0.043164, , 
39.48, 0.042989, , 
39.51, 0.042897, , 
39.54, 0.042793, , 
39.57, 0.042609, , 
39.60, 0.042545, , 
39.63, 0.042596, , 
39.66, 0.042602, , 
39.69, 0.042558, , 
39.72, 0.042494, , 
39.75, 0.042548, , 
39.78, 0.042574, , 
39.81, 0.042399, , 
39.84, 0.042285, , 
39.87, 0.042171, , 
39.90, 0.042054, , 
39.94, 0.042015, , 
39.96, 0.042019, , 
39.99, 0.042057, , 
40.02, 0.042006, , 
40.05, 0.041974, , 
40.08, 0.042015, , 
40.11, 0.042034, , 
40.14, 0.041977, , 
40.17, 0.041993, , 
40.20, 0.042044, , 
40.23, 0.042063, , 
40.26, 0.042003, , 
40.29, 0.041958, , 
40.32, 0.041996, , 
40.35, 0.042028, , 
40.39, 0.042003, , 
40.41, 0.041968, , 
40.44, 0.042015, , 
40.47, 0.042092, , 
40.50, 0.042047, , 
40.53, 0.041984, , 
40.56, 0.042015, , 
40.59, 0.042012, , 
40.62, 0.041971, , 
40.65, 0.041955, , 
40.68, 0.041977, , 
40.71, 0.041990, , 
40.74, 0.041923, , 
40.77, 0.041936, , 
40.80, 0.041987, , 
40.83, 0.042019, , 
40.86, 0.041958, , 
40.89, 0.041987, , 
40.92, 0.042041, , 
40.95, 0.042031, , 
40.98, 0.042034, , 
41.01, 0.042142, , 
41.04, 0.042326, , 
41.07, 0.042396, , 
41.10, 0.042450, , 
41.13, 0.042501, , 
41.16, 0.042539, , 
41.19, 0.042498, , 
41.22, 0.042450, , 
41.25, 0.042447, , 
41.28, 0.042653, , 
41.31, 0.042774, , 
41.34, 0.042821, , 
41.37, 0.042954, , 
41.40, 0.043043, , 
41.43, 0.043015, , 
41.46, 0.042980, , 
41.49, 0.043046, , 
41.52, 0.043065, , 
41.55, 0.043049, , 
41.57, 0.043078, 13, 0.585
41.58, 0.043119, , 
41.62, 0.043291, , 
41.64, 0.043414, , 
41.67, 0.043462, , 
41.70, 0.043519, , 
41.73, 0.043681, , 
41.76, 0.043779, , 
41.79, 0.043858, , 
41.82, 0.043890, , 
41.85, 0.043988, , 
41.88, 0.044074, , 
41.91, 0.044049, , 
41.94, 0.044080, , 
41.97, 0.044198, , 
42.00, 0.044318, , 
42.03, 0.044369, , 
42.06, 0.044432, , 
42.09, 0.044521, , 
42.12, 0.044537, , 
42.15, 0.044556, , 
42.18, 0.044702, , 
42.21, 0.044880, , 
42.24, 0.044946, , 
42.27, 0.044962, , 
42.30, 0.045007, , 
42.33, 0.045095, , 
42.36, 0.045083, , 
42.39, 0.045029, , 
42.42, 0.045026, , 
42.45, 0.045070, , 
42.48, 0.045032, , 
42.51, 0.045051, , 
42.54, 0.045168, , 
42.57, 0.045219, , 
42.60, 0.045127, , 
42.64, 0.045095, , 
42.66, 0.045102, , 
42.69, 0.045083, , 
42.72, 0.045038, , 
42.75, 0.045007, , 
42.78, 0.045022, , 
42.81, 0.045083, , 
42.84, 0.045003, , 
42.87, 0.044975, , 
42.90, 0.044930, , 
42.93, 0.044838, , 
42.96, 0.044699, , 
42.99, 0.044559, , 
43.02, 0.044553, , 
43.05, 0.044515, , 
43.08, 0.044356, , 
43.11, 0.044220, , 
43.14, 0.044153, , 
43.17, 0.044087, , 
43.20, 0.043938, , 
43.23, 0.043770, , 
43.26, 0.043703, , 
43.29, 0.043633, , 
43.32, 0.043430, , 
43.35, 0.043303, , 
43.38, 0.043211, , 
43.41, 0.043122, , 
43.44, 0.042986, , 
43.47, 0.042843, , 
43.50, 0.042742, , 
43.53, 0.042640, , 
43.56, 0.042437, , 
43.59, 0.042276, , 
43.62, 0.042180, , 
43.66, 0.042092, , 
43.68, 0.041939, , 
43.71, 0.041768, , 
43.74, 0.041701, , 
43.77, 0.041565, , 
43.80, 0.041448, , 
43.83, 0.041311, , 
43.86, 0.041222, , 
43.89, 0.041105, , 
43.92, 0.041000, , 
43.95, 0.040991, , 
43.98, 0.040985, , 
44.01, 0.040877, , 
44.04, 0.040724, , 
44.07, 0.040617, , 
44.10, 0.040598, , 
44.13, 0.040461, , 
44.16, 0.040287, , 
44.19, 0.040182, , 
44.22, 0.040100, , 
44.25, 0.040014, , 
44.28, 0.039951, , 
44.31, 0.039897, , 
44.34, 0.039757, , 
44.37, 0.039586, , 
44.40, 0.039497, , 
44.43, 0.039506, , 
44.46, 0.039424, , 
44.49, 0.039291, , 
44.52, 0.039135, , 
44.55, 0.039069, , 
44.58, 0.039047, , 
44.61, 0.038989, , 
44.64, 0.038929, , 
44.67, 0.038977, , 
44.70, 0.038955, , 
44.73, 0.038799, , 
44.76, 0.038691, , 
44.78, 0.038672, 14, 0.587
44.79, 0.038647, , 
44.82, 0.038555, , 
44.85, 0.038495, , 
44.88, 0.038498, , 
44.91, 0.038523, , 
44.94, 0.038479, , 
44.97, 0.038263, , 
45.00, 0.038117, , 
45.03, 0.038108, , 
45.06, 0.037978, , 
45.09, 0.037863, , 
45.12, 0.037800, , 
45.15, 0.037806, , 
45.18, 0.037803, , 
45.21, 0.037800, , 
45.24, 0.037809, , 
45.27, 0.037756, , 
45.30, 0.037771, , 
45.33, 0.037787, , 
45.36, 0.037825, , 
45.39, 0.037832, , 
45.42, 0.037717, , 
45.45, 0.037603, , 
45.48, 0.037686, , 
45.51, 0.037784, , 
45.54, 0.037790, , 
45.57, 0.037746, , 
45.60, 0.037778, , 
45.64, 0.037825, , 
45.66, 0.037803, , 
45.69, 0.037790, , 
45.72, 0.037822, , 
45.75, 0.037844, , 
45.78, 0.037794, , 
45.81, 0.037756, , 
45.84, 0.037784, , 
45.87, 0.037806, , 
45.90, 0.037740, , 
45.93, 0.037740, , 
45.96, 0.037797, , 
45.99, 0.037759, , 
46.02, 0.037645, , 
46.05, 0.037518, , 
46.08, 0.037508, , 
46.11, 0.037575, , 
46.14, 0.037702, , 
46.17, 0.037775, , 
46.20, 0.037857, , 
46.23, 0.037886, , 
46.26, 0.037851, , 
46.29, 0.037886, , 
46.32, 0.037908, , 
46.35, 0.037974, , 
46.38, 0.038073, , 
46.41, 0.038225, , 
46.44, 0.038349, , 
46.47, 0.038339, , 
46.50, 0.038396, , 
46.53, 0.038549, , 
46.56, 0.038701, , 
46.59, 0.038755, , 
46.62, 0.038824, , 
46.65, 0.038894, , 
46.68, 0.038999, , 
46.71, 0.039081, , 
46.75, 0.039173, , 
46.77, 0.039275, , 
46.80, 0.039383, , 
46.83, 0.039395, , 
46.86, 0.039443, , 
46.89, 0.039484, , 
46.92, 0.039497, , 
46.95, 0.039545, , 
46.98, 0.039636, , 
47.01, 0.039846, , 
47.04, 0.039966, , 
47.07, 0.039992, , 
47.10, 0.040065, , 
47.13, 0.040271, , 
47.16, 0.040360, , 
47.19, 0.040372, , 
47.22, 0.040420, , 
47.25, 0.040471, , 
47.28, 0.040499, , 
47.31, 0.040544, , 
47.34, 0.040683, , 
47.37, 0.040870, , 
47.40, 0.040934, , 
47.43, 0.040972, , 
47.46, 0.041127, , 
47.49, 0.041302, , 
47.52, 0.041381, , 
47.55, 0.041384, , 
47.58, 0.041448, , 
47.61, 0.041600, , 
47.64, 0.041768, , 
47.67, 0.041812, , 
47.70, 0.041917, , 
47.73, 0.041987, , 
47.76, 0.042060, , 
47.79, 0.042142, , 
47.82, 0.042307, , 
47.85, 0.042440, , 
47.88, 0.042475, , 
47.91, 0.042460, , 
47.94, 0.042491, , 
47.97, 0.042498, , 
47.98, 0.042498, 15, 0.585
48.00, 0.042498, , 
48.03, 0.042507, , 
48.06, 0.042523, , 
48.09, 0.042567, , 
48.12, 0.042558, , 
48.15, 0.042529, , 
48.18, 0.042545, , 
48.21, 0.042552, , 
48.24, 0.042520, , 
48.27, 0.042494, , 
48.30, 0.042504, , 
48.33, 0.042536, , 
48.36, 0.042479, , 
48.39, 0.042396, , 
48.42, 0.042345, , 
48.45, 0.042272, , 
48.48, 0.042168, , 
48.51, 0.042104, , 
48.54, 0.042095, , 
48.57, 0.041936, , 
48.60, 0.041778, , 
48.63, 0.041670, , 
48.66, 0.041628, , 
48.69, 0.041571, , 
48.72, 0.041533, , 
48.75, 0.041527, , 
48.78, 0.041533, , 
48.81, 0.041384, , 
48.84, 0.041267, , 
48.87, 0.041153, , 
48.90, 0.041124, , 
48.93, 0.041092, , 
48.96, 0.041048, , 
48.99, 0.041108, , 
49.02, 0.041124, , 
49.05, 0.040981, , 
49.08, 0.040864, , 
49.11, 0.040759, , 
49.14, 0.040680, , 
49.17, 0.040613, , 
49.20, 0.040493, , 
49.23, 0.040391, , 
49.26, 0.040312, , 
49.29, 0.040188, , 
49.32, 0.040093, , 
49.35, 0.040074, , 
49.38, 0.040033, , 
49.41, 0.039846, , 
49.44, 0.039738, , 
49.47, 0.039662, , 
49.50, 0.039627, , 
49.53, 0.039576, , 
49.56, 0.039525, , 
49.59, 0.039545, , 
49.62, 0.039564, , 
49.65, 0.039500, , 
49.68, 0.039411, , 
49.71, 0.039294, , 
49.74, 0.039180, , 
49.77, 0.039119, , 
49.80, 0.039047, , 
49.83, 0.039113, , 
49.86, 0.039094, , 
49.89, 0.039021, , 
49.92, 0.039018, , 
49.95, 0.039047, , 
49.98, 0.038920, , 
50.01, 0.038745, , 
50.04, 0.038656, , 
50.07, 0.038634, , 
50.10, 0.038593, , 
50.13, 0.038555, , 
50.16, 0.038555, , 
50.19, 0.038590, , 
50.22, 0.038545, , 
50.25, 0.038507, , 
50.28, 0.038533, , 
50.31, 0.038574, , 
50.34, 0.038542, , 
50.37, 0.038469, , 
50.40, 0.038479, , 
50.44, 0.038583, , 
50.46, 0.038545, , 
50.49, 0.038533, , 
50.52, 0.038514, , 
50.55, 0.038552, , 
50.58, 0.038533, , 
50.61, 0.038498, , 
50.64, 0.038558, , 
50.67, 0.038596, , 
50.70, 0.038517, , 
50.73, 0.038447, , 
50.76, 0.038488, , 
50.79, 0.038542, , 
50.82, 0.038533, , 
50.85, 0.038587, , 
50.88, 0.038739, , 
50.91, 0.038869, , 
50.94, 0.038844, , 
50.97, 0.038907, , 
51.00, 0.038939, , 
51.03, 0.038958, , 
51.06, 0.038920, , 
51.09, 0.038916, , 
51.12, 0.039085, , 
51.15, 0.039202, , 
51.18, 0.039186, 16, 0.585
51.18, 0.039192, , 
51.21, 0.039300, , 
51.24, 0.039424, , 
51.27, 0.039430, , 
51.30, 0.039357, , 
51.33, 0.039408, , 
51.36, 0.039443, , 
51.39, 0.039465, , 
51.42, 0.039529, , 
51.45, 0.039703, , 
51.48, 0.039852, , 
51.51, 0.039900, , 
51.54, 0.039928, , 
51.57, 0.040033, , 
51.61, 0.040214, , 
51.63, 0.040268, , 
51.66, 0.040331, , 
51.69, 0.040420, , 
51.72, 0.040525, , 
51.75, 0.040563, , 
51.78, 0.040699, , 
51.81, 0.040839, , 
51.84, 0.040927, , 
51.87, 0.040908, , 
51.90, 0.040931, , 
51.93, 0.040994, , 
51.96, 0.041073, , 
51.99, 0.041172, , 
52.02, 0.041295, , 
52.05, 0.041479, , 
52.08, 0.041543, , 
52.11, 0.041533, , 
52.14, 0.041536, , 
52.17, 0.041594, , 
52.20, 0.041635, , 
52.23, 0.041590, , 
52.26, 0.041546, , 
52.29, 0.041581, , 
52.32, 0.041600, , 
52.35, 0.041578, , 
52.39, 0.041568, , 
52.41, 0.041597, , 
52.44, 0.041641, , 
52.47, 0.041530, , 
52.50, 0.041568, , 
52.53, 0.041613, , 
52.56, 0.041568, , 
52.59, 0.041536, , 
52.62, 0.041578, , 
52.65, 0.041622, , 
52.68, 0.041660, , 
52.71, 0.041597, , 
52.74, 0.041619, , 
52.77, 0.041663, , 
52.80, 0.041632, , 
52.83, 0.041575, , 
52.86, 0.041524, , 
52.89, 0.041422, , 
52.92, 0.041267, , 
52.95, 0.041181, , 
52.98, 0.041188, , 
53.01, 0.041178, , 
53.04, 0.041058, , 
53.07, 0.040886, , 
53.10, 0.040801, , 
53.13, 0.040728, , 
53.16, 0.040477, , 
53.19, 0.040331, , 
53.22, 0.040226, , 
53.25, 0.040188, , 
53.28, 0.040122, , 
53.31, 0.040062, , 
53.34, 0.040096, , 
53.37, 0.040065, , 
53.40, 0.039890, , 
53.43, 0.039738, , 
53.46, 0.039706, , 
53.49, 0.039659, , 
53.52, 0.039592, , 
53.55, 0.039529, , 
53.58, 0.039605, , 
53.61, 0.039560, , 
53.64, 0.039437, , 
53.68, 0.039294, , 
53.70, 0.039224, , 
53.73, 0.039145, , 
53.76, 0.039027, , 
53.79, 0.039031, , 
53.82, 0.039078, , 
53.85, 0.039056, , 
53.88, 0.038993, , 
53.91, 0.039040, , 
53.94, 0.039072, , 
53.97, 0.039043, , 
54.00, 0.039024, , 
54.03, 0.039031, , 
54.06, 0.039040, , 
54.09, 0.039021, , 
54.12, 0.039002, , 
54.15, 0.039008, , 
54.18, 0.039056, , 
54.21, 0.038989, , 
54.24, 0.038974, , 
54.27, 0.039024, , 
54.30, 0.039056, , 
54.33, 0.039024, , 
54.36, 0.039021, , 
54.38, 0.039050, 17, 0.586
54.39, 0.039043, , 
54.42, 0.039043, , 
54.45, 0.038983, , 
54.48, 0.039034, , 
54.51, 0.039107, , 
54.54, 0.039072, , 
54.57, 0.039018, , 
54.60, 0.038986, , 
54.63, 0.039066, , 
54.66, 0.039081, , 
54.69, 0.038996, , 
54.72, 0.038977, , 
54.75, 0.039018, , 
54.78, 0.038989, , 
54.81, 0.038942, , 
54.84, 0.039005, , 
54.87, 0.039021, , 
54.90, 0.039002, , 
54.93, 0.038951, , 
54.96, 0.038970, , 
54.99, 0.038993, , 
55.02, 0.039018, , 
55.05, 0.038951, , 
55.08, 0.038977, , 
55.11, 0.039104, , 
55.14, 0.039167, , 
55.17, 0.039253, , 
55.20, 0.039367, , 
55.23, 0.039462, , 
55.26, 0.039453, , 
55.29, 0.039408, , 
55.32, 0.039468, , 
55.35, 0.039529, , 
55.38, 0.039437, , 
55.41, 0.039414, , 
55.44, 0.039462, , 
55.47, 0.039487, , 
55.50, 0.039437, , 
55.53, 0.039405, , 
55.56, 0.039475, , 
55.59, 0.039554, , 
55.62, 0.039646, , 
55.65, 0.039789, , 
55.68, 0.039893, , 
55.71, 0.039941, , 
55.74, 0.039928, , 
55.77, 0.039992, , 
55.80, 0.040020, , 
55.83, 0.039998, , 
55.86, 0.039963, , 
55.89, 0.039893, , 
55.93, 0.039827, , 
55.95, 0.039735, , 
55.98, 0.039602, , 
56.01, 0.039506, , 
56.04, 0.039541, , 
56.07, 0.039503, , 
56.10, 0.039427, , 
56.13, 0.039491, , 
56.16, 0.039525, , 
56.19, 0.039487, , 
56.22, 0.039433, , 
56.25, 0.039513, , 
56.28, 0.039494, , 
56.31, 0.039472, , 
56.34, 0.039443, , 
56.37, 0.039453, , 
56.40, 0.039433, , 
56.43, 0.039354, , 
56.46, 0.039167, , 
56.49, 0.039078, , 
56.52, 0.039056, , 
56.55, 0.038999, , 
56.58, 0.038935, , 
56.61, 0.038948, , 
56.64, 0.039002, , 
56.67, 0.038955, , 
56.70, 0.038913, , 
56.73, 0.038955, , 
56.76, 0.038989, , 
56.79, 0.038961, , 
56.82, 0.038939, , 
56.85, 0.038885, , 
56.88, 0.038786, , 
56.91, 0.038593, , 
56.94, 0.038514, , 
56.97, 0.038517, , 
57.00, 0.038517, , 
57.03, 0.038422, , 
57.06, 0.038406, , 
57.09, 0.038460, , 
57.12, 0.038447, , 
57.16, 0.038377, , 
57.18, 0.038304, , 
57.21, 0.038193, , 
57.24, 0.038117, , 
57.27, 0.038038, , 
57.30, 0.037984, , 
57.33, 0.037968, , 
57.36, 0.037940, , 
57.39, 0.037936, , 
57.42, 0.037962, , 
57.45, 0.037962, , 
57.48, 0.037930, , 
57.51, 0.037889, , 
57.54, 0.037924, , 
57.57, 0.037955, , 
57.58, 0.037946, 18, 0.586
57.60, 0.037876, , 
57.63, 0.037692, , 
57.66, 0.037600, , 
57.69, 0.037575, , 
57.72, 0.037511, , 
57.75, 0.037508, , 
57.78, 0.037562, , 
57.81, 0.037740, , 
57.84, 0.037787, , 
57.87, 0.037822, , 
57.90, 0.037797, , 
57.93, 0.037679, , 
57.96, 0.037565, , 
57.99, 0.037578, , 
58.02, 0.037717, , 
58.05, 0.037778, , 
58.08, 0.037828, , 
58.11, 0.037882, , 
58.15, 0.037927, , 
58.17, 0.037914, , 
58.20, 0.037933, , 
58.23, 0.037914, , 
58.26, 0.037905, , 
58.29, 0.037882, , 
58.32, 0.037797, , 
58.36, 0.037800, , 
58.38, 0.037841, , 
58.41, 0.037816, , 
58.44, 0.037835, , 
58.47, 0.037981, , 
58.50, 0.038101, , 
58.53, 0.038231, , 
58.56, 0.038247, , 
58.59, 0.038263, , 
58.62, 0.038326, , 
58.65, 0.038323, , 
58.68, 0.038282, , 
58.71, 0.038292, , 
58.74, 0.038368, , 
58.77, 0.038342, , 
58.80, 0.038342, , 
58.83, 0.038495, , 
58.86, 0.038637, , 
58.89, 0.038710, , 
58.92, 0.038631, , 
58.95, 0.038514, , 
58.98, 0.038466, , 
59.01, 0.038412, , 
59.04, 0.038365, , 
59.07, 0.038339, , 
59.10, 0.038352, , 
59.13, 0.038301, , 
59.16, 0.038257, , 
59.19, 0.038273, , 
59.22, 0.038206, , 
59.25, 0.038092, , 
59.28, 0.038009, , 
59.31, 0.038009, , 
59.34, 0.037933, , 
59.37, 0.037930, , 
59.40, 0.037924, , 
59.43, 0.037974, , 
59.46, 0.037990, , 
59.49, 0.037933, , 
59.52, 0.037920, , 
59.55, 0.037917, , 
59.58, 0.037905, , 
59.61, 0.037870, , 
59.64, 0.037879, , 
59.67, 0.037901, , 
59.70, 0.037898, , 
59.73, 0.037882, , 
59.76, 0.037924, , 
59.79, 0.037933, , 
59.82, 0.037927, , 
59.85, 0.037889, , 
59.89, 0.037940, , 
59.91, 0.037949, , 
59.94, 0.037794, , 
59.97, 0.037597, , 
60.00, 0.037508, , 
60.03, 0.037445, , 
60.06, 0.037378, , 
60.09, 0.037356, , 
60.12, 0.037359, , 
60.15, 0.037400, , 
60.18, 0.037381, , 
60.21, 0.037362, , 
60.24, 0.037381, , 
60.27, 0.037419, , 
60.30, 0.037394, , 
60.33, 0.037356, , 
60.36, 0.037403, , 
60.39, 0.037413, , 
60.42, 0.037369, , 
60.45, 0.037378, , 
60.48, 0.037454, , 
60.51, 0.037384, , 
60.54, 0.037321, , 
60.57, 0.037372, , 
60.60, 0.037400, , 
60.63, 0.037403, , 
60.66, 0.037362, , 
60.69, 0.037419, , 
60.72, 0.037448, , 
60.75, 0.037375, , 
60.78, 0.037343, 19, 0.585
60.78, 0.037337, , 
60.81, 0.037362, , 
60.84, 0.037461, , 
60.87, 0.037422, , 
60.90, 0.037359, , 
60.93, 0.037372, , 
60.96, 0.037400, , 
60.99, 0.037413, , 
61.02, 0.037350, , 
61.05, 0.037350, , 
61.08, 0.037391, , 
61.12, 0.037419, , 
61.14, 0.037397, , 
61.17, 0.037394, , 
61.20, 0.037394, , 
61.23, 0.037381, , 
61.26, 0.037356, , 
61.29, 0.037381, , 
61.32, 0.037426, , 
61.35, 0.037499, , 
61.38, 0.037632, , 
61.41, 0.037771, , 
61.44, 0.037870, , 
61.47, 0.037873, , 
61.50, 0.037851, , 
61.53, 0.037879, , 
61.56, 0.037949, , 
61.59, 0.037892, , 
61.62, 0.037854, , 
61.65, 0.037901, , 
61.68, 0.037879, , 
61.71, 0.037727, , 
61.74, 0.037556, , 
61.77, 0.037505, , 
61.80, 0.037442, , 
61.83, 0.037362, , 
61.86, 0.037356, , 
61.89, 0.037422, , 
61.92, 0.037353, , 
61.95, 0.037270, , 
61.98, 0.037232, , 
62.01, 0.037124, , 
62.04, 0.036991, , 
62.07, 0.036883, , 
62.10, 0.036867, , 
62.13, 0.036899, , 
62.16, 0.036874, , 
62.19, 0.036798, , 
62.22, 0.036877, , 
62.25, 0.036915, , 
62.28, 0.036855, , 
62.31, 0.036791, , 
62.35, 0.036833, , 
62.37, 0.036880, , 
62.40, 0.036848, , 
62.43, 0.036804, , 
62.46, 0.036842, , 
62.49, 0.036871, , 
62.52, 0.036833, , 
62.55, 0.036772, , 
62.58, 0.036794, , 
62.61, 0.036817, , 
62.64, 0.036804, , 
62.67, 0.036791, , 
62.70, 0.036848, , 
62.73, 0.036871, , 
62.76, 0.036839, , 
62.79, 0.036833, , 
62.82, 0.036877, , 
62.85, 0.036871, , 
62.88, 0.036766, , 
62.91, 0.036788, , 
62.94, 0.036829, , 
62.97, 0.036823, , 
63.00, 0.036788, , 
63.03, 0.036798, , 
63.06, 0.036839, , 
63.09, 0.036804, , 
63.12, 0.036820, , 
63.15, 0.036798, , 
63.18, 0.036826, , 
63.21, 0.036845, , 
63.24, 0.036813, , 
63.27, 0.036817, , 
63.30, 0.036855, , 
63.33, 0.036801, , 
63.36, 0.036763, , 
63.39, 0.036855, , 
63.42, 0.036813, , 
63.45, 0.036801, , 
63.48, 0.036810, , 
63.51, 0.036833, , 
63.54, 0.036886, , 
63.58, 0.036845, , 
63.60, 0.036820, , 
63.63, 0.036820, , 
63.66, 0.036867, , 
63.69, 0.036823, , 
63.72, 0.036810, , 
63.75, 0.036801, , 
63.78, 0.036826, , 
63.81, 0.036813, , 
63.84, 0.036820, , 
63.87, 0.036833, , 
63.90, 0.036839, , 
63.93, 0.036779, , 
63.96, 0.036785, , 
63.98, 0.036804, 20, 0.585
63.99, 0.036833, , 
64.02, 0.036880, , 
64.05, 0.036848, , 
64.08, 0.036848, , 
64.11, 0.036886, , 
64.15, 0.036864, , 
64.17, 0.036820, , 
64.20, 0.036798, , 
64.23, 0.036852, , 
64.26, 0.036867, , 
64.29, 0.036826, , 
64.32, 0.036842, , 
64.35, 0.036858, , 
64.38, 0.036861, , 
64.41, 0.036886, , 
64.44, 0.036883, , 
64.47, 0.036858, , 
64.51, 0.036852, , 
64.53, 0.036829, , 
64.56, 0.036791, , 
64.59, 0.036874, , 
64.62, 0.036966, , 
64.65, 0.037029, , 
64.68, 0.037004, , 
64.71, 0.036931, , 
64.74, 0.036836, , 
64.77, 0.036753, , 
64.80, 0.036753, , 
64.83, 0.036791, , 
64.86, 0.036763, , 
64.89, 0.036725, , 
64.92, 0.036734, , 
64.95, 0.036794, , 
64.98, 0.036769, , 
65.01, 0.036753, , 
65.04, 0.036769, , 
65.07, 0.036782, , 
65.10, 0.036737, , 
65.13, 0.036734, , 
65.16, 0.036791, , 
65.19, 0.036845, , 
65.22, 0.036848, , 
65.25, 0.036766, , 
65.28, 0.036798, , 
65.31, 0.036807, , 
65.34, 0.036798, , 
65.37, 0.036788, , 
65.40, 0.036801, , 
65.43, 0.036833, , 
65.46, 0.036794, , 
65.49, 0.036763, , 
65.52, 0.036810, , 
65.55, 0.036826, , 
65.58, 0.036779, , 
65.61, 0.036779, , 
65.64, 0.036823, , 
65.67, 0.036829, , 
65.70, 0.036794, , 
65.74, 0.036706, , 
65.76, 0.036604, , 
65.79, 0.036480, , 
65.82, 0.036354, , 
65.85, 0.036312, , 
65.88, 0.036341, , 
65.91, 0.036350, , 
65.94, 0.036357, , 
65.97, 0.036401, , 
66.00, 0.036455, , 
66.03, 0.036414, , 
66.06, 0.036376, , 
66.09, 0.036395, , 
66.12, 0.036417, , 
66.15, 0.036411, , 
66.18, 0.036357, , 
66.22, 0.036376, , 
66.24, 0.036455, , 
66.27, 0.036382, , 
66.30, 0.036382, , 
66.33, 0.036379, , 
66.36, 0.036379, , 
66.39, 0.036395, , 
66.42, 0.036287, , 
66.45, 0.036154, , 
66.48, 0.036062, , 
66.51, 0.035957, , 
66.54, 0.035884, , 
66.57, 0.035868, , 
66.60, 0.035894, , 
66.63, 0.035859, , 
66.66, 0.035811, , 
66.69, 0.035840, , 
66.72, 0.035900, , 
66.75, 0.035894, , 
66.78, 0.035862, , 
66.81, 0.035887, , 
66.84, 0.035925, , 
66.87, 0.035970, , 
66.90, 0.035821, , 
66.93, 0.035745, , 
66.96, 0.035627, , 
67.00, 0.035453, , 
67.02, 0.035405, , 
67.05, 0.035396, , 
67.08, 0.035456, , 
67.11, 0.035421, , 
67.14, 0.035427, , 
67.17, 0.035481, , 
67.18, 0.035405, 21, 0.587
67.20, 0.035427, , 
67.23, 0.035431, , 
67.26, 0.035418, , 
67.29, 0.035522, , 
67.32, 0.035529, , 
67.35, 0.035453, , 
67.38, 0.035475, , 
67.41, 0.035557, , 
67.44, 0.035443, , 
67.47, 0.035389, , 
67.50, 0.035415, , 
67.53, 0.035440, , 
67.56, 0.035453, , 
67.59, 0.035367, , 
67.62, 0.035193, , 
67.65, 0.035040, , 
67.68, 0.035040, , 
67.71, 0.034958, , 
67.74, 0.034910, , 
67.77, 0.034945, , 
67.80, 0.034939, , 
67.83, 0.034920, , 
67.86, 0.034971, , 
67.89, 0.034961, , 
67.92, 0.034910, , 
67.95, 0.034926, , 
67.98, 0.034936, , 
68.01, 0.034971, , 
68.04, 0.034967, , 
68.07, 0.034945, , 
68.10, 0.034958, , 
68.13, 0.034974, , 
68.16, 0.034933, , 
68.19, 0.034888, , 
68.22, 0.034964, , 
68.25, 0.035040, , 
68.28, 0.035012, , 
68.31, 0.034945, , 
68.34, 0.035005, , 
68.37, 0.035037, , 
68.40, 0.035009, , 
68.44, 0.034971, , 
68.46, 0.034983, , 
68.49, 0.034828, , 
68.52, 0.034676, , 
68.55, 0.034561, , 
68.58, 0.034523, , 
68.61, 0.034514, , 
68.64, 0.034444, , 
68.67, 0.034488, , 
68.70, 0.034517, , 
68.73, 0.034485, , 
68.76, 0.034422, , 
68.79, 0.034396, , 
68.82, 0.034454, , 
68.85, 0.034479, , 
68.88, 0.034419, , 
68.91, 0.034304, , 
68.94, 0.034190, , 
68.97, 0.034082, , 
69.00, 0.033965, , 
69.03, 0.033956, , 
69.06, 0.033943, , 
69.09, 0.033854, , 
69.12, 0.033822, , 
69.15, 0.033857, , 
69.18, 0.033892, , 
69.21, 0.033895, , 
69.24, 0.033816, , 
69.27, 0.033835, , 
69.30, 0.033876, , 
69.33, 0.033864, , 
69.36, 0.033803, , 
69.39, 0.033813, , 
69.42, 0.033867, , 
69.45, 0.033835, , 
69.48, 0.033781, , 
69.51, 0.033797, , 
69.54, 0.033829, , 
69.57, 0.033870, , 
69.60, 0.033848, , 
69.63, 0.033772, , 
69.66, 0.033664, , 
69.69, 0.033489, , 
69.72, 0.033407, , 
69.75, 0.033375, , 
69.78, 0.033391, , 
69.81, 0.033337, , 
69.84, 0.033305, , 
69.87, 0.033302, , 
69.90, 0.033372, , 
69.93, 0.033312, , 
69.96, 0.033315, , 
69.99, 0.033347, , 
70.02, 0.033277, , 
70.06, 0.033105, , 
70.08, 0.032985, , 
70.11, 0.032950, , 
70.14, 0.032899, , 
70.17, 0.032852, , 
70.20, 0.032845, , 
70.23, 0.032899, , 
70.26, 0.032890, , 
70.29, 0.032817, , 
70.32, 0.032779, , 
70.35, 0.032804, , 
70.38, 0.032833, 22, 0.586
70.39, 0.032833, , 
70.41, 0.032830, , 
70.44, 0.032887, , 
70.47, 0.032877, , 
70.50, 0.032877, , 
70.53, 0.032734, , 
70.56, 0.032788, , 
70.59, 0.032868, , 
70.62, 0.032836, , 
70.65, 0.032750, , 
70.68, 0.032779, , 
70.71, 0.032785, , 
70.74, 0.032795, , 
70.77, 0.032725, , 
70.80, 0.032592, , 
70.83, 0.032500, , 
70.86, 0.032379, , 
70.89, 0.032249, , 
70.92, 0.032246, , 
70.95, 0.032240, , 
70.98, 0.032252, , 
71.01, 0.032205, , 
71.04, 0.032198, , 
71.07, 0.032205, , 
71.11, 0.032189, , 
71.13, 0.032205, , 
71.16, 0.032240, , 
71.19, 0.032243, , 
71.22, 0.032186, , 
71.25, 0.032154, , 
71.28, 0.032195, , 
71.32, 0.032100, , 
71.34, 0.031932, , 
71.37, 0.031818, , 
71.40, 0.031770, , 
71.43, 0.031726, , 
71.46, 0.031694, , 
71.49, 0.031662, , 
71.52, 0.031700, , 
71.55, 0.031700, , 
71.58, 0.031656, , 
71.61, 0.031665, , 
71.64, 0.031738, , 
71.67, 0.031761, , 
71.70, 0.031716, , 
71.73, 0.031688, , 
71.76, 0.031646, , 
71.79, 0.031456, , 
71.82, 0.031332, , 
71.85, 0.031282, , 
71.88, 0.031313, , 
71.91, 0.031278, , 
71.94, 0.031275, , 
71.97, 0.031329, , 
72.00, 0.031367, , 
72.03, 0.031336, , 
72.06, 0.031326, , 
72.09, 0.031361, , 
72.12, 0.031374, , 
72.15, 0.031339, , 
72.18, 0.031288, , 
72.21, 0.031301, , 
72.24, 0.031164, , 
72.27, 0.030993, , 
72.31, 0.030895, , 
72.33, 0.030901, , 
72.36, 0.030898, , 
72.39, 0.030853, , 
72.42, 0.030825, , 
72.45, 0.030869, , 
72.48, 0.030895, , 
72.51, 0.030885, , 
72.54, 0.030822, , 
72.57, 0.030866, , 
72.60, 0.030920, , 
72.63, 0.030863, , 
72.66, 0.030841, , 
72.69, 0.030825, , 
72.72, 0.030828, , 
72.75, 0.030844, , 
72.78, 0.030860, , 
72.81, 0.030869, , 
72.84, 0.030901, , 
72.87, 0.030863, , 
72.90, 0.030790, , 
72.93, 0.030739, , 
72.96, 0.030577, , 
72.99, 0.030454, , 
73.02, 0.030384, , 
73.05, 0.030381, , 
73.08, 0.030349, , 
73.11, 0.030305, , 
73.14, 0.030311, , 
73.17, 0.030355, , 
73.20, 0.030346, , 
73.23, 0.030292, , 
73.26, 0.030298, , 
73.29, 0.030340, , 
73.32, 0.030330, , 
73.35, 0.030286, , 
73.38, 0.030308, , 
73.41, 0.030289, , 
73.44, 0.030184, , 
73.47, 0.030013, , 
73.50, 0.029908, , 
73.54, 0.029861, , 
73.56, 0.029800, , 
73.58, 0.029800, 23, 0.585
73.59, 0.029784, , 
73.62, 0.029807, , 
73.65, 0.029867, , 
73.68, 0.029867, , 
73.71, 0.029829, , 
73.74, 0.029819, , 
73.77, 0.029899, , 
73.80, 0.029848, , 
73.83, 0.029823, , 
73.86, 0.029775, , 
73.89, 0.029559, , 
73.92, 0.029378, , 
73.95, 0.029350, , 
73.98, 0.029366, , 
74.01, 0.029306, , 
74.04, 0.029267, , 
74.07, 0.029220, , 
74.10, 0.029258, , 
74.13, 0.029286, , 
74.16, 0.029264, , 
74.19, 0.029255, , 
74.22, 0.029302, , 
74.25, 0.029325, , 
74.28, 0.029280, , 
74.31, 0.029242, , 
74.34, 0.029264, , 
74.37, 0.029267, , 
74.40, 0.029214, , 
74.43, 0.029267, , 
74.46, 0.029312, , 
74.49, 0.029290, , 
74.52, 0.029233, , 
74.55, 0.029248, , 
74.58, 0.029258, , 
74.61, 0.029258, , 
74.64, 0.029188, , 
74.67, 0.029261, , 
74.70, 0.029290, , 
74.73, 0.029248, , 
74.76, 0.029229, , 
74.79, 0.029258, , 
74.82, 0.029293, , 
74.85, 0.029239, , 
74.88, 0.029182, , 
74.91, 0.029223, , 
74.94, 0.029286, , 
74.97, 0.029229, , 
75.00, 0.029194, , 
75.03, 0.029217, , 
75.06, 0.029296, , 
75.09, 0.029261, , 
75.12, 0.029239, , 
75.15, 0.029299, , 
75.18, 0.029245, , 
75.21, 0.029201, , 
75.24, 0.029182, , 
75.27, 0.029134, , 
75.30, 0.029049, , 
75.33, 0.028893, , 
75.36, 0.028782, , 
75.39, 0.028801, , 
75.42, 0.028852, , 
75.45, 0.028808, , 
75.48, 0.028747, , 
75.51, 0.028738, , 
75.54, 0.028570, , 
75.58, 0.028430, , 
75.60, 0.028354, , 
75.63, 0.028329, , 
75.66, 0.028268, , 
75.69, 0.028230, , 
75.72, 0.028218, , 
75.75, 0.028322, , 
75.78, 0.028313, , 
75.81, 0.028233, , 
75.84, 0.028205, , 
75.87, 0.028265, , 
75.90, 0.028281, , 
75.93, 0.028240, , 
75.96, 0.028221, , 
75.99, 0.028259, , 
76.02, 0.028246, , 
76.05, 0.028224, , 
76.08, 0.028249, , 
76.11, 0.028329, , 
76.14, 0.028262, , 
76.17, 0.028202, , 
76.20, 0.028221, , 
76.23, 0.028284, , 
76.26, 0.028227, , 
76.29, 0.028237, , 
76.32, 0.028249, , 
76.35, 0.028237, , 
76.38, 0.028129, , 
76.41, 0.028030, , 
76.44, 0.027910, , 
76.47, 0.027846, , 
76.50, 0.027780, , 
76.53, 0.027754, , 
76.56, 0.027786, , 
76.59, 0.027827, , 
76.62, 0.027764, , 
76.65, 0.027729, , 
76.68, 0.027761, , 
76.71, 0.027770, , 
76.74, 0.027739, , 
76.77, 0.027729, , 
76.78, 0.027735, 24, 0.586
76.80, 0.027789, , 
76.83, 0.027808, , 
76.86, 0.027815, , 
76.89, 0.027846, , 
76.93, 0.027869, , 
76.95, 0.027840, , 
76.98, 0.027783, , 
77.01, 0.027726, , 
77.04, 0.027726, , 
77.07, 0.027716, , 
77.10, 0.027653, , 
77.14, 0.027647, , 
77.16, 0.027694, , 
77.19, 0.027691, , 
77.22, 0.027580, , 
77.25, 0.027634, , 
77.28, 0.027669, , 
77.31, 0.027650, , 
77.34, 0.027634, , 
77.37, 0.027669, , 
77.40, 0.027659, , 
77.43, 0.027681, , 
77.46, 0.027637, , 
77.49, 0.027666, , 
77.52, 0.027672, , 
77.55, 0.027634, , 
77.58, 0.027570, , 
77.61, 0.027485, , 
77.64, 0.027380, , 
77.67, 0.027225, , 
77.70, 0.027174, , 
77.73, 0.027199, , 
77.76, 0.027222, , 
77.79, 0.027168, , 
77.82, 0.027149, , 
77.85, 0.027183, , 
77.88, 0.027193, , 
77.91, 0.027139, , 
77.94, 0.027152, , 
77.97, 0.027174, , 
78.00, 0.027187, , 
78.03, 0.027136, , 
78.06, 0.027149, , 
78.09, 0.027187, , 
78.12, 0.027149, , 
78.16, 0.027133, , 
78.18, 0.027234, , 
78.21, 0.027285, , 
78.24, 0.027266, , 
78.27, 0.027253, , 
78.31, 0.027275, , 
78.33, 0.027314, , 
78.36, 0.027307, , 
78.39, 0.027237, , 
78.42, 0.027237, , 
78.45, 0.027304, , 
78.48, 0.027310, , 
78.51, 0.027250, , 
78.54, 0.027282, , 
78.57, 0.027294, , 
78.60, 0.027256, , 
78.63, 0.027253, , 
78.66, 0.027304, , 
78.69, 0.027307, , 
78.72, 0.027275, , 
78.75, 0.027291, , 
78.78, 0.027304, , 
78.81, 0.027314, , 
78.84, 0.027241, , 
78.87, 0.027244, , 
78.90, 0.027288, , 
78.93, 0.027291, , 
78.96, 0.027215, , 
78.99, 0.027082, , 
79.02, 0.026971, , 
79.05, 0.026917, , 
79.08, 0.026803, , 
79.11, 0.026762, , 
79.14, 0.026793, , 
79.17, 0.026863, , 
79.20, 0.026841, , 
79.23, 0.026736, , 
79.26, 0.026768, , 
79.29, 0.026828, , 
79.33, 0.026774, , 
79.35, 0.026777, , 
79.38, 0.026822, , 
79.41, 0.026812, , 
79.44, 0.026787, , 
79.47, 0.026816, , 
79.50, 0.026841, , 
79.54, 0.026828, , 
79.56, 0.026812, , 
79.59, 0.026790, , 
79.62, 0.026876, , 
79.65, 0.026831, , 
79.68, 0.026762, , 
79.71, 0.026765, , 
79.74, 0.026822, , 
79.77, 0.026863, , 
79.80, 0.026762, , 
79.83, 0.026793, , 
79.86, 0.026844, , 
79.89, 0.026793, , 
79.92, 0.026781, , 
79.95, 0.026831, , 
79.98, 0.026812, 25, 0.586
79.98, 0.026809, , 
80.01, 0.026752, , 
80.04, 0.026628, , 
80.07, 0.026511, , 
80.10, 0.026451, , 
80.13, 0.026318, , 
80.16, 0.026305, , 
80.19, 0.026327, , 
80.22, 0.026333, , 
80.25, 0.026279, , 
80.28, 0.026292, , 
80.31, 0.026333, , 
80.34, 0.026375, , 
80.37, 0.026343, , 
80.40, 0.026314, , 
80.43, 0.026337, , 
80.46, 0.026368, , 
80.49, 0.026346, , 
80.52, 0.026349, , 
80.56, 0.026378, , 
80.58, 0.026362, , 
80.61, 0.026349, , 
80.64, 0.026308, , 
80.67, 0.026343, , 
80.70, 0.026352, , 
80.73, 0.026314, , 
80.76, 0.026308, , 
80.79, 0.026390, , 
80.82, 0.026378, , 
80.85, 0.026333, , 
80.88, 0.026365, , 
80.91, 0.026362, , 
80.94, 0.026371, , 
80.97, 0.026346, , 
81.00, 0.026324, , 
81.03, 0.026375, , 
81.06, 0.026387, , 
81.09, 0.026333, , 
81.12, 0.026349, , 
81.15, 0.026390, , 
81.18, 0.026397, , 
81.21, 0.026327, , 
81.24, 0.026299, , 
81.27, 0.026397, , 
81.30, 0.026371, , 
81.33, 0.026337, , 
81.36, 0.026368, , 
81.39, 0.026419, , 
81.42, 0.026397, , 
81.45, 0.026333, , 
81.48, 0.026381, , 
81.51, 0.026384, , 
81.54, 0.026337, , 
81.58, 0.026302, , 
81.60, 0.026327, , 
81.63, 0.026362, , 
81.66, 0.026241, , 
81.69, 0.026086, , 
81.72, 0.026035, , 
81.75, 0.025984, , 
81.78, 0.025893, , 
81.81, 0.025842, , 
81.84, 0.025867, , 
81.87, 0.025848, , 
81.90, 0.025851, , 
81.93, 0.025804, , 
81.96, 0.025851, , 
81.99, 0.025820, , 
82.02, 0.025769, , 
82.05, 0.025813, , 
82.08, 0.025845, , 
82.11, 0.025772, , 
82.14, 0.025715, , 
82.17, 0.025569, , 
82.20, 0.025547, , 
82.23, 0.025490, , 
82.26, 0.025388, , 
82.29, 0.025353, , 
82.32, 0.025423, , 
82.35, 0.025344, , 
82.38, 0.025287, , 
82.41, 0.025296, , 
82.44, 0.025347, , 
82.47, 0.025296, , 
82.50, 0.025274, , 
82.53, 0.025277, , 
82.56, 0.025325, , 
82.59, 0.025299, , 
82.62, 0.025258, , 
82.65, 0.025280, , 
82.68, 0.025325, , 
82.71, 0.025328, , 
82.74, 0.025290, , 
82.77, 0.025280, , 
82.80, 0.025334, , 
82.83, 0.025331, , 
82.86, 0.025318, , 
82.89, 0.025331, , 
82.92, 0.025369, , 
82.95, 0.025337, , 
82.98, 0.025293, , 
83.01, 0.025306, , 
83.04, 0.025318, , 
83.07, 0.025274, , 
83.10, 0.025287, , 
83.13, 0.025318, , 
83.16, 0.025385, , 
83.17, 0.025375, 26, 0.584
83.19, 0.025360, , 
83.22, 0.025287, , 
83.25, 0.025356, , 
83.28, 0.025356, , 
83.31, 0.025350, , 
83.34, 0.025328, , 
83.37, 0.025341, , 
83.40, 0.025398, , 
83.43, 0.025328, , 
83.46, 0.025198, , 
83.49, 0.025125, , 
83.52, 0.025017, , 
83.55, 0.024931, , 
83.58, 0.024858, , 
83.61, 0.024884, , 
83.64, 0.024839, , 
83.67, 0.024824, , 
83.70, 0.024824, , 
83.73, 0.024836, , 
83.76, 0.024817, , 
83.79, 0.024725, , 
83.82, 0.024719, , 
83.85, 0.024763, , 
83.88, 0.024725, , 
83.91, 0.024674, , 
83.95, 0.024703, , 
83.97, 0.024754, , 
84.00, 0.024725, , 
84.03, 0.024674, , 
84.06, 0.024674, , 
84.09, 0.024751, , 
84.12, 0.024751, , 
84.15, 0.024697, , 
84.18, 0.024747, , 
84.21, 0.024766, , 
84.24, 0.024744, , 
84.27, 0.024694, , 
84.30, 0.024728, , 
84.33, 0.024760, , 
84.36, 0.024732, , 
84.39, 0.024665, , 
84.42, 0.024697, , 
84.45, 0.024732, , 
84.48, 0.024684, , 
84.51, 0.024668, , 
84.54, 0.024703, , 
84.57, 0.024681, , 
84.60, 0.024649, , 
84.63, 0.024652, , 
84.66, 0.024690, , 
84.69, 0.024741, , 
84.72, 0.024754, , 
84.75, 0.024728, , 
84.78, 0.024779, , 
84.81, 0.024862, , 
84.84, 0.024843, , 
84.87, 0.024817, , 
84.90, 0.024855, , 
84.93, 0.024884, , 
84.96, 0.024817, , 
84.99, 0.024852, , 
85.02, 0.024789, , 
85.05, 0.024655, , 
85.08, 0.024503, , 
85.11, 0.024437, , 
85.14, 0.024424, , 
85.17, 0.024389, , 
85.20, 0.024354, , 
85.23, 0.024357, , 
85.26, 0.024399, , 
85.29, 0.024418, , 
85.32, 0.024351, , 
85.35, 0.024341, , 
85.38, 0.024389, , 
85.41, 0.024386, , 
85.44, 0.024338, , 
85.47, 0.024370, , 
85.50, 0.024433, , 
85.53, 0.024427, , 
85.56, 0.024411, , 
85.59, 0.024484, , 
85.62, 0.024471, , 
85.65, 0.024313, , 
85.68, 0.024097, , 
85.71, 0.024059, , 
85.74, 0.023980, , 
85.77, 0.023904, , 
85.80, 0.023904, , 
85.83, 0.023961, , 
85.86, 0.023945, , 
85.89, 0.023916, , 
85.92, 0.023904, , 
85.95, 0.023942, , 
85.98, 0.023920, , 
86.01, 0.023866, , 
86.04, 0.023910, , 
86.07, 0.023942, , 
86.10, 0.023948, , 
86.13, 0.023897, , 
86.16, 0.023875, , 
86.19, 0.023904, , 
86.22, 0.023920, , 
86.25, 0.023878, , 
86.28, 0.023904, , 
86.31, 0.023954, , 
86.34, 0.023939, , 
86.37, 0.023904, , 
86.38, 0.023907, 27, 0.586
86.40, 0.023996, , 
86.43, 0.024170, , 
86.46, 0.024329, , 
86.49, 0.024319, , 
86.52, 0.024230, , 
86.55, 0.024167, , 
86.58, 0.024027, , 
86.61, 0.023916, , 
86.64, 0.023951, , 
86.67, 0.023964, , 
86.70, 0.023948, , 
86.73, 0.023929, , 
86.76, 0.023993, , 
86.79, 0.023983, , 
86.82, 0.023948, , 
86.85, 0.023961, , 
86.88, 0.023996, , 
86.91, 0.023977, , 
86.94, 0.023923, , 
86.97, 0.023926, , 
87.00, 0.023961, , 
87.03, 0.023945, , 
87.06, 0.023973, , 
87.09, 0.023920, , 
87.12, 0.024015, , 
87.15, 0.023999, , 
87.18, 0.023942, , 
87.21, 0.023907, , 
87.24, 0.023843, , 
87.27, 0.023704, , 
87.30, 0.023545, , 
87.33, 0.023450, , 
87.36, 0.023469, , 
87.39, 0.023463, , 
87.42, 0.023399, , 
87.45, 0.023428, , 
87.48, 0.023450, , 
87.51, 0.023409, , 
87.54, 0.023380, , 
87.58, 0.023409, , 
87.60, 0.023450, , 
87.63, 0.023437, , 
87.66, 0.023393, , 
87.69, 0.023387, , 
87.72, 0.023431, , 
87.75, 0.023425, , 
87.78, 0.023390, , 
87.81, 0.023380, , 
87.84, 0.023444, , 
87.87, 0.023425, , 
87.90, 0.023399, , 
87.93, 0.023371, , 
87.96, 0.023450, , 
87.99, 0.023574, , 
88.02, 0.023590, , 
88.05, 0.023621, , 
88.08, 0.023606, , 
88.11, 0.023507, , 
88.14, 0.023384, , 
88.17, 0.023390, , 
88.20, 0.023504, , 
88.23, 0.023596, , 
88.26, 0.023637, , 
88.29, 0.023853, , 
88.32, 0.024024, , 
88.35, 0.024161, , 
88.38, 0.024284, , 
88.41, 0.024414, , 
88.44, 0.024636, , 
88.47, 0.025303, , 
88.50, 0.033559, , 
88.53, 0.051151, , 
88.56, 0.072650, , 
88.59, 0.093810, , 
88.62, 0.104629, , 
88.65, 0.114735, , 
88.68, 0.120010, , 
88.71, 0.123379, , 
88.74, 0.126081, , 
88.77, 0.127883, , 
88.81, 0.129764, , 
88.83, 0.131029, , 
88.86, 0.132568, , 
88.89, 0.134382, , 
88.92, 0.135711, , 
88.95, 0.137221, , 
88.98, 0.138556, , 
89.01, 0.137659, , 
89.04, 0.126373, , 
89.07, 0.107871, , 
89.10, 0.085652, , 
89.13, 0.071514, , 
89.16, 0.062363, , 
89.19, 0.056365, , 
89.22, 0.054123, , 
89.25, 0.052714, , 
89.28, 0.052204, , 
89.31, 0.052020, , 
89.34, 0.052121, , 
89.37, 0.052289, , 
89.40, 0.052362, , 
89.43, 0.052404, , 
89.46, 0.052515, , 
89.49, 0.052572, , 
89.52, 0.052470, , 
89.55, 0.052324, , 
89.58, 0.052315, , 
89.61, 0.052410, , 
89.64, 0.052632, , 
89.67, 0.052946, , 
89.70, 0.053361, , 
89.73, 0.053577, , 
89.76, 0.053561, , 
89.79, 0.053476, , 
89.82, 0.053406, , 
89.85, 0.053285, , 
89.88, 0.053209, , 
89.91, 0.053269, , 
89.94, 0.053419, , 
89.97, 0.053542, , 
90.00, 0.053564, , 
90.03, 0.053723, , 
90.06, 0.054018, , 
90.09, 0.054269, , 
90.12, 0.054415, , 
90.15, 0.054481, , 
90.18, 0.054392, , 
90.21, 0.054243, , 
90.24, 0.054110, , 
90.27, 0.054173, , 
90.30, 0.054367, , 
90.33, 0.054497, , 
90.36, 0.054472, , 
90.39, 0.054405, , 
90.42, 0.054348, , 
90.45, 0.054066, , 
90.48, 0.053628, , 
90.51, 0.053133, , 
90.54, 0.052746, , 
90.57, 0.052283, , 
90.60, 0.052045, , 
90.63, 0.052242, , 
90.66, 0.052613, , 
90.69, 0.052851, , 
90.72, 0.052933, , 
90.75, 0.053060, , 
90.78, 0.053289, , 
90.81, 0.053311, , 
90.84, 0.053323, , 
90.87, 0.053488, , 
90.90, 0.053558, , 
90.93, 0.053583, , 
90.96, 0.053682, , 
90.99, 0.053907, , 
91.02, 0.054256, , 
91.05, 0.054560, , 
91.08, 0.054849, , 
91.11, 0.055020, , 
91.14, 0.055055, , 
91.17, 0.054906, , 
91.20, 0.054637, , 
91.23, 0.054554, , 
91.26, 0.054545, , 
91.29, 0.054554, , 
91.32, 0.054589, , 
91.35, 0.054694, , 
91.38, 0.054909, , 
91.41, 0.055071, , 
91.44, 0.055116, , 
91.47, 0.055208, , 
91.50, 0.055319, , 
91.53, 0.055423, , 
91.56, 0.055452, , 
91.59, 0.055601, , 
91.62, 0.055804, , 
91.65, 0.055817, , 
91.68, 0.055671, , 
91.71, 0.055515, , 
91.74, 0.055395, , 
91.77, 0.055157, , 
91.80, 0.055109, , 
91.83, 0.055407, , 
91.86, 0.055766, , 
91.89, 0.056032, , 
91.92, 0.056223, , 
91.95, 0.056343, , 
91.98, 0.056451, , 
92.01, 0.056337, , 
92.04, 0.056146, , 
92.07, 0.056121, , 
92.10, 0.056086, , 
92.13, 0.056150, , 
92.16, 0.056381, , 
92.19, 0.056657, , 
92.22, 0.056730, , 
92.25, 0.056651, , 
92.28, 0.056682, , 
92.31, 0.056518, , 
92.35, 0.055937, , 
92.37, 0.055169, , 
92.40, 0.054541, , 
92.43, 0.054234, , 
92.46, 0.054189, , 
92.49, 0.054066, , 
92.52, 0.054069, , 
92.55, 0.054135, , 
92.58, 0.054256, , 
92.61, 0.054256, , 
92.64, 0.054227, , 
92.67, 0.054085, , 
92.70, 0.054005, , 
92.73, 0.054297, , 
92.76, 0.054738, , 
92.79, 0.055293, , 
92.82, 0.055747, , 
92.85, 0.056032, , 
92.88, 0.056403, , 
92.91, 0.056632, , 
92.94, 0.056632, , 
92.97, 0.056524, , 
93.00, 0.056441, , 
93.03, 0.056283, , 
93.06, 0.056188, , 
93.09, 0.056108, , 
93.12, 0.056172, , 
93.15, 0.056318, , 
93.18, 0.056368, , 
93.21, 0.056334, , 
93.24, 0.056248, , 
93.27, 0.055889, , 
93.30, 0.055341, , 
93.33, 0.054992, , 
93.37, 0.054932, , 
93.39, 0.055011, , 
93.42, 0.055192, , 
93.45, 0.055436, , 
93.48, 0.055820, , 
93.51, 0.056112, , 
93.54, 0.056362, , 
93.57, 0.056568, , 
93.60, 0.056698, , 
93.63, 0.056762, , 
93.66, 0.056771, , 
93.69, 0.056892, , 
93.72, 0.057120, , 
93.75, 0.057301, , 
93.78, 0.057460, , 
93.81, 0.057688, , 
93.84, 0.057897, , 
93.87, 0.058012, , 
93.90, 0.057996, , 
93.93, 0.058078, , 
93.96, 0.058119, , 
93.99, 0.058081, , 
94.02, 0.058037, , 
94.05, 0.058021, , 
94.08, 0.058062, , 
94.11, 0.058056, , 
94.14, 0.058031, , 
94.17, 0.058078, , 
94.20, 0.058037, , 
94.23, 0.057856, , 
94.26, 0.057701, , 
94.29, 0.057618, , 
94.32, 0.057602, , 
94.35, 0.057555, , 
94.39, 0.057498, , 
94.41, 0.057418, , 
94.44, 0.057307, , 
94.47, 0.057158, , 
94.50, 0.057069, , 
94.53, 0.057127, , 
94.56, 0.057038, , 
94.59, 0.056892, , 
94.62, 0.056736, , 
94.65, 0.056638, , 
94.68, 0.056613, , 
94.71, 0.056562, , 
94.74, 0.056521, , 
94.77, 0.056559, , 
94.80, 0.056518, , 
94.83, 0.056299, , 
94.86, 0.056137, , 
94.89, 0.056105, , 
94.92, 0.056134, , 
94.95, 0.056077, , 
94.98, 0.056061, , 
95.01, 0.056099, , 
95.04, 0.056067, , 
95.07, 0.056042, , 
95.10, 0.056077, , 
95.13, 0.056096, , 
95.16, 0.056096, , 
95.19, 0.056035, , 
95.22, 0.056039, , 
95.25, 0.056092, , 
95.28, 0.056102, , 
95.31, 0.056051, , 
95.34, 0.056112, , 
95.37, 0.056118, , 
95.40, 0.056121, , 
95.43, 0.056099, , 
95.46, 0.056089, , 
95.49, 0.056112, , 
95.52, 0.056089, , 
95.55, 0.056156, , 
95.58, 0.056302, , 
95.62, 0.056432, , 
95.64, 0.056495, , 
95.67, 0.056486, , 
95.70, 0.056537, , 
95.73, 0.056587, , 
95.76, 0.056568, , 
95.79, 0.056546, , 
95.82, 0.056571, , 
95.85, 0.056610, , 
95.88, 0.056590, , 
95.91, 0.056571, , 
95.94, 0.056600, , 
95.97, 0.056644, , 
96.00, 0.056613, , 
