Gradient Profiler Text Data File: 20231116_BY4742_40C.csv
Date: 2023-11-16
Time: 17:45:00

User: jared
Experiment name: 20231116_BY4742_30
UV Unit: EM-1
Rotor Manufacturer: Beckman
Rotor Model: SW28.1
Speed: 28 rpm
Gradient: sucrose 10.0% to 50.0% w/v
Time: 4
w2t:  x 10^0
Sample Volume: 18 ml
Number of Tubes: 6
Volume per mm: 0.183 ml/mm

Absorbance Units Full Scale (AUFS): 2.00
Event Mark-triggered gradient; (with distance; auto start and stop)
Delay: No Delay
UV Wavelength: 254 nm
Samples / sec: 10 Hz
EM1 Speed: 0.30 mm/sec
Distance: 3.20 mm
Number: 30
Dead Volume: 0.000000 ml; Distance due to Dead Volume: 0.00 mm
Total Distance: 96.00 mm

Data Columns:
Distance(mm), Absorbance, Fraction Number, Fraction Volume(ml)
0.00, 0.082112, 0, 0.000
0.03, 0.082115, , 
0.06, 0.082121, , 
0.09, 0.082131, , 
0.12, 0.082131, , 
0.15, 0.082077, , 
0.18, 0.082077, , 
0.21, 0.082172, , 
0.24, 0.082337, , 
0.27, 0.082454, , 
0.30, 0.082600, , 
0.33, 0.082813, , 
0.36, 0.083003, , 
0.39, 0.083213, , 
0.42, 0.083368, , 
0.45, 0.083492, , 
0.48, 0.083701, , 
0.51, 0.083879, , 
0.54, 0.084313, , 
0.57, 0.085966, , 
0.60, 0.089908, , 
0.63, 0.104639, , 
0.66, 0.133640, , 
0.69, 0.192800, , 
0.72, 0.262329, , 
0.75, 0.343489, , 
0.79, 0.446986, , 
0.81, 0.524311, , 
0.84, 0.635002, , 
0.87, 0.731267, , 
0.90, 0.844582, , 
0.93, 0.942138, , 
0.96, 1.023793, , 
0.99, 1.138509, , 
1.02, 1.237042, , 
1.05, 1.352193, , 
1.08, 1.450497, , 
1.11, 1.547482, , 
1.14, 1.654903, , 
1.17, 1.723246, , 
1.20, 1.798814, , 
1.23, 1.842720, , 
1.26, 1.870832, , 
1.29, 1.890299, , 
1.32, 1.900071, , 
1.35, 1.907294, , 
1.38, 1.910957, , 
1.41, 1.914380, , 
1.44, 1.917514, , 
1.47, 1.919769, , 
1.50, 1.922246, , 
1.53, 1.924413, , 
1.57, 1.926605, , 
1.59, 1.928765, , 
1.62, 1.930839, , 
1.65, 1.933117, , 
1.68, 1.934928, , 
1.71, 1.936729, , 
1.74, 1.938759, , 
1.77, 1.940203, , 
1.80, 1.942046, , 
1.83, 1.943416, , 
1.86, 1.944681, , 
1.89, 1.945855, , 
1.92, 1.946534, , 
1.95, 1.946670, , 
1.98, 1.946293, , 
2.01, 1.945519, , 
2.04, 1.944402, , 
2.07, 1.943527, , 
2.10, 1.942766, , 
2.13, 1.942379, , 
2.16, 1.942068, , 
2.19, 1.941560, , 
2.22, 1.940821, , 
2.25, 1.939597, , 
2.28, 1.938420, , 
2.31, 1.937383, , 
2.34, 1.936574, , 
2.37, 1.936114, , 
2.40, 1.935578, , 
2.43, 1.934947, , 
2.46, 1.934357, , 
2.49, 1.934173, , 
2.52, 1.934309, , 
2.55, 1.934712, , 
2.58, 1.934814, , 
2.61, 1.934544, , 
2.64, 1.933497, , 
2.67, 1.931959, , 
2.70, 1.929853, , 
2.73, 1.928099, , 
2.76, 1.926322, , 
2.80, 1.923893, , 
2.82, 1.921834, , 
2.85, 1.918272, , 
2.88, 1.914748, , 
2.91, 1.911059, , 
2.94, 1.906878, , 
2.97, 1.903354, , 
3.00, 1.899691, , 
3.03, 1.895707, , 
3.06, 1.891301, , 
3.09, 1.885595, , 
3.12, 1.880361, , 
3.15, 1.873976, , 
3.18, 1.868390, , 
3.19, 1.867429, 1, 0.583
3.22, 1.862538, , 
3.24, 1.856387, , 
3.27, 1.849837, , 
3.30, 1.841768, , 
3.33, 1.834666, , 
3.36, 1.827434, , 
3.39, 1.819980, , 
3.42, 1.812202, , 
3.45, 1.802633, , 
3.48, 1.794043, , 
3.51, 1.785171, , 
3.54, 1.774510, , 
3.57, 1.765207, , 
3.60, 1.755691, , 
3.63, 1.746115, , 
3.66, 1.734848, , 
3.69, 1.725012, , 
3.72, 1.715062, , 
3.75, 1.703205, , 
3.78, 1.692868, , 
3.81, 1.684224, , 
3.84, 1.671987, , 
3.87, 1.661374, , 
3.90, 1.649010, , 
3.93, 1.638358, , 
3.96, 1.627428, , 
3.99, 1.616202, , 
4.02, 1.604729, , 
4.05, 1.591090, , 
4.08, 1.579281, , 
4.11, 1.567320, , 
4.14, 1.553166, , 
4.17, 1.540796, , 
4.20, 1.528225, , 
4.23, 1.515550, , 
4.26, 1.502831, , 
4.29, 1.488053, , 
4.32, 1.475299, , 
4.35, 1.460279, , 
4.38, 1.447338, , 
4.41, 1.436518, , 
4.44, 1.421315, , 
4.47, 1.408418, , 
4.50, 1.393764, , 
4.53, 1.381441, , 
4.56, 1.369248, , 
4.59, 1.355184, , 
4.62, 1.345116, , 
4.65, 1.331058, , 
4.68, 1.319151, , 
4.71, 1.307367, , 
4.74, 1.293766, , 
4.77, 1.282118, , 
4.80, 1.268637, , 
4.83, 1.259141, , 
4.86, 1.247896, , 
4.89, 1.234847, , 
4.92, 1.223587, , 
4.95, 1.210299, , 
4.98, 1.198817, , 
5.01, 1.187214, , 
5.04, 1.175611, , 
5.07, 1.164081, , 
5.10, 1.150822, , 
5.13, 1.139575, , 
5.16, 1.128394, , 
5.19, 1.115385, , 
5.23, 1.104344, , 
5.25, 1.093423, , 
5.28, 1.082493, , 
5.31, 1.071629, , 
5.34, 1.059055, , 
5.37, 1.048299, , 
5.40, 1.035732, , 
5.43, 1.026876, , 
5.46, 1.016500, , 
5.49, 1.004593, , 
5.52, 0.994519, , 
5.55, 0.982887, , 
5.58, 0.972994, , 
5.61, 0.963142, , 
5.64, 0.953315, , 
5.67, 0.943590, , 
5.70, 0.932470, , 
5.73, 0.923033, , 
5.76, 0.913711, , 
5.79, 0.902990, , 
5.82, 0.893892, , 
5.85, 0.884818, , 
5.88, 0.875812, , 
5.91, 0.866804, , 
5.94, 0.856359, , 
5.97, 0.847497, , 
6.00, 0.837118, , 
6.03, 0.828214, , 
6.06, 0.820830, , 
6.09, 0.810712, , 
6.12, 0.802144, , 
6.15, 0.792178, , 
6.18, 0.783674, , 
6.21, 0.775272, , 
6.24, 0.765489, , 
6.27, 0.758549, , 
6.30, 0.748849, , 
6.33, 0.740529, , 
6.36, 0.732267, , 
6.39, 0.724181, 2, 0.586
6.39, 0.722846, , 
6.42, 0.715018, , 
6.46, 0.706079, , 
6.48, 0.699802, , 
6.51, 0.692414, , 
6.54, 0.683977, , 
6.57, 0.676942, , 
6.60, 0.668907, , 
6.63, 0.662087, , 
6.66, 0.656451, , 
6.69, 0.648677, , 
6.72, 0.642139, , 
6.75, 0.634618, , 
6.78, 0.628281, , 
6.81, 0.622016, , 
6.84, 0.614784, , 
6.87, 0.609627, , 
6.90, 0.602458, , 
6.93, 0.596305, , 
6.96, 0.590072, , 
6.99, 0.582808, , 
7.02, 0.576591, , 
7.05, 0.569391, , 
7.08, 0.564249, , 
7.11, 0.558096, , 
7.14, 0.550975, , 
7.17, 0.544951, , 
7.20, 0.538950, , 
7.23, 0.531914, , 
7.26, 0.525885, , 
7.29, 0.518935, , 
7.32, 0.514012, , 
7.35, 0.508214, , 
7.38, 0.501607, , 
7.41, 0.496084, , 
7.44, 0.489747, , 
7.47, 0.484392, , 
7.50, 0.479152, , 
7.53, 0.474004, , 
7.56, 0.468875, , 
7.59, 0.462982, , 
7.62, 0.458046, , 
7.65, 0.453139, , 
7.68, 0.447570, , 
7.72, 0.442973, , 
7.74, 0.438390, , 
7.77, 0.433740, , 
7.80, 0.429049, , 
7.83, 0.423729, , 
7.86, 0.419197, , 
7.89, 0.413855, , 
7.92, 0.410090, , 
7.95, 0.404894, , 
7.98, 0.400428, , 
8.01, 0.395899, , 
8.04, 0.390598, , 
8.07, 0.386859, , 
8.10, 0.381784, , 
8.13, 0.377467, , 
8.16, 0.373229, , 
8.19, 0.368185, , 
8.22, 0.363872, , 
8.25, 0.358828, , 
8.28, 0.355269, , 
8.31, 0.351171, , 
8.34, 0.346486, , 
8.37, 0.342537, , 
8.40, 0.338058, , 
8.43, 0.334312, , 
8.46, 0.330563, , 
8.49, 0.326817, , 
8.52, 0.323112, , 
8.55, 0.318948, , 
8.58, 0.315458, , 
8.61, 0.311947, , 
8.64, 0.307969, , 
8.67, 0.304661, , 
8.70, 0.301356, , 
8.73, 0.298045, , 
8.76, 0.294762, , 
8.79, 0.290949, , 
8.82, 0.287717, , 
8.85, 0.284573, , 
8.88, 0.281427, , 
8.91, 0.277827, , 
8.94, 0.274829, , 
8.97, 0.271349, , 
9.00, 0.268365, , 
9.03, 0.265906, , 
9.06, 0.262522, , 
9.09, 0.259617, , 
9.12, 0.256257, , 
9.15, 0.253403, , 
9.18, 0.250570, , 
9.21, 0.247322, , 
9.24, 0.245067, , 
9.27, 0.241942, , 
9.30, 0.239322, , 
9.33, 0.236766, , 
9.36, 0.233803, , 
9.39, 0.231285, , 
9.42, 0.228414, , 
9.45, 0.226441, , 
9.48, 0.224123, , 
9.51, 0.221493, , 
9.54, 0.219270, , 
9.57, 0.216688, , 
9.59, 0.215232, 3, 0.586
9.60, 0.214496, , 
9.64, 0.212348, , 
9.66, 0.210277, , 
9.69, 0.208238, , 
9.72, 0.205887, , 
9.75, 0.203924, , 
9.78, 0.202043, , 
9.81, 0.199832, , 
9.84, 0.198271, , 
9.87, 0.196130, , 
9.90, 0.194344, , 
9.93, 0.192533, , 
9.96, 0.190481, , 
9.99, 0.188746, , 
10.02, 0.186716, , 
10.05, 0.185216, , 
10.08, 0.183462, , 
10.11, 0.181457, , 
10.14, 0.179785, , 
10.17, 0.177907, , 
10.20, 0.176258, , 
10.23, 0.174647, , 
10.26, 0.173131, , 
10.29, 0.171621, , 
10.32, 0.169851, , 
10.35, 0.168382, , 
10.38, 0.166964, , 
10.41, 0.165369, , 
10.44, 0.164033, , 
10.47, 0.162717, , 
10.50, 0.161385, , 
10.53, 0.160065, , 
10.56, 0.158533, , 
10.59, 0.157290, , 
10.62, 0.155910, , 
10.65, 0.154695, , 
10.68, 0.153702, , 
10.71, 0.152348, , 
10.74, 0.151203, , 
10.77, 0.149896, , 
10.80, 0.148789, , 
10.83, 0.147641, , 
10.87, 0.146286, , 
10.89, 0.145313, , 
10.92, 0.144006, , 
10.95, 0.142924, , 
10.98, 0.141811, , 
11.01, 0.140536, , 
11.04, 0.139432, , 
11.07, 0.138344, , 
11.10, 0.137237, , 
11.13, 0.136152, , 
11.16, 0.134998, , 
11.19, 0.134052, , 
11.22, 0.133031, , 
11.25, 0.131832, , 
11.28, 0.130855, , 
11.31, 0.129964, , 
11.34, 0.129022, , 
11.37, 0.128124, , 
11.40, 0.127093, , 
11.43, 0.126205, , 
11.46, 0.125171, , 
11.49, 0.124264, , 
11.52, 0.123547, , 
11.55, 0.122535, , 
11.58, 0.121663, , 
11.61, 0.120851, , 
11.64, 0.119972, , 
11.67, 0.119236, , 
11.70, 0.118513, , 
11.73, 0.117669, , 
11.76, 0.116895, , 
11.80, 0.116039, , 
11.82, 0.115436, , 
11.85, 0.114710, , 
11.88, 0.113863, , 
11.91, 0.113143, , 
11.94, 0.112277, , 
11.97, 0.111481, , 
12.00, 0.110859, , 
12.03, 0.109952, , 
12.06, 0.109229, , 
12.09, 0.108401, , 
12.13, 0.107738, , 
12.15, 0.107069, , 
12.18, 0.106412, , 
12.21, 0.105651, , 
12.24, 0.105007, , 
12.27, 0.104420, , 
12.30, 0.103805, , 
12.33, 0.103075, , 
12.36, 0.102447, , 
12.39, 0.101730, , 
12.42, 0.101248, , 
12.45, 0.100712, , 
12.48, 0.100167, , 
12.51, 0.099694, , 
12.54, 0.099139, , 
12.57, 0.098688, , 
12.60, 0.098254, , 
12.63, 0.097829, , 
12.66, 0.097378, , 
12.69, 0.096871, , 
12.72, 0.096427, , 
12.75, 0.095992, , 
12.78, 0.095453, , 
12.79, 0.095377, 4, 0.585
12.81, 0.095047, , 
12.84, 0.094616, , 
12.87, 0.094184, , 
12.90, 0.093731, , 
12.93, 0.093217, , 
12.96, 0.092785, , 
12.99, 0.092287, , 
13.03, 0.091799, , 
13.05, 0.091368, , 
13.08, 0.090933, , 
13.11, 0.090511, , 
13.14, 0.090007, , 
13.17, 0.089639, , 
13.20, 0.089131, , 
13.23, 0.088725, , 
13.26, 0.088389, , 
13.29, 0.088028, , 
13.32, 0.087688, , 
13.35, 0.087222, , 
13.38, 0.086895, , 
13.41, 0.086553, , 
13.44, 0.086216, , 
13.47, 0.085953, , 
13.50, 0.085645, , 
13.53, 0.085354, , 
13.56, 0.085090, , 
13.59, 0.084811, , 
13.62, 0.084491, , 
13.65, 0.084167, , 
13.68, 0.083879, , 
13.71, 0.083622, , 
13.74, 0.083222, , 
13.77, 0.082854, , 
13.80, 0.082556, , 
13.83, 0.082286, , 
13.86, 0.082001, , 
13.89, 0.081728, , 
13.92, 0.081500, , 
13.95, 0.081205, , 
13.98, 0.080986, , 
14.01, 0.080837, , 
14.04, 0.080570, , 
14.07, 0.080364, , 
14.10, 0.080183, , 
14.13, 0.080031, , 
14.16, 0.079888, , 
14.20, 0.079714, , 
14.22, 0.079638, , 
14.25, 0.079600, , 
14.28, 0.079524, , 
14.31, 0.079400, , 
14.34, 0.079238, , 
14.37, 0.079171, , 
14.40, 0.079137, , 
14.43, 0.079064, , 
14.46, 0.079007, , 
14.49, 0.079022, , 
14.52, 0.079057, , 
14.55, 0.079067, , 
14.58, 0.079041, , 
14.61, 0.079064, , 
14.64, 0.079086, , 
14.67, 0.079060, , 
14.70, 0.079038, , 
14.73, 0.079064, , 
14.76, 0.079067, , 
14.79, 0.079057, , 
14.82, 0.079070, , 
14.85, 0.079146, , 
14.88, 0.079279, , 
14.91, 0.079378, , 
14.94, 0.079435, , 
14.97, 0.079492, , 
15.00, 0.079577, , 
15.03, 0.079720, , 
15.06, 0.079847, , 
15.09, 0.079968, , 
15.12, 0.080114, , 
15.15, 0.080269, , 
15.18, 0.080390, , 
15.21, 0.080535, , 
15.24, 0.080738, , 
15.27, 0.080910, , 
15.30, 0.081125, , 
15.33, 0.081341, , 
15.36, 0.081465, , 
15.39, 0.081677, , 
15.42, 0.081874, , 
15.45, 0.082061, , 
15.48, 0.082251, , 
15.51, 0.082366, , 
15.54, 0.082543, , 
15.57, 0.082734, , 
15.60, 0.082892, , 
15.63, 0.082952, , 
15.66, 0.082994, , 
15.69, 0.083095, , 
15.72, 0.083206, , 
15.75, 0.083330, , 
15.78, 0.083444, , 
15.81, 0.083492, , 
15.84, 0.083511, , 
15.87, 0.083536, , 
15.90, 0.083533, , 
15.93, 0.083552, , 
15.96, 0.083530, , 
15.99, 0.083508, 5, 0.587
16.00, 0.083514, , 
16.02, 0.083546, , 
16.05, 0.083571, , 
16.08, 0.083504, , 
16.11, 0.083400, , 
16.14, 0.083273, , 
16.17, 0.083190, , 
16.20, 0.083133, , 
16.23, 0.083048, , 
16.27, 0.082981, , 
16.29, 0.082848, , 
16.32, 0.082734, , 
16.35, 0.082613, , 
16.38, 0.082432, , 
16.41, 0.082251, , 
16.44, 0.081991, , 
16.47, 0.081782, , 
16.50, 0.081627, , 
16.53, 0.081398, , 
16.56, 0.081144, , 
16.59, 0.080884, , 
16.62, 0.080694, , 
16.65, 0.080421, , 
16.68, 0.080063, , 
16.71, 0.079857, , 
16.74, 0.079520, , 
16.77, 0.079165, , 
16.80, 0.078829, , 
16.83, 0.078458, , 
16.86, 0.078160, , 
16.89, 0.077808, , 
16.92, 0.077443, , 
16.95, 0.077113, , 
16.98, 0.076764, , 
17.01, 0.076453, , 
17.04, 0.076006, , 
17.07, 0.075590, , 
17.10, 0.075318, , 
17.13, 0.074966, , 
17.16, 0.074642, , 
17.19, 0.074223, , 
17.22, 0.073858, , 
17.25, 0.073475, , 
17.28, 0.073043, , 
17.31, 0.072777, , 
17.34, 0.072428, , 
17.37, 0.072136, , 
17.40, 0.071838, , 
17.43, 0.071480, , 
17.46, 0.071150, , 
17.49, 0.070702, , 
17.52, 0.070398, , 
17.55, 0.070068, , 
17.58, 0.069735, , 
17.61, 0.069418, , 
17.64, 0.069056, , 
17.67, 0.068771, , 
17.70, 0.068463, , 
17.73, 0.068098, , 
17.76, 0.067753, , 
17.79, 0.067381, , 
17.82, 0.067115, , 
17.85, 0.066807, , 
17.88, 0.066455, , 
17.91, 0.066208, , 
17.94, 0.066024, , 
17.97, 0.065732, , 
18.00, 0.065427, , 
18.03, 0.065075, , 
18.06, 0.064818, , 
18.09, 0.064479, , 
18.12, 0.064222, , 
18.15, 0.063940, , 
18.18, 0.063677, , 
18.21, 0.063458, , 
18.24, 0.063210, , 
18.27, 0.062985, , 
18.30, 0.062782, , 
18.33, 0.062598, , 
18.36, 0.062367, , 
18.39, 0.062132, , 
18.42, 0.061916, , 
18.45, 0.061716, , 
18.48, 0.061472, , 
18.51, 0.061244, , 
18.54, 0.061126, , 
18.57, 0.060961, , 
18.60, 0.060768, , 
18.63, 0.060574, , 
18.66, 0.060390, , 
18.69, 0.060191, , 
18.72, 0.060016, , 
18.75, 0.059889, , 
18.78, 0.059715, , 
18.81, 0.059594, , 
18.84, 0.059452, , 
18.87, 0.059245, , 
18.90, 0.059125, , 
18.93, 0.059030, , 
18.96, 0.058947, , 
18.99, 0.058817, , 
19.02, 0.058687, , 
19.05, 0.058598, , 
19.08, 0.058513, , 
19.11, 0.058383, , 
19.14, 0.058262, , 
19.17, 0.058135, , 
19.19, 0.058081, 6, 0.584
19.20, 0.058046, , 
19.23, 0.057967, , 
19.26, 0.057840, , 
19.29, 0.057669, , 
19.32, 0.057558, , 
19.35, 0.057533, , 
19.38, 0.057485, , 
19.41, 0.057371, , 
19.44, 0.057219, , 
19.47, 0.057073, , 
19.50, 0.057012, , 
19.53, 0.056981, , 
19.56, 0.056905, , 
19.59, 0.056746, , 
19.62, 0.056632, , 
19.65, 0.056543, , 
19.68, 0.056454, , 
19.71, 0.056438, , 
19.74, 0.056419, , 
19.77, 0.056267, , 
19.80, 0.056131, , 
19.83, 0.056016, , 
19.86, 0.055953, , 
19.89, 0.055905, , 
19.92, 0.055883, , 
19.95, 0.055880, , 
19.98, 0.055804, , 
20.01, 0.055690, , 
20.04, 0.055569, , 
20.07, 0.055464, , 
20.10, 0.055426, , 
20.13, 0.055341, , 
20.16, 0.055198, , 
20.20, 0.055081, , 
20.22, 0.054982, , 
20.25, 0.054900, , 
20.28, 0.054805, , 
20.31, 0.054754, , 
20.34, 0.054646, , 
20.37, 0.054513, , 
20.40, 0.054421, , 
20.43, 0.054361, , 
20.46, 0.054275, , 
20.49, 0.054180, , 
20.52, 0.054021, , 
20.55, 0.053917, , 
20.58, 0.053828, , 
20.61, 0.053745, , 
20.64, 0.053580, , 
20.67, 0.053447, , 
20.70, 0.053358, , 
20.73, 0.053298, , 
20.76, 0.053263, , 
20.79, 0.053257, , 
20.82, 0.053241, , 
20.85, 0.053143, , 
20.88, 0.053016, , 
20.91, 0.052892, , 
20.94, 0.052829, , 
20.97, 0.052762, , 
21.00, 0.052737, , 
21.03, 0.052743, , 
21.06, 0.052721, , 
21.09, 0.052721, , 
21.12, 0.052705, , 
21.15, 0.052733, , 
21.18, 0.052759, , 
21.21, 0.052746, , 
21.24, 0.052730, , 
21.27, 0.052733, , 
21.30, 0.052724, , 
21.33, 0.052705, , 
21.36, 0.052708, , 
21.39, 0.052727, , 
21.42, 0.052708, , 
21.45, 0.052733, , 
21.48, 0.052816, , 
21.51, 0.052959, , 
21.54, 0.053073, , 
21.57, 0.053228, , 
21.60, 0.053406, , 
21.63, 0.053612, , 
21.66, 0.053850, , 
21.69, 0.053999, , 
21.72, 0.054262, , 
21.75, 0.054630, , 
21.78, 0.054884, , 
21.81, 0.055208, , 
21.84, 0.055541, , 
21.87, 0.055912, , 
21.90, 0.056327, , 
21.93, 0.056755, , 
21.96, 0.057260, , 
21.99, 0.057713, , 
22.02, 0.058186, , 
22.05, 0.058722, , 
22.08, 0.059372, , 
22.11, 0.059918, , 
22.14, 0.060492, , 
22.17, 0.061202, , 
22.20, 0.061846, , 
22.23, 0.062525, , 
22.26, 0.063156, , 
22.29, 0.063791, , 
22.32, 0.064549, , 
22.35, 0.065275, , 
22.38, 0.066125, 7, 0.585
22.39, 0.066240, , 
22.41, 0.066801, , 
22.44, 0.067407, , 
22.47, 0.068330, , 
22.50, 0.069116, , 
22.53, 0.069973, , 
22.56, 0.070696, , 
22.59, 0.071451, , 
22.62, 0.072288, , 
22.65, 0.072878, , 
22.68, 0.073741, , 
22.71, 0.074477, , 
22.74, 0.075203, , 
22.77, 0.076047, , 
22.80, 0.076774, , 
22.83, 0.077655, , 
22.86, 0.078223, , 
22.89, 0.078848, , 
22.92, 0.079524, , 
22.95, 0.080133, , 
22.98, 0.080827, , 
23.01, 0.081379, , 
23.05, 0.081871, , 
23.07, 0.082366, , 
23.10, 0.082826, , 
23.13, 0.083314, , 
23.16, 0.083768, , 
23.19, 0.084205, , 
23.22, 0.084707, , 
23.25, 0.085059, , 
23.28, 0.085474, , 
23.31, 0.085779, , 
23.34, 0.086032, , 
23.37, 0.086254, , 
23.40, 0.086461, , 
23.43, 0.086632, , 
23.46, 0.086737, , 
23.49, 0.086882, , 
23.52, 0.087035, , 
23.55, 0.087162, , 
23.58, 0.087212, , 
23.61, 0.087155, , 
23.64, 0.087047, , 
23.67, 0.086978, , 
23.70, 0.086911, , 
23.73, 0.086800, , 
23.76, 0.086660, , 
23.79, 0.086524, , 
23.82, 0.086397, , 
23.85, 0.086235, , 
23.88, 0.086020, , 
23.91, 0.085782, , 
23.94, 0.085442, , 
23.97, 0.085170, , 
24.00, 0.084916, , 
24.03, 0.084621, , 
24.06, 0.084266, , 
24.09, 0.083793, , 
24.12, 0.083374, , 
24.15, 0.082937, , 
24.18, 0.082499, , 
24.21, 0.082039, , 
24.24, 0.081690, , 
24.27, 0.081278, , 
24.30, 0.080726, , 
24.33, 0.080225, , 
24.36, 0.079765, , 
24.39, 0.079355, , 
24.42, 0.078915, , 
24.45, 0.078382, , 
24.48, 0.077950, , 
24.51, 0.077455, , 
24.54, 0.077062, , 
24.57, 0.076491, , 
24.60, 0.075803, , 
24.63, 0.075289, , 
24.66, 0.074753, , 
24.69, 0.074255, , 
24.72, 0.073687, , 
24.75, 0.073151, , 
24.78, 0.072504, , 
24.81, 0.072085, , 
24.84, 0.071568, , 
24.87, 0.071108, , 
24.90, 0.070614, , 
24.93, 0.069932, , 
24.96, 0.069373, , 
24.99, 0.068796, , 
25.02, 0.068365, , 
25.05, 0.067810, , 
25.08, 0.067366, , 
25.11, 0.066953, , 
25.14, 0.066433, , 
25.17, 0.065894, , 
25.20, 0.065345, , 
25.23, 0.064793, , 
25.26, 0.064289, , 
25.29, 0.063743, , 
25.32, 0.063296, , 
25.35, 0.062823, , 
25.38, 0.062306, , 
25.41, 0.061862, , 
25.44, 0.061434, , 
25.47, 0.060996, , 
25.50, 0.060552, , 
25.53, 0.060038, , 
25.56, 0.059620, , 
25.58, 0.059280, 8, 0.586
25.59, 0.059153, , 
25.62, 0.058785, , 
25.65, 0.058497, , 
25.68, 0.058119, , 
25.71, 0.057780, , 
25.74, 0.057355, , 
25.77, 0.056939, , 
25.80, 0.056587, , 
25.84, 0.056248, , 
25.86, 0.055959, , 
25.89, 0.055620, , 
25.92, 0.055350, , 
25.95, 0.055065, , 
25.98, 0.054713, , 
26.01, 0.054418, , 
26.04, 0.054177, , 
26.07, 0.053936, , 
26.10, 0.053685, , 
26.13, 0.053469, , 
26.16, 0.053250, , 
26.19, 0.053009, , 
26.22, 0.052870, , 
26.26, 0.052714, , 
26.28, 0.052530, , 
26.31, 0.052394, , 
26.34, 0.052232, , 
26.37, 0.052058, , 
26.40, 0.051937, , 
26.43, 0.051807, , 
26.46, 0.051753, , 
26.49, 0.051684, , 
26.52, 0.051572, , 
26.55, 0.051455, , 
26.58, 0.051312, , 
26.61, 0.051246, , 
26.64, 0.051208, , 
26.67, 0.051220, , 
26.70, 0.051233, , 
26.73, 0.051366, , 
26.76, 0.051477, , 
26.79, 0.051582, , 
26.82, 0.051655, , 
26.85, 0.051782, , 
26.88, 0.051925, , 
26.91, 0.052032, , 
26.94, 0.052178, , 
26.97, 0.052388, , 
27.00, 0.052588, , 
27.03, 0.052860, , 
27.06, 0.053181, , 
27.09, 0.053511, , 
27.12, 0.053821, , 
27.15, 0.054104, , 
27.18, 0.054500, , 
27.21, 0.054966, , 
27.24, 0.055633, , 
27.27, 0.056200, , 
27.30, 0.056759, , 
27.33, 0.057482, , 
27.36, 0.058211, , 
27.39, 0.059176, , 
27.42, 0.060029, , 
27.45, 0.061117, , 
27.49, 0.062436, , 
27.51, 0.063505, , 
27.54, 0.065205, , 
27.57, 0.066703, , 
27.60, 0.068615, , 
27.63, 0.070883, , 
27.66, 0.072974, , 
27.69, 0.075292, , 
27.72, 0.077833, , 
27.75, 0.080583, , 
27.78, 0.084072, , 
27.81, 0.087301, , 
27.84, 0.090812, , 
27.87, 0.094632, , 
27.90, 0.099446, , 
27.93, 0.103878, , 
27.96, 0.108648, , 
27.99, 0.114627, , 
28.02, 0.119141, , 
28.05, 0.125837, , 
28.08, 0.131956, , 
28.11, 0.138360, , 
28.14, 0.146169, , 
28.17, 0.153144, , 
28.20, 0.160414, , 
28.23, 0.169223, , 
28.26, 0.176981, , 
28.29, 0.184924, , 
28.32, 0.193034, , 
28.35, 0.201262, , 
28.38, 0.211051, , 
28.41, 0.219568, , 
28.44, 0.229654, , 
28.47, 0.238317, , 
28.50, 0.245495, , 
28.53, 0.255493, , 
28.56, 0.263987, , 
28.59, 0.273703, , 
28.62, 0.281871, , 
28.65, 0.289861, , 
28.68, 0.298904, , 
28.71, 0.305172, , 
28.74, 0.312439, , 
28.77, 0.320597, , 
28.79, 0.324032, 9, 0.586
28.80, 0.327379, , 
28.83, 0.334940, , 
28.86, 0.341056, , 
28.89, 0.346861, , 
28.92, 0.352339, , 
28.95, 0.357429, , 
28.98, 0.362853, , 
29.01, 0.367113, , 
29.04, 0.371021, , 
29.07, 0.375062, , 
29.10, 0.378110, , 
29.13, 0.380832, , 
29.16, 0.383236, , 
29.19, 0.385298, , 
29.22, 0.387287, , 
29.25, 0.388702, , 
29.28, 0.389920, , 
29.31, 0.390592, , 
29.34, 0.390922, , 
29.37, 0.391087, , 
29.40, 0.390954, , 
29.43, 0.390408, , 
29.46, 0.389618, , 
29.49, 0.388594, , 
29.52, 0.387081, , 
29.55, 0.385815, , 
29.58, 0.383788, , 
29.61, 0.381815, , 
29.64, 0.379322, , 
29.67, 0.377000, , 
29.70, 0.374904, , 
29.73, 0.371779, , 
29.76, 0.368944, , 
29.79, 0.365473, , 
29.82, 0.362419, , 
29.85, 0.359234, , 
29.88, 0.355384, , 
29.91, 0.352599, , 
29.94, 0.348596, , 
29.97, 0.345126, , 
30.00, 0.341589, , 
30.03, 0.337389, , 
30.06, 0.333732, , 
30.10, 0.329434, , 
30.12, 0.326398, , 
30.15, 0.322703, , 
30.18, 0.318367, , 
30.21, 0.314672, , 
30.24, 0.310367, , 
30.27, 0.306663, , 
30.30, 0.302932, , 
30.33, 0.299250, , 
30.36, 0.295545, , 
30.39, 0.291215, , 
30.42, 0.287495, , 
30.45, 0.283793, , 
30.48, 0.279555, , 
30.51, 0.276580, , 
30.54, 0.272431, , 
30.57, 0.268913, , 
30.60, 0.265415, , 
30.63, 0.261383, , 
30.66, 0.257999, , 
30.69, 0.254123, , 
30.72, 0.251369, , 
30.75, 0.248080, , 
30.78, 0.244274, , 
30.81, 0.241048, , 
30.84, 0.237378, , 
30.87, 0.234270, , 
30.90, 0.231196, , 
30.93, 0.228138, , 
30.96, 0.225144, , 
30.99, 0.221687, , 
31.02, 0.218756, , 
31.05, 0.216136, , 
31.08, 0.212574, , 
31.11, 0.209722, , 
31.14, 0.206950, , 
31.17, 0.204266, , 
31.20, 0.201675, , 
31.23, 0.198706, , 
31.26, 0.196184, , 
31.29, 0.193298, , 
31.32, 0.190824, , 
31.35, 0.188765, , 
31.38, 0.185974, , 
31.41, 0.183649, , 
31.44, 0.180949, , 
31.47, 0.178694, , 
31.50, 0.176493, , 
31.53, 0.173974, , 
31.56, 0.172195, , 
31.59, 0.169648, , 
31.62, 0.167513, , 
31.65, 0.165470, , 
31.68, 0.163123, , 
31.71, 0.161131, , 
31.74, 0.158828, , 
31.77, 0.157185, , 
31.80, 0.155326, , 
31.83, 0.153195, , 
31.86, 0.151374, , 
31.89, 0.149243, , 
31.92, 0.147352, , 
31.96, 0.145487, , 
31.98, 0.143641, , 
31.99, 0.143035, 10, 0.587
32.01, 0.141862, , 
32.04, 0.140133, , 
32.07, 0.138192, , 
32.10, 0.136549, , 
32.13, 0.134937, , 
32.16, 0.133053, , 
32.19, 0.131467, , 
32.22, 0.129922, , 
32.25, 0.128451, , 
32.28, 0.126985, , 
32.31, 0.125234, , 
32.34, 0.123785, , 
32.37, 0.122208, , 
32.40, 0.120962, , 
32.43, 0.119944, , 
32.46, 0.118529, , 
32.49, 0.117371, , 
32.52, 0.116048, , 
32.55, 0.114913, , 
32.58, 0.113815, , 
32.61, 0.112550, , 
32.64, 0.111636, , 
32.67, 0.110336, , 
32.70, 0.109229, , 
32.73, 0.108119, , 
32.76, 0.106850, , 
32.79, 0.105743, , 
32.82, 0.104522, , 
32.85, 0.103548, , 
32.88, 0.102488, , 
32.91, 0.101267, , 
32.94, 0.100227, , 
32.97, 0.099009, , 
33.00, 0.098045, , 
33.03, 0.097058, , 
33.06, 0.096081, , 
33.09, 0.095076, , 
33.12, 0.093867, , 
33.15, 0.092890, , 
33.18, 0.091967, , 
33.21, 0.090933, , 
33.24, 0.090048, , 
33.27, 0.089166, , 
33.30, 0.088383, , 
33.33, 0.087653, , 
33.36, 0.086816, , 
33.39, 0.086128, , 
33.42, 0.085290, , 
33.46, 0.084564, , 
33.48, 0.083986, , 
33.51, 0.083168, , 
33.54, 0.082518, , 
33.57, 0.081779, , 
33.60, 0.081122, , 
33.63, 0.080459, , 
33.66, 0.079803, , 
33.69, 0.079133, , 
33.72, 0.078366, , 
33.75, 0.077716, , 
33.78, 0.077046, , 
33.81, 0.076323, , 
33.84, 0.075657, , 
33.87, 0.074972, , 
33.90, 0.074303, , 
33.93, 0.073687, , 
33.96, 0.072989, , 
33.99, 0.072387, , 
34.02, 0.071683, , 
34.05, 0.071118, , 
34.08, 0.070680, , 
34.11, 0.070043, , 
34.14, 0.069478, , 
34.17, 0.068837, , 
34.20, 0.068314, , 
34.23, 0.067784, , 
34.26, 0.067232, , 
34.29, 0.066874, , 
34.32, 0.066401, , 
34.35, 0.065951, , 
34.38, 0.065500, , 
34.41, 0.065018, , 
34.44, 0.064562, , 
34.47, 0.064121, , 
34.50, 0.063870, , 
34.53, 0.063547, , 
34.56, 0.063153, , 
34.59, 0.062760, , 
34.62, 0.062281, , 
34.65, 0.061853, , 
34.68, 0.061463, , 
34.71, 0.061072, , 
34.74, 0.060743, , 
34.78, 0.060444, , 
34.80, 0.060042, , 
34.83, 0.059629, , 
34.86, 0.059236, , 
34.89, 0.058728, , 
34.92, 0.058338, , 
34.95, 0.057954, , 
34.98, 0.057701, , 
35.01, 0.057380, , 
35.04, 0.056914, , 
35.07, 0.056575, , 
35.10, 0.056248, , 
35.13, 0.055962, , 
35.16, 0.055658, , 
35.19, 0.055363, 11, 0.586
35.20, 0.055315, , 
35.22, 0.055068, , 
35.25, 0.054706, , 
35.28, 0.054418, , 
35.31, 0.054135, , 
35.34, 0.053901, , 
35.37, 0.053688, , 
35.40, 0.053460, , 
35.43, 0.053209, , 
35.46, 0.053016, , 
35.49, 0.052825, , 
35.52, 0.052530, , 
35.55, 0.052302, , 
35.58, 0.052029, , 
35.61, 0.051829, , 
35.64, 0.051645, , 
35.67, 0.051398, , 
35.70, 0.051192, , 
35.73, 0.050944, , 
35.76, 0.050713, , 
35.79, 0.050488, , 
35.82, 0.050240, , 
35.85, 0.050047, , 
35.88, 0.049796, , 
35.91, 0.049558, , 
35.94, 0.049374, , 
35.97, 0.049098, , 
36.00, 0.048873, , 
36.03, 0.048623, , 
36.06, 0.048486, , 
36.09, 0.048305, , 
36.12, 0.048128, , 
36.15, 0.047931, , 
36.18, 0.047747, , 
36.21, 0.047570, , 
36.24, 0.047401, , 
36.27, 0.047328, , 
36.30, 0.047224, , 
36.33, 0.047037, , 
36.36, 0.046926, , 
36.39, 0.046777, , 
36.42, 0.046650, , 
36.45, 0.046516, , 
36.48, 0.046367, , 
36.51, 0.046288, , 
36.54, 0.046202, , 
36.57, 0.046006, , 
36.60, 0.045879, , 
36.63, 0.045793, , 
36.66, 0.045733, , 
36.69, 0.045593, , 
36.72, 0.045419, , 
36.75, 0.045333, , 
36.78, 0.045257, , 
36.81, 0.045108, , 
36.84, 0.044949, , 
36.87, 0.044848, , 
36.90, 0.044778, , 
36.93, 0.044651, , 
36.96, 0.044474, , 
36.99, 0.044369, , 
37.02, 0.044280, , 
37.05, 0.044242, , 
37.08, 0.044214, , 
37.11, 0.044195, , 
37.14, 0.044182, , 
37.17, 0.044172, , 
37.20, 0.044166, , 
37.23, 0.044179, , 
37.26, 0.044204, , 
37.29, 0.044204, , 
37.32, 0.044195, , 
37.35, 0.044185, , 
37.38, 0.044179, , 
37.41, 0.044157, , 
37.44, 0.044144, , 
37.47, 0.044141, , 
37.50, 0.044147, , 
37.53, 0.044147, , 
37.56, 0.044141, , 
37.59, 0.044150, , 
37.62, 0.044172, , 
37.65, 0.044204, , 
37.68, 0.044293, , 
37.71, 0.044420, , 
37.74, 0.044534, , 
37.77, 0.044553, , 
37.80, 0.044604, , 
37.83, 0.044737, , 
37.86, 0.044892, , 
37.89, 0.045000, , 
37.92, 0.045092, , 
37.95, 0.045264, , 
37.98, 0.045508, , 
38.01, 0.045733, , 
38.04, 0.045977, , 
38.07, 0.046174, , 
38.10, 0.046402, , 
38.13, 0.046681, , 
38.16, 0.046995, , 
38.19, 0.047395, , 
38.22, 0.047734, , 
38.25, 0.048020, , 
38.28, 0.048290, , 
38.31, 0.048680, , 
38.34, 0.049187, , 
38.37, 0.049584, , 
38.38, 0.049704, 12, 0.583
38.40, 0.050028, , 
38.43, 0.050554, , 
38.46, 0.050910, , 
38.49, 0.051414, , 
38.52, 0.051858, , 
38.55, 0.052391, , 
38.58, 0.053057, , 
38.61, 0.053580, , 
38.64, 0.054177, , 
38.67, 0.054659, , 
38.70, 0.055246, , 
38.73, 0.055880, , 
38.76, 0.056422, , 
38.79, 0.057012, , 
38.82, 0.057606, , 
38.85, 0.058183, , 
38.88, 0.058738, , 
38.91, 0.059302, , 
38.94, 0.059994, , 
38.97, 0.060552, , 
39.00, 0.061133, , 
39.03, 0.061853, , 
39.06, 0.062452, , 
39.09, 0.062988, , 
39.12, 0.063534, , 
39.15, 0.064117, , 
39.18, 0.064774, , 
39.21, 0.065316, , 
39.24, 0.065868, , 
39.27, 0.066341, , 
39.30, 0.066801, , 
39.33, 0.067232, , 
39.36, 0.067635, , 
39.39, 0.068022, , 
39.42, 0.068415, , 
39.45, 0.068717, , 
39.48, 0.069063, , 
39.51, 0.069354, , 
39.54, 0.069583, , 
39.57, 0.069798, , 
39.60, 0.069935, , 
39.63, 0.070036, , 
39.66, 0.070182, , 
39.69, 0.070309, , 
39.73, 0.070433, , 
39.75, 0.070496, , 
39.78, 0.070477, , 
39.81, 0.070341, , 
39.84, 0.070255, , 
39.87, 0.070160, , 
39.90, 0.070093, , 
39.94, 0.069928, , 
39.96, 0.069805, , 
39.99, 0.069599, , 
40.02, 0.069370, , 
40.05, 0.069142, , 
40.08, 0.068840, , 
40.11, 0.068596, , 
40.15, 0.068320, , 
40.17, 0.068000, , 
40.20, 0.067692, , 
40.23, 0.067261, , 
40.26, 0.066874, , 
40.29, 0.066503, , 
40.32, 0.066151, , 
40.35, 0.065900, , 
40.38, 0.065478, , 
40.41, 0.065069, , 
40.44, 0.064654, , 
40.47, 0.064178, , 
40.50, 0.063765, , 
40.53, 0.063229, , 
40.56, 0.062852, , 
40.59, 0.062436, , 
40.62, 0.061942, , 
40.65, 0.061513, , 
40.68, 0.060965, , 
40.71, 0.060568, , 
40.74, 0.060130, , 
40.77, 0.059667, , 
40.80, 0.059252, , 
40.83, 0.058751, , 
40.86, 0.058297, , 
40.89, 0.057900, , 
40.92, 0.057529, , 
40.95, 0.057212, , 
40.98, 0.056857, , 
41.01, 0.056457, , 
41.04, 0.056032, , 
41.07, 0.055544, , 
41.10, 0.055173, , 
41.13, 0.054802, , 
41.17, 0.054456, , 
41.19, 0.054154, , 
41.22, 0.053764, , 
41.25, 0.053479, , 
41.28, 0.053098, , 
41.31, 0.052743, , 
41.34, 0.052423, , 
41.37, 0.052093, , 
41.40, 0.051810, , 
41.43, 0.051515, , 
41.46, 0.051262, , 
41.49, 0.050967, , 
41.52, 0.050656, , 
41.55, 0.050377, , 
41.58, 0.050079, , 
41.59, 0.050028, 13, 0.586
41.61, 0.049717, , 
41.64, 0.049492, , 
41.67, 0.049238, , 
41.70, 0.048991, , 
41.73, 0.048743, , 
41.76, 0.048518, , 
41.79, 0.048296, , 
41.82, 0.048055, , 
41.85, 0.047814, , 
41.88, 0.047601, , 
41.91, 0.047351, , 
41.94, 0.047113, , 
41.97, 0.046872, , 
42.00, 0.046650, , 
42.03, 0.046491, , 
42.06, 0.046326, , 
42.09, 0.046183, , 
42.12, 0.045965, , 
42.15, 0.045749, , 
42.18, 0.045524, , 
42.21, 0.045375, , 
42.24, 0.045216, , 
42.27, 0.045041, , 
42.30, 0.044851, , 
42.33, 0.044639, , 
42.36, 0.044499, , 
42.39, 0.044347, , 
42.42, 0.044160, , 
42.45, 0.043941, , 
42.48, 0.043754, , 
42.51, 0.043608, , 
42.54, 0.043430, , 
42.57, 0.043278, , 
42.60, 0.043081, , 
42.63, 0.042888, , 
42.66, 0.042682, , 
42.69, 0.042498, , 
42.72, 0.042371, , 
42.75, 0.042298, , 
42.78, 0.042165, , 
42.81, 0.041996, , 
42.84, 0.041898, , 
42.87, 0.041809, , 
42.90, 0.041701, , 
42.93, 0.041527, , 
42.96, 0.041384, , 
42.99, 0.041327, , 
43.03, 0.041203, , 
43.05, 0.041073, , 
43.08, 0.040953, , 
43.11, 0.040855, , 
43.14, 0.040791, , 
43.17, 0.040737, , 
43.20, 0.040629, , 
43.23, 0.040512, , 
43.26, 0.040357, , 
43.29, 0.040293, , 
43.32, 0.040242, , 
43.35, 0.040223, , 
43.38, 0.040160, , 
43.41, 0.039998, , 
43.44, 0.039887, , 
43.47, 0.039808, , 
43.50, 0.039776, , 
43.53, 0.039716, , 
43.56, 0.039681, , 
43.59, 0.039665, , 
43.62, 0.039532, , 
43.65, 0.039424, , 
43.68, 0.039329, , 
43.71, 0.039192, , 
43.74, 0.039148, , 
43.77, 0.039129, , 
43.80, 0.039126, , 
43.83, 0.039116, , 
43.86, 0.039097, , 
43.89, 0.039094, , 
43.92, 0.039100, , 
43.95, 0.039091, , 
43.98, 0.039069, , 
44.01, 0.039053, , 
44.04, 0.039078, , 
44.07, 0.039069, , 
44.10, 0.039037, , 
44.13, 0.039034, , 
44.17, 0.039040, , 
44.19, 0.039059, , 
44.22, 0.039043, , 
44.25, 0.039018, , 
44.28, 0.039008, , 
44.31, 0.038999, , 
44.34, 0.038980, , 
44.37, 0.038986, , 
44.40, 0.039008, , 
44.43, 0.039024, , 
44.46, 0.039012, , 
44.49, 0.039031, , 
44.52, 0.039037, , 
44.55, 0.039037, , 
44.58, 0.039142, , 
44.61, 0.039269, , 
44.64, 0.039376, , 
44.67, 0.039440, , 
44.70, 0.039481, , 
44.73, 0.039529, , 
44.76, 0.039567, , 
44.78, 0.039640, 14, 0.585
44.79, 0.039703, , 
44.82, 0.039824, , 
44.85, 0.039928, , 
44.88, 0.040055, , 
44.91, 0.040201, , 
44.94, 0.040341, , 
44.97, 0.040477, , 
45.00, 0.040699, , 
45.03, 0.040832, , 
45.06, 0.041016, , 
45.09, 0.041289, , 
45.12, 0.041483, , 
45.15, 0.041755, , 
45.18, 0.042050, , 
45.21, 0.042320, , 
45.24, 0.042647, , 
45.27, 0.043037, , 
45.30, 0.043398, , 
45.33, 0.043868, , 
45.36, 0.044217, , 
45.39, 0.044509, , 
45.42, 0.044892, , 
45.45, 0.045425, , 
45.48, 0.046066, , 
45.51, 0.046504, , 
45.54, 0.046951, , 
45.57, 0.047497, , 
45.60, 0.048128, , 
45.63, 0.048696, , 
45.66, 0.049317, , 
45.69, 0.049980, , 
45.72, 0.050659, , 
45.75, 0.051423, , 
45.78, 0.052175, , 
45.81, 0.052889, , 
45.84, 0.053472, , 
45.87, 0.054304, , 
45.90, 0.055138, , 
45.93, 0.055928, , 
45.96, 0.056714, , 
45.99, 0.057561, , 
46.02, 0.057996, , 
46.05, 0.058960, , 
46.08, 0.059912, , 
46.11, 0.060730, , 
46.14, 0.061647, , 
46.18, 0.062373, , 
46.20, 0.062950, , 
46.23, 0.063870, , 
46.26, 0.064590, , 
46.29, 0.065424, , 
46.32, 0.066163, , 
46.35, 0.066874, , 
46.38, 0.067416, , 
46.41, 0.068323, , 
46.44, 0.068898, , 
46.47, 0.069494, , 
46.50, 0.070078, , 
46.53, 0.070436, , 
46.56, 0.071226, , 
46.59, 0.071762, , 
46.62, 0.072234, , 
46.65, 0.072615, , 
46.68, 0.072935, , 
46.71, 0.073300, , 
46.74, 0.073614, , 
46.77, 0.073852, , 
46.80, 0.074166, , 
46.83, 0.074315, , 
46.86, 0.074388, , 
46.89, 0.074480, , 
46.92, 0.074512, , 
46.95, 0.074499, , 
46.98, 0.074518, , 
47.01, 0.074490, , 
47.04, 0.074404, , 
47.07, 0.074296, , 
47.10, 0.074201, , 
47.13, 0.074046, , 
47.16, 0.073776, , 
47.19, 0.073557, , 
47.22, 0.073240, , 
47.25, 0.072904, , 
47.28, 0.072574, , 
47.31, 0.072304, , 
47.34, 0.071987, , 
47.37, 0.071651, , 
47.40, 0.071258, , 
47.43, 0.070817, , 
47.46, 0.070398, , 
47.49, 0.069890, , 
47.52, 0.069481, , 
47.55, 0.068971, , 
47.58, 0.068530, , 
47.61, 0.068120, , 
47.64, 0.067480, , 
47.67, 0.066912, , 
47.70, 0.066331, , 
47.73, 0.065862, , 
47.76, 0.065351, , 
47.79, 0.064711, , 
47.82, 0.064378, , 
47.85, 0.063616, , 
47.88, 0.063125, , 
47.91, 0.062582, , 
47.94, 0.061903, , 
47.97, 0.061345, , 
47.98, 0.061174, 15, 0.585
48.01, 0.060762, , 
48.03, 0.060359, , 
48.06, 0.059918, , 
48.09, 0.059417, , 
48.12, 0.058938, , 
48.15, 0.058433, , 
48.18, 0.058027, , 
48.22, 0.057590, , 
48.24, 0.057149, , 
48.27, 0.056702, , 
48.30, 0.056200, , 
48.33, 0.055769, , 
48.36, 0.055322, , 
48.39, 0.054830, , 
48.42, 0.054599, , 
48.45, 0.054262, , 
48.48, 0.053894, , 
48.51, 0.053492, , 
48.54, 0.053143, , 
48.57, 0.052851, , 
48.60, 0.052473, , 
48.63, 0.052175, , 
48.66, 0.051855, , 
48.69, 0.051515, , 
48.72, 0.051224, , 
48.75, 0.050929, , 
48.78, 0.050665, , 
48.81, 0.050367, , 
48.84, 0.050069, , 
48.87, 0.049815, , 
48.90, 0.049596, , 
48.93, 0.049305, , 
48.96, 0.049092, , 
48.99, 0.048880, , 
49.02, 0.048623, , 
49.05, 0.048410, , 
49.09, 0.048134, , 
49.11, 0.047988, , 
49.14, 0.047871, , 
49.17, 0.047671, , 
49.20, 0.047471, , 
49.23, 0.047202, , 
49.26, 0.047021, , 
49.29, 0.046922, , 
49.32, 0.046729, , 
49.35, 0.046593, , 
49.38, 0.046428, , 
49.41, 0.046288, , 
49.44, 0.046091, , 
49.47, 0.045920, , 
49.51, 0.045850, , 
49.53, 0.045765, , 
49.56, 0.045584, , 
49.59, 0.045454, , 
49.62, 0.045333, , 
49.65, 0.045244, , 
49.68, 0.045105, , 
49.71, 0.044991, , 
49.74, 0.044889, , 
49.77, 0.044788, , 
49.80, 0.044727, , 
49.83, 0.044686, , 
49.86, 0.044569, , 
49.89, 0.044429, , 
49.92, 0.044337, , 
49.95, 0.044372, , 
49.98, 0.044496, , 
50.01, 0.044572, , 
50.04, 0.044654, , 
50.07, 0.044781, , 
50.10, 0.044927, , 
50.13, 0.045054, , 
50.16, 0.045137, , 
50.19, 0.045194, , 
50.22, 0.045235, , 
50.25, 0.045244, , 
50.28, 0.045248, , 
50.31, 0.045254, , 
50.34, 0.045279, , 
50.37, 0.045371, , 
50.40, 0.045479, , 
50.43, 0.045612, , 
50.46, 0.045682, , 
50.49, 0.045685, , 
50.52, 0.045571, , 
50.55, 0.045501, , 
50.58, 0.045533, , 
50.61, 0.045606, , 
50.64, 0.045695, , 
50.67, 0.045755, , 
50.70, 0.045841, , 
50.73, 0.045999, , 
50.76, 0.046193, , 
50.79, 0.046447, , 
50.82, 0.046659, , 
50.85, 0.046916, , 
50.88, 0.047236, , 
50.91, 0.047516, , 
50.94, 0.047782, , 
50.97, 0.048147, , 
51.00, 0.048531, , 
51.03, 0.048943, , 
51.06, 0.049406, , 
51.09, 0.049815, , 
51.12, 0.050348, , 
51.15, 0.050776, , 
51.18, 0.051220, 16, 0.586
51.19, 0.051293, , 
51.21, 0.051664, , 
51.24, 0.052102, , 
51.27, 0.052543, , 
51.30, 0.053085, , 
51.33, 0.053606, , 
51.36, 0.054183, , 
51.39, 0.054833, , 
51.42, 0.055395, , 
51.45, 0.055981, , 
51.48, 0.056610, , 
51.51, 0.057276, , 
51.54, 0.058034, , 
51.57, 0.058659, , 
51.60, 0.059452, , 
51.63, 0.060124, , 
51.66, 0.060625, , 
51.69, 0.061412, , 
51.72, 0.062126, , 
51.75, 0.062960, , 
51.78, 0.063642, , 
51.81, 0.064311, , 
51.84, 0.065079, , 
51.87, 0.065646, , 
51.90, 0.066401, , 
51.93, 0.067032, , 
51.96, 0.067667, , 
51.99, 0.068304, , 
52.02, 0.068809, , 
52.05, 0.069446, , 
52.08, 0.069944, , 
52.11, 0.070499, , 
52.14, 0.071042, , 
52.17, 0.071527, , 
52.20, 0.072006, , 
52.23, 0.072457, , 
52.26, 0.072771, , 
52.29, 0.073145, , 
52.32, 0.073421, , 
52.35, 0.073709, , 
52.38, 0.074020, , 
52.41, 0.074230, , 
52.44, 0.074382, , 
52.47, 0.074569, , 
52.50, 0.074734, , 
52.53, 0.074851, , 
52.56, 0.074959, , 
52.59, 0.074981, , 
52.62, 0.075016, , 
52.65, 0.075023, , 
52.68, 0.074994, , 
52.71, 0.074883, , 
52.74, 0.074763, , 
52.77, 0.074655, , 
52.80, 0.074496, , 
52.83, 0.074280, , 
52.86, 0.073976, , 
52.89, 0.073732, , 
52.92, 0.073386, , 
52.95, 0.073012, , 
52.98, 0.072612, , 
53.01, 0.072142, , 
53.04, 0.071803, , 
53.07, 0.071305, , 
53.10, 0.070864, , 
53.13, 0.070426, , 
53.16, 0.069941, , 
53.19, 0.069510, , 
53.23, 0.068986, , 
53.25, 0.068637, , 
53.28, 0.068206, , 
53.31, 0.067705, , 
53.34, 0.067201, , 
53.37, 0.066547, , 
53.40, 0.066005, , 
53.44, 0.065494, , 
53.46, 0.065031, , 
53.49, 0.064543, , 
53.52, 0.064016, , 
53.55, 0.063572, , 
53.58, 0.063118, , 
53.61, 0.062620, , 
53.64, 0.062198, , 
53.67, 0.061808, , 
53.70, 0.061323, , 
53.73, 0.060866, , 
53.76, 0.060425, , 
53.79, 0.059940, , 
53.82, 0.059490, , 
53.85, 0.059052, , 
53.88, 0.058548, , 
53.91, 0.058104, , 
53.94, 0.057663, , 
53.97, 0.057222, , 
54.00, 0.056803, , 
54.03, 0.056308, , 
54.06, 0.055991, , 
54.09, 0.055639, , 
54.12, 0.055284, , 
54.15, 0.055068, , 
54.18, 0.054868, , 
54.21, 0.054678, , 
54.24, 0.054478, , 
54.27, 0.054256, , 
54.30, 0.054031, , 
54.33, 0.053802, , 
54.36, 0.053622, , 
54.38, 0.053463, 17, 0.586
54.39, 0.053457, , 
54.42, 0.053282, , 
54.45, 0.053095, , 
54.48, 0.052936, , 
54.51, 0.052806, , 
54.54, 0.052629, , 
54.57, 0.052464, , 
54.60, 0.052359, , 
54.63, 0.052156, , 
54.66, 0.051991, , 
54.69, 0.051861, , 
54.72, 0.051706, , 
54.75, 0.051522, , 
54.78, 0.051392, , 
54.81, 0.051319, , 
54.84, 0.051243, , 
54.87, 0.051176, , 
54.90, 0.051043, , 
54.93, 0.050913, , 
54.96, 0.050833, , 
54.99, 0.050732, , 
55.02, 0.050672, , 
55.05, 0.050691, , 
55.08, 0.050707, , 
55.11, 0.050754, , 
55.14, 0.050871, , 
55.17, 0.051011, , 
55.20, 0.051103, , 
55.23, 0.051154, , 
55.27, 0.051220, , 
55.29, 0.051309, , 
55.32, 0.051455, , 
55.35, 0.051572, , 
55.38, 0.051649, , 
55.41, 0.051760, , 
55.44, 0.051890, , 
55.47, 0.052070, , 
55.50, 0.052318, , 
55.53, 0.052502, , 
55.56, 0.052746, , 
55.59, 0.052952, , 
55.62, 0.053200, , 
55.65, 0.053526, , 
55.68, 0.053945, , 
55.71, 0.054326, , 
55.74, 0.054735, , 
55.77, 0.055246, , 
55.80, 0.055671, , 
55.83, 0.056089, , 
55.86, 0.056511, , 
55.89, 0.056968, , 
55.92, 0.057488, , 
55.95, 0.057916, , 
55.98, 0.058452, , 
56.01, 0.058982, , 
56.04, 0.059445, , 
56.07, 0.060083, , 
56.10, 0.060597, , 
56.13, 0.061152, , 
56.16, 0.061628, , 
56.19, 0.062192, , 
56.22, 0.062861, , 
56.25, 0.063305, , 
56.28, 0.063876, , 
56.31, 0.064320, , 
56.34, 0.064695, , 
56.37, 0.065294, , 
56.40, 0.065716, , 
56.43, 0.066154, , 
56.46, 0.066607, , 
56.49, 0.067064, , 
56.52, 0.067622, , 
56.55, 0.068165, , 
56.58, 0.068669, , 
56.61, 0.069129, , 
56.64, 0.069538, , 
56.67, 0.069890, , 
56.70, 0.070290, , 
56.73, 0.070794, , 
56.76, 0.071286, , 
56.79, 0.071841, , 
56.82, 0.072406, , 
56.85, 0.072732, , 
56.88, 0.073066, , 
56.91, 0.073326, , 
56.94, 0.073595, , 
56.97, 0.073830, , 
57.00, 0.073970, , 
57.03, 0.074169, , 
57.06, 0.074293, , 
57.09, 0.074379, , 
57.12, 0.074480, , 
57.15, 0.074515, , 
57.18, 0.074528, , 
57.21, 0.074556, , 
57.24, 0.074515, , 
57.27, 0.074322, , 
57.30, 0.074096, , 
57.33, 0.073795, , 
57.36, 0.073440, , 
57.39, 0.073151, , 
57.42, 0.072885, , 
57.45, 0.072672, , 
57.48, 0.072361, , 
57.51, 0.072101, , 
57.54, 0.071860, , 
57.57, 0.071521, , 
57.58, 0.071470, 18, 0.585
57.60, 0.071242, , 
57.63, 0.070921, , 
57.66, 0.070607, , 
57.70, 0.070303, , 
57.72, 0.070014, , 
57.75, 0.069732, , 
57.78, 0.069437, , 
57.81, 0.069091, , 
57.84, 0.068806, , 
57.87, 0.068466, , 
57.91, 0.068127, , 
57.93, 0.067825, , 
57.96, 0.067331, , 
57.99, 0.067023, , 
58.02, 0.066734, , 
58.05, 0.066316, , 
58.08, 0.065951, , 
58.11, 0.065589, , 
58.14, 0.065345, , 
58.17, 0.065031, , 
58.20, 0.064571, , 
58.23, 0.064194, , 
58.26, 0.063807, , 
58.29, 0.063515, , 
58.32, 0.063217, , 
58.35, 0.062953, , 
58.38, 0.062719, , 
58.41, 0.062500, , 
58.44, 0.062214, , 
58.47, 0.061999, , 
58.50, 0.061742, , 
58.53, 0.061513, , 
58.56, 0.061371, , 
58.59, 0.061228, , 
58.62, 0.061050, , 
58.65, 0.060825, , 
58.68, 0.060616, , 
58.71, 0.060429, , 
58.74, 0.060260, , 
58.77, 0.060080, , 
58.80, 0.059826, , 
58.83, 0.059553, , 
58.86, 0.059315, , 
58.89, 0.059046, , 
58.92, 0.058874, , 
58.95, 0.058770, , 
58.98, 0.058671, , 
59.01, 0.058595, , 
59.04, 0.058389, , 
59.07, 0.058284, , 
59.10, 0.058230, , 
59.13, 0.058199, , 
59.16, 0.058180, , 
59.19, 0.058211, , 
59.22, 0.058284, , 
59.25, 0.058421, , 
59.28, 0.058544, , 
59.31, 0.058649, , 
59.34, 0.058881, , 
59.37, 0.059074, , 
59.41, 0.059350, , 
59.43, 0.059563, , 
59.46, 0.059826, , 
59.49, 0.060102, , 
59.52, 0.060448, , 
59.55, 0.060717, , 
59.58, 0.061003, , 
59.61, 0.061396, , 
59.64, 0.061758, , 
59.67, 0.062217, , 
59.70, 0.062643, , 
59.73, 0.063055, , 
59.76, 0.063416, , 
59.79, 0.063750, , 
59.82, 0.064127, , 
59.85, 0.064466, , 
59.88, 0.064831, , 
59.91, 0.065307, , 
59.94, 0.065754, , 
59.97, 0.066255, , 
60.00, 0.066810, , 
60.03, 0.067305, , 
60.06, 0.067746, , 
60.09, 0.068082, , 
60.12, 0.068542, , 
60.15, 0.068882, , 
60.18, 0.069285, , 
60.21, 0.069760, , 
60.24, 0.070189, , 
60.27, 0.070598, , 
60.30, 0.070896, , 
60.33, 0.071238, , 
60.36, 0.071518, , 
60.39, 0.071784, , 
60.42, 0.072104, , 
60.45, 0.072320, , 
60.48, 0.072533, , 
60.51, 0.072761, , 
60.54, 0.072888, , 
60.57, 0.072970, , 
60.60, 0.073113, , 
60.63, 0.073265, , 
60.66, 0.073389, , 
60.69, 0.073443, , 
60.72, 0.073462, , 
60.75, 0.073487, , 
60.78, 0.073443, , 
60.79, 0.073427, 19, 0.587
60.81, 0.073326, , 
60.84, 0.073221, , 
60.87, 0.073138, , 
60.90, 0.073059, , 
60.93, 0.072913, , 
60.96, 0.072732, , 
60.99, 0.072637, , 
61.02, 0.072498, , 
61.05, 0.072304, , 
61.08, 0.072111, , 
61.11, 0.071863, , 
61.14, 0.071724, , 
61.17, 0.071416, , 
61.20, 0.071108, , 
61.23, 0.070772, , 
61.26, 0.070525, , 
61.29, 0.070309, , 
61.32, 0.070024, , 
61.35, 0.069846, , 
61.38, 0.069602, , 
61.41, 0.069323, , 
61.44, 0.069015, , 
61.47, 0.068707, , 
61.50, 0.068479, , 
61.53, 0.068238, , 
61.56, 0.067952, , 
61.59, 0.067664, , 
61.62, 0.067353, , 
61.65, 0.067099, , 
61.68, 0.066814, , 
61.71, 0.066684, , 
61.74, 0.066563, , 
61.77, 0.066351, , 
61.80, 0.066106, , 
61.83, 0.065938, , 
61.86, 0.065757, , 
61.89, 0.065608, , 
61.92, 0.065434, , 
61.95, 0.065240, , 
61.98, 0.065155, , 
62.01, 0.065113, , 
62.04, 0.065050, , 
62.07, 0.065028, , 
62.10, 0.065037, , 
62.13, 0.065025, , 
62.16, 0.065006, , 
62.19, 0.065021, , 
62.22, 0.065085, , 
62.25, 0.065202, , 
62.28, 0.065304, , 
62.31, 0.065421, , 
62.34, 0.065491, , 
62.37, 0.065624, , 
62.40, 0.065764, , 
62.43, 0.065964, , 
62.46, 0.066132, , 
62.49, 0.066325, , 
62.52, 0.066481, , 
62.55, 0.066738, , 
62.58, 0.067026, , 
62.61, 0.067255, , 
62.64, 0.067578, , 
62.67, 0.067829, , 
62.70, 0.068168, , 
62.73, 0.068431, , 
62.76, 0.068726, , 
62.79, 0.069164, , 
62.82, 0.069488, , 
62.85, 0.069833, , 
62.88, 0.070103, , 
62.91, 0.070452, , 
62.94, 0.070848, , 
62.97, 0.071131, , 
63.00, 0.071416, , 
63.03, 0.071803, , 
63.06, 0.072095, , 
63.09, 0.072352, , 
63.12, 0.072596, , 
63.15, 0.072859, , 
63.18, 0.073104, , 
63.21, 0.073313, , 
63.24, 0.073554, , 
63.27, 0.073722, , 
63.30, 0.073789, , 
63.33, 0.073916, , 
63.36, 0.074065, , 
63.39, 0.074245, , 
63.42, 0.074315, , 
63.45, 0.074350, , 
63.48, 0.074363, , 
63.51, 0.074382, , 
63.54, 0.074360, , 
63.57, 0.074242, , 
63.60, 0.074106, , 
63.63, 0.074036, , 
63.66, 0.074011, , 
63.69, 0.073989, , 
63.72, 0.073947, , 
63.75, 0.073919, , 
63.78, 0.073824, , 
63.81, 0.073709, , 
63.84, 0.073443, , 
63.87, 0.073253, , 
63.90, 0.073129, , 
63.93, 0.072954, , 
63.96, 0.072777, , 
63.98, 0.072666, 20, 0.585
63.99, 0.072561, , 
64.02, 0.072374, , 
64.05, 0.072155, , 
64.08, 0.071882, , 
64.12, 0.071689, , 
64.14, 0.071461, , 
64.17, 0.071270, , 
64.20, 0.071074, , 
64.23, 0.070740, , 
64.26, 0.070553, , 
64.29, 0.070312, , 
64.32, 0.070157, , 
64.36, 0.070068, , 
64.38, 0.069960, , 
64.41, 0.069814, , 
64.44, 0.069691, , 
64.47, 0.069548, , 
64.50, 0.069503, , 
64.53, 0.069478, , 
64.56, 0.069446, , 
64.59, 0.069430, , 
64.62, 0.069450, , 
64.65, 0.069484, , 
64.68, 0.069529, , 
64.71, 0.069633, , 
64.74, 0.069824, , 
64.77, 0.070020, , 
64.80, 0.070170, , 
64.83, 0.070328, , 
64.86, 0.070509, , 
64.89, 0.070706, , 
64.92, 0.070905, , 
64.95, 0.071102, , 
64.98, 0.071302, , 
65.01, 0.071549, , 
65.04, 0.071775, , 
65.07, 0.071997, , 
65.10, 0.072174, , 
65.13, 0.072358, , 
65.16, 0.072533, , 
65.19, 0.072656, , 
65.22, 0.072793, , 
65.25, 0.072888, , 
65.28, 0.073012, , 
65.31, 0.073167, , 
65.34, 0.073278, , 
65.37, 0.073361, , 
65.40, 0.073402, , 
65.43, 0.073468, , 
65.46, 0.073602, , 
65.49, 0.073757, , 
65.52, 0.073855, , 
65.55, 0.073912, , 
65.58, 0.073944, , 
65.61, 0.073966, , 
65.64, 0.073954, , 
65.67, 0.073947, , 
65.70, 0.073963, , 
65.73, 0.073960, , 
65.76, 0.073954, , 
65.79, 0.073938, , 
65.82, 0.073944, , 
65.85, 0.073957, , 
65.88, 0.073944, , 
65.91, 0.073903, , 
65.94, 0.073839, , 
65.97, 0.073706, , 
66.00, 0.073586, , 
66.03, 0.073487, , 
66.06, 0.073405, , 
66.09, 0.073275, , 
66.12, 0.073104, , 
66.15, 0.072980, , 
66.18, 0.072828, , 
66.21, 0.072650, , 
66.24, 0.072539, , 
66.27, 0.072361, , 
66.30, 0.072238, , 
66.33, 0.072120, , 
66.36, 0.071930, , 
66.39, 0.071752, , 
66.42, 0.071616, , 
66.45, 0.071521, , 
66.48, 0.071337, , 
66.51, 0.071178, , 
66.54, 0.071099, , 
66.57, 0.071048, , 
66.60, 0.071004, , 
66.63, 0.070994, , 
66.66, 0.071004, , 
66.69, 0.071023, , 
66.72, 0.071020, , 
66.75, 0.071013, , 
66.78, 0.071026, , 
66.81, 0.071026, , 
66.84, 0.071010, , 
66.87, 0.071045, , 
66.90, 0.071162, , 
66.93, 0.071289, , 
66.96, 0.071419, , 
66.99, 0.071584, , 
67.02, 0.071759, , 
67.05, 0.071863, , 
67.08, 0.071905, , 
67.11, 0.072022, , 
67.14, 0.072174, , 
67.17, 0.072320, , 
67.18, 0.072333, 21, 0.585
67.20, 0.072396, , 
67.23, 0.072431, , 
67.26, 0.072485, , 
67.29, 0.072612, , 
67.32, 0.072745, , 
67.35, 0.072831, , 
67.38, 0.072882, , 
67.41, 0.072942, , 
67.44, 0.072951, , 
67.47, 0.072951, , 
67.50, 0.072967, , 
67.53, 0.072945, , 
67.56, 0.072932, , 
67.59, 0.072920, , 
67.62, 0.072954, , 
67.65, 0.072951, , 
67.68, 0.072929, , 
67.71, 0.072916, , 
67.74, 0.072910, , 
67.77, 0.072920, , 
67.80, 0.072859, , 
67.83, 0.072710, , 
67.86, 0.072596, , 
67.89, 0.072523, , 
67.92, 0.072425, , 
67.95, 0.072288, , 
67.98, 0.072155, , 
68.01, 0.072019, , 
68.04, 0.071876, , 
68.07, 0.071689, , 
68.10, 0.071603, , 
68.13, 0.071480, , 
68.16, 0.071264, , 
68.19, 0.071048, , 
68.22, 0.070829, , 
68.25, 0.070702, , 
68.28, 0.070585, , 
68.31, 0.070490, , 
68.34, 0.070395, , 
68.37, 0.070258, , 
68.40, 0.070122, , 
68.43, 0.070052, , 
68.46, 0.069913, , 
68.49, 0.069868, , 
68.52, 0.069878, , 
68.55, 0.069916, , 
68.58, 0.069951, , 
68.61, 0.069957, , 
68.64, 0.070024, , 
68.67, 0.070151, , 
68.70, 0.070293, , 
68.73, 0.070388, , 
68.76, 0.070439, , 
68.79, 0.070452, , 
68.82, 0.070557, , 
68.85, 0.070725, , 
68.88, 0.070836, , 
68.91, 0.070918, , 
68.94, 0.070940, , 
68.97, 0.070966, , 
69.00, 0.070972, , 
69.03, 0.070969, , 
69.06, 0.070912, , 
69.09, 0.070823, , 
69.12, 0.070680, , 
69.15, 0.070579, , 
69.18, 0.070569, , 
69.21, 0.070522, , 
69.24, 0.070484, , 
69.27, 0.070452, , 
69.30, 0.070449, , 
69.33, 0.070449, , 
69.36, 0.070411, , 
69.39, 0.070284, , 
69.42, 0.070182, , 
69.45, 0.070093, , 
69.48, 0.070020, , 
69.51, 0.069862, , 
69.55, 0.069725, , 
69.57, 0.069649, , 
69.60, 0.069541, , 
69.63, 0.069421, , 
69.66, 0.069259, , 
69.69, 0.069145, , 
69.72, 0.069034, , 
69.75, 0.068955, , 
69.78, 0.068840, , 
69.81, 0.068682, , 
69.84, 0.068565, , 
69.87, 0.068492, , 
69.90, 0.068454, , 
69.93, 0.068387, , 
69.96, 0.068228, , 
69.99, 0.068114, , 
70.02, 0.068019, , 
70.05, 0.067987, , 
70.08, 0.067965, , 
70.11, 0.067905, , 
70.14, 0.067794, , 
70.17, 0.067680, , 
70.20, 0.067584, , 
70.24, 0.067499, , 
70.26, 0.067483, , 
70.29, 0.067499, , 
70.32, 0.067467, , 
70.35, 0.067454, , 
70.38, 0.067454, 22, 0.586
70.38, 0.067467, , 
70.41, 0.067473, , 
70.44, 0.067499, , 
70.47, 0.067458, , 
70.50, 0.067496, , 
70.53, 0.067502, , 
70.56, 0.067467, , 
70.59, 0.067448, , 
70.62, 0.067454, , 
70.65, 0.067467, , 
70.68, 0.067448, , 
70.71, 0.067458, , 
70.74, 0.067467, , 
70.77, 0.067470, , 
70.81, 0.067470, , 
70.83, 0.067448, , 
70.86, 0.067340, , 
70.89, 0.067207, , 
70.92, 0.067096, , 
70.95, 0.066975, , 
70.98, 0.066896, , 
71.01, 0.066769, , 
71.04, 0.066614, , 
71.07, 0.066500, , 
71.10, 0.066312, , 
71.13, 0.066186, , 
71.16, 0.066068, , 
71.19, 0.065868, , 
71.22, 0.065732, , 
71.25, 0.065510, , 
71.28, 0.065329, , 
71.31, 0.065164, , 
71.34, 0.064980, , 
71.37, 0.064812, , 
71.40, 0.064679, , 
71.43, 0.064600, , 
71.46, 0.064520, , 
71.49, 0.064365, , 
71.52, 0.064232, , 
71.55, 0.064143, , 
71.58, 0.064098, , 
71.61, 0.064057, , 
71.64, 0.063949, , 
71.67, 0.063794, , 
71.70, 0.063661, , 
71.73, 0.063616, , 
71.76, 0.063594, , 
71.79, 0.063600, , 
71.82, 0.063534, , 
71.85, 0.063420, , 
71.89, 0.063252, , 
71.91, 0.063166, , 
71.94, 0.063137, , 
71.97, 0.063112, , 
72.00, 0.062991, , 
72.03, 0.062807, , 
72.06, 0.062722, , 
72.09, 0.062665, , 
72.12, 0.062579, , 
72.15, 0.062436, , 
72.18, 0.062290, , 
72.21, 0.062195, , 
72.24, 0.062157, , 
72.27, 0.062126, , 
72.30, 0.062100, , 
72.33, 0.062018, , 
72.36, 0.061865, , 
72.39, 0.061745, , 
72.42, 0.061675, , 
72.45, 0.061593, , 
72.48, 0.061437, , 
72.51, 0.061348, , 
72.54, 0.061244, , 
72.57, 0.061206, , 
72.60, 0.061152, , 
72.63, 0.060990, , 
72.66, 0.060869, , 
72.69, 0.060733, , 
72.72, 0.060666, , 
72.75, 0.060641, , 
72.78, 0.060552, , 
72.81, 0.060444, , 
72.84, 0.060305, , 
72.87, 0.060187, , 
72.90, 0.060121, , 
72.93, 0.060035, , 
72.96, 0.059873, , 
72.99, 0.059740, , 
73.02, 0.059623, , 
73.05, 0.059547, , 
73.08, 0.059417, , 
73.12, 0.059242, , 
73.14, 0.059191, , 
73.17, 0.059122, , 
73.20, 0.058992, , 
73.23, 0.058833, , 
73.26, 0.058665, , 
73.29, 0.058535, , 
73.32, 0.058402, , 
73.35, 0.058265, , 
73.38, 0.058145, , 
73.41, 0.058059, , 
73.44, 0.057891, , 
73.47, 0.057742, , 
73.50, 0.057697, , 
73.53, 0.057596, , 
73.56, 0.057450, , 
73.58, 0.057352, 23, 0.586
73.59, 0.057320, , 
73.62, 0.057206, , 
73.65, 0.057146, , 
73.68, 0.056990, , 
73.71, 0.056885, , 
73.74, 0.056708, , 
73.77, 0.056660, , 
73.80, 0.056590, , 
73.83, 0.056495, , 
73.86, 0.056353, , 
73.89, 0.056254, , 
73.92, 0.056191, , 
73.95, 0.056086, , 
73.98, 0.055943, , 
74.01, 0.055807, , 
74.04, 0.055699, , 
74.07, 0.055598, , 
74.10, 0.055483, , 
74.13, 0.055363, , 
74.16, 0.055198, , 
74.19, 0.055119, , 
74.22, 0.055055, , 
74.25, 0.054913, , 
74.28, 0.054770, , 
74.31, 0.054608, , 
74.34, 0.054459, , 
74.37, 0.054316, , 
74.40, 0.054177, , 
74.43, 0.054132, , 
74.46, 0.054091, , 
74.49, 0.054078, , 
74.52, 0.053993, , 
74.55, 0.053869, , 
74.58, 0.053733, , 
74.61, 0.053685, , 
74.64, 0.053637, , 
74.67, 0.053564, , 
74.70, 0.053441, , 
74.73, 0.053327, , 
74.76, 0.053266, , 
74.79, 0.053174, , 
74.82, 0.053120, , 
74.85, 0.053038, , 
74.88, 0.052882, , 
74.91, 0.052756, , 
74.94, 0.052683, , 
74.97, 0.052616, , 
75.00, 0.052486, , 
75.03, 0.052293, , 
75.06, 0.052210, , 
75.09, 0.052128, , 
75.12, 0.052001, , 
75.15, 0.051861, , 
75.18, 0.051737, , 
75.21, 0.051690, , 
75.24, 0.051630, , 
75.27, 0.051547, , 
75.30, 0.051423, , 
75.33, 0.051312, , 
75.36, 0.051249, , 
75.39, 0.051147, , 
75.42, 0.051151, , 
75.45, 0.051151, , 
75.48, 0.051021, , 
75.51, 0.050881, , 
75.54, 0.050783, , 
75.57, 0.050729, , 
75.60, 0.050703, , 
75.63, 0.050653, , 
75.66, 0.050640, , 
75.69, 0.050576, , 
75.72, 0.050462, , 
75.76, 0.050354, , 
75.78, 0.050278, , 
75.81, 0.050205, , 
75.84, 0.050069, , 
75.87, 0.049933, , 
75.90, 0.049793, , 
75.93, 0.049733, , 
75.96, 0.049606, , 
75.99, 0.049463, , 
76.02, 0.049365, , 
76.05, 0.049282, , 
76.08, 0.049238, , 
76.11, 0.049209, , 
76.14, 0.049076, , 
76.17, 0.048952, , 
76.20, 0.048832, , 
76.23, 0.048775, , 
76.26, 0.048708, , 
76.29, 0.048702, , 
76.32, 0.048645, , 
76.35, 0.048474, , 
76.38, 0.048369, , 
76.41, 0.048277, , 
76.44, 0.048226, , 
76.47, 0.048182, , 
76.50, 0.048194, , 
76.53, 0.048198, , 
76.56, 0.048090, , 
76.59, 0.047944, , 
76.62, 0.047842, , 
76.65, 0.047693, , 
76.68, 0.047535, , 
76.71, 0.047360, , 
76.74, 0.047309, , 
76.77, 0.047249, , 
76.78, 0.047170, 24, 0.586
76.80, 0.047065, , 
76.83, 0.046938, , 
76.86, 0.046818, , 
76.89, 0.046681, , 
76.92, 0.046507, , 
76.95, 0.046364, , 
76.98, 0.046304, , 
77.01, 0.046158, , 
77.04, 0.045999, , 
77.07, 0.045866, , 
77.10, 0.045717, , 
77.13, 0.045546, , 
77.16, 0.045390, , 
77.19, 0.045279, , 
77.22, 0.045251, , 
77.25, 0.045238, , 
77.28, 0.045225, , 
77.31, 0.045083, , 
77.34, 0.044965, , 
77.37, 0.044889, , 
77.40, 0.044823, , 
77.43, 0.044762, , 
77.46, 0.044702, , 
77.49, 0.044670, , 
77.52, 0.044569, , 
77.55, 0.044398, , 
77.58, 0.044328, , 
77.61, 0.044293, , 
77.64, 0.044271, , 
77.67, 0.044210, , 
77.70, 0.044125, , 
77.73, 0.043982, , 
77.76, 0.043887, , 
77.79, 0.043754, , 
77.82, 0.043655, , 
77.85, 0.043522, , 
77.88, 0.043389, , 
77.91, 0.043265, , 
77.94, 0.043167, , 
77.97, 0.043088, , 
78.00, 0.042897, , 
78.03, 0.042780, , 
78.06, 0.042697, , 
78.09, 0.042669, , 
78.12, 0.042653, , 
78.15, 0.042564, , 
78.18, 0.042444, , 
78.21, 0.042342, , 
78.24, 0.042218, , 
78.27, 0.042161, , 
78.30, 0.042139, , 
78.33, 0.042142, , 
78.36, 0.042107, , 
78.39, 0.042009, , 
78.42, 0.041879, , 
78.45, 0.041771, , 
78.48, 0.041670, , 
78.51, 0.041613, , 
78.54, 0.041609, , 
78.57, 0.041609, , 
78.60, 0.041613, , 
78.63, 0.041549, , 
78.66, 0.041454, , 
78.69, 0.041362, , 
78.72, 0.041311, , 
78.75, 0.041188, , 
78.78, 0.041162, , 
78.81, 0.041143, , 
78.84, 0.041105, , 
78.87, 0.041054, , 
78.90, 0.040899, , 
78.93, 0.040791, , 
78.96, 0.040718, , 
78.99, 0.040680, , 
79.02, 0.040677, , 
79.05, 0.040655, , 
79.09, 0.040617, , 
79.11, 0.040468, , 
79.14, 0.040331, , 
79.17, 0.040242, , 
79.20, 0.040188, , 
79.23, 0.040134, , 
79.26, 0.040109, , 
79.29, 0.040090, , 
79.32, 0.039922, , 
79.35, 0.039798, , 
79.38, 0.039722, , 
79.41, 0.039659, , 
79.44, 0.039643, , 
79.47, 0.039621, , 
79.50, 0.039548, , 
79.53, 0.039395, , 
79.56, 0.039243, , 
79.59, 0.039151, , 
79.62, 0.039062, , 
79.65, 0.038948, , 
79.68, 0.038815, , 
79.71, 0.038710, , 
79.74, 0.038641, , 
79.77, 0.038599, , 
79.80, 0.038526, , 
79.83, 0.038355, , 
79.86, 0.038247, , 
79.89, 0.038209, , 
79.92, 0.038152, , 
79.95, 0.038035, , 
79.98, 0.037901, , 
79.99, 0.037879, 25, 0.586
80.01, 0.037790, , 
80.04, 0.037702, , 
80.07, 0.037622, , 
80.10, 0.037613, , 
80.13, 0.037638, , 
80.16, 0.037578, , 
80.19, 0.037568, , 
80.22, 0.037587, , 
80.25, 0.037597, , 
80.28, 0.037495, , 
80.31, 0.037334, , 
80.34, 0.037270, , 
80.37, 0.037191, , 
80.40, 0.037115, , 
80.43, 0.037093, , 
80.46, 0.037055, , 
80.49, 0.037023, , 
80.52, 0.036931, , 
80.55, 0.036791, , 
80.58, 0.036712, , 
80.61, 0.036658, , 
80.64, 0.036601, , 
80.67, 0.036560, , 
80.70, 0.036547, , 
80.73, 0.036496, , 
80.76, 0.036373, , 
80.79, 0.036220, , 
80.82, 0.036198, , 
80.85, 0.036144, , 
80.88, 0.036081, , 
80.91, 0.036020, , 
80.94, 0.036024, , 
80.97, 0.035938, , 
81.00, 0.035802, , 
81.03, 0.035684, , 
81.06, 0.035611, , 
81.09, 0.035557, , 
81.12, 0.035529, , 
81.15, 0.035475, , 
81.18, 0.035507, , 
81.21, 0.035519, , 
81.24, 0.035503, , 
81.27, 0.035478, , 
81.30, 0.035507, , 
81.33, 0.035507, , 
81.36, 0.035450, , 
81.39, 0.035326, , 
81.42, 0.035231, , 
81.45, 0.035180, , 
81.48, 0.035110, , 
81.51, 0.035031, , 
81.54, 0.035034, , 
81.57, 0.035021, , 
81.60, 0.034907, , 
81.63, 0.034787, , 
81.66, 0.034707, , 
81.69, 0.034609, , 
81.72, 0.034552, , 
81.75, 0.034485, , 
81.78, 0.034320, , 
81.81, 0.034206, , 
81.84, 0.034127, , 
81.87, 0.034063, , 
81.90, 0.034051, , 
81.93, 0.034006, , 
81.96, 0.033917, , 
81.99, 0.033768, , 
82.02, 0.033648, , 
82.05, 0.033607, , 
82.08, 0.033569, , 
82.11, 0.033537, , 
82.14, 0.033553, , 
82.17, 0.033556, , 
82.20, 0.033527, , 
82.23, 0.033378, , 
82.26, 0.033264, , 
82.29, 0.033169, , 
82.32, 0.033105, , 
82.35, 0.033048, , 
82.38, 0.033080, , 
82.41, 0.033096, , 
82.44, 0.033052, , 
82.47, 0.033007, , 
82.50, 0.032909, , 
82.53, 0.032757, , 
82.56, 0.032636, , 
82.59, 0.032550, , 
82.62, 0.032525, , 
82.65, 0.032519, , 
82.68, 0.032503, , 
82.71, 0.032430, , 
82.74, 0.032249, , 
82.77, 0.032138, , 
82.80, 0.032059, , 
82.83, 0.032008, , 
82.86, 0.031992, , 
82.89, 0.031951, , 
82.92, 0.031837, , 
82.95, 0.031726, , 
82.98, 0.031631, , 
83.01, 0.031567, , 
83.04, 0.031516, , 
83.08, 0.031510, , 
83.10, 0.031488, , 
83.13, 0.031516, , 
83.16, 0.031532, , 
83.18, 0.031545, 26, 0.586
83.19, 0.031551, , 
83.22, 0.031570, , 
83.25, 0.031554, , 
83.28, 0.031513, , 
83.31, 0.031386, , 
83.34, 0.031221, , 
83.37, 0.031155, , 
83.40, 0.031085, , 
83.43, 0.031012, , 
83.46, 0.031037, , 
83.49, 0.031069, , 
83.52, 0.031031, , 
83.55, 0.031031, , 
83.58, 0.031047, , 
83.61, 0.031050, , 
83.64, 0.031022, , 
83.67, 0.031028, , 
83.70, 0.031034, , 
83.73, 0.031018, , 
83.76, 0.031006, , 
83.79, 0.030974, , 
83.82, 0.030968, , 
83.85, 0.030923, , 
83.88, 0.030758, , 
83.91, 0.030635, , 
83.94, 0.030536, , 
83.97, 0.030520, , 
84.00, 0.030476, , 
84.03, 0.030397, , 
84.06, 0.030384, , 
84.09, 0.030321, , 
84.12, 0.030210, , 
84.15, 0.030070, , 
84.18, 0.029987, , 
84.21, 0.029940, , 
84.24, 0.029918, , 
84.27, 0.029915, , 
84.30, 0.029902, , 
84.33, 0.029819, , 
84.36, 0.029699, , 
84.39, 0.029613, , 
84.42, 0.029524, , 
84.45, 0.029483, , 
84.48, 0.029378, , 
84.51, 0.029267, , 
84.54, 0.029153, , 
84.57, 0.029118, , 
84.60, 0.029093, , 
84.63, 0.029023, , 
84.66, 0.029030, , 
84.69, 0.029004, , 
84.72, 0.028887, , 
84.75, 0.028725, , 
84.78, 0.028658, , 
84.81, 0.028605, , 
84.84, 0.028547, , 
84.87, 0.028525, , 
84.90, 0.028503, , 
84.93, 0.028509, , 
84.96, 0.028516, , 
84.99, 0.028449, , 
85.02, 0.028329, , 
85.05, 0.028218, , 
85.08, 0.028119, , 
85.11, 0.028040, , 
85.14, 0.028037, , 
85.17, 0.028037, , 
85.20, 0.028002, , 
85.23, 0.027967, , 
85.26, 0.027935, , 
85.29, 0.027840, , 
85.32, 0.027637, , 
85.35, 0.027596, , 
85.38, 0.027570, , 
85.41, 0.027577, , 
85.44, 0.027523, , 
85.47, 0.027466, , 
85.50, 0.027386, , 
85.53, 0.027244, , 
85.56, 0.027161, , 
85.59, 0.027098, , 
85.62, 0.027082, , 
85.65, 0.027069, , 
85.68, 0.027034, , 
85.71, 0.027009, , 
85.74, 0.026990, , 
85.77, 0.026892, , 
85.80, 0.026730, , 
85.83, 0.026625, , 
85.86, 0.026587, , 
85.89, 0.026565, , 
85.92, 0.026536, , 
85.95, 0.026508, , 
85.98, 0.026521, , 
86.01, 0.026511, , 
86.04, 0.026505, , 
86.07, 0.026489, , 
86.10, 0.026511, , 
86.13, 0.026505, , 
86.16, 0.026479, , 
86.19, 0.026470, , 
86.22, 0.026473, , 
86.25, 0.026470, , 
86.28, 0.026463, , 
86.31, 0.026444, , 
86.34, 0.026444, , 
86.37, 0.026473, , 
86.39, 0.026470, 27, 0.587
86.40, 0.026473, , 
86.43, 0.026486, , 
86.46, 0.026498, , 
86.49, 0.026467, , 
86.52, 0.026337, , 
86.55, 0.026213, , 
86.58, 0.026137, , 
86.61, 0.026070, , 
86.64, 0.026000, , 
86.67, 0.025984, , 
86.70, 0.026019, , 
86.73, 0.026029, , 
86.76, 0.026019, , 
86.79, 0.026038, , 
86.82, 0.026035, , 
86.85, 0.026019, , 
86.88, 0.026019, , 
86.91, 0.026029, , 
86.94, 0.026019, , 
86.97, 0.026042, , 
87.00, 0.026029, , 
87.03, 0.026004, , 
87.06, 0.025994, , 
87.09, 0.026004, , 
87.12, 0.026004, , 
87.15, 0.025997, , 
87.18, 0.026007, , 
87.21, 0.026019, , 
87.24, 0.026026, , 
87.27, 0.026016, , 
87.30, 0.026029, , 
87.33, 0.026026, , 
87.36, 0.026010, , 
87.39, 0.025984, , 
87.42, 0.025984, , 
87.45, 0.025997, , 
87.48, 0.025988, , 
87.51, 0.025975, , 
87.54, 0.025978, , 
87.57, 0.025978, , 
87.60, 0.025969, , 
87.63, 0.025972, , 
87.66, 0.025994, , 
87.69, 0.025924, , 
87.72, 0.025734, , 
87.75, 0.025632, , 
87.78, 0.025563, , 
87.81, 0.025540, , 
87.84, 0.025471, , 
87.87, 0.025464, , 
87.90, 0.025467, , 
87.93, 0.025448, , 
87.96, 0.025439, , 
87.99, 0.025448, , 
88.02, 0.025464, , 
88.05, 0.025455, , 
88.08, 0.025414, , 
88.11, 0.025328, , 
88.14, 0.025239, , 
88.17, 0.025103, , 
88.20, 0.025049, , 
88.23, 0.024957, , 
88.26, 0.024944, , 
88.29, 0.024947, , 
88.32, 0.024938, , 
88.35, 0.024954, , 
88.38, 0.024957, , 
88.41, 0.024935, , 
88.44, 0.024900, , 
88.47, 0.024912, , 
88.50, 0.024931, , 
88.53, 0.024938, , 
88.56, 0.024897, , 
88.59, 0.024897, , 
88.62, 0.024935, , 
88.65, 0.024947, , 
88.68, 0.024925, , 
88.71, 0.024950, , 
88.74, 0.024969, , 
88.77, 0.024925, , 
88.80, 0.024900, , 
88.83, 0.024922, , 
88.87, 0.024935, , 
88.89, 0.024931, , 
88.92, 0.025052, , 
88.95, 0.025150, , 
88.98, 0.025245, , 
89.01, 0.025344, , 
89.04, 0.025350, , 
89.07, 0.025372, , 
89.10, 0.025417, , 
89.13, 0.025407, , 
89.16, 0.025353, , 
89.19, 0.025379, , 
89.22, 0.025404, , 
89.25, 0.025375, , 
89.28, 0.025375, , 
89.31, 0.025363, , 
89.34, 0.025385, , 
89.37, 0.025407, , 
89.40, 0.025414, , 
89.43, 0.025410, , 
89.46, 0.025407, , 
89.49, 0.025420, , 
89.52, 0.025398, , 
89.55, 0.025350, , 
89.58, 0.025366, , 
89.61, 0.025426, , 
89.64, 0.025404, , 
89.67, 0.025407, , 
89.70, 0.025426, , 
89.73, 0.025414, , 
89.76, 0.025404, , 
89.79, 0.025512, , 
89.82, 0.025648, , 
89.85, 0.025762, , 
89.88, 0.025813, , 
89.91, 0.025877, , 
89.94, 0.025908, , 
89.97, 0.025931, , 
90.00, 0.025896, , 
90.03, 0.025896, , 
90.06, 0.025905, , 
90.09, 0.025921, , 
90.12, 0.025918, , 
90.15, 0.025924, , 
90.18, 0.025940, , 
90.21, 0.025937, , 
90.24, 0.025918, , 
90.27, 0.025937, , 
90.30, 0.025937, , 
90.33, 0.025962, , 
90.36, 0.025937, , 
90.39, 0.025927, , 
90.42, 0.025943, , 
90.45, 0.025946, , 
90.48, 0.025956, , 
90.51, 0.025975, , 
90.54, 0.025991, , 
90.57, 0.026064, , 
90.60, 0.026137, , 
90.63, 0.026257, , 
90.66, 0.026368, , 
90.69, 0.026457, , 
90.72, 0.026435, , 
90.75, 0.026416, , 
90.78, 0.026470, , 
90.81, 0.026498, , 
90.84, 0.026470, , 
90.87, 0.026470, , 
90.90, 0.026489, , 
90.93, 0.026473, , 
90.96, 0.026441, , 
90.99, 0.026454, , 
91.02, 0.026460, , 
91.05, 0.026473, , 
91.08, 0.026448, , 
91.11, 0.026438, , 
91.14, 0.026454, , 
91.18, 0.026476, , 
91.20, 0.026479, , 
91.23, 0.026476, , 
91.26, 0.026467, , 
91.29, 0.026476, , 
91.32, 0.026460, , 
91.35, 0.026448, , 
91.38, 0.026448, , 
91.41, 0.026422, , 
91.44, 0.026457, , 
91.47, 0.026562, , 
91.50, 0.026714, , 
91.53, 0.026822, , 
91.56, 0.026882, , 
91.59, 0.026908, , 
91.62, 0.026939, , 
91.65, 0.026942, , 
91.68, 0.026927, , 
91.71, 0.026923, , 
91.74, 0.026952, , 
91.77, 0.026955, , 
91.80, 0.026949, , 
91.83, 0.026933, , 
91.86, 0.026933, , 
91.89, 0.026920, , 
91.92, 0.026904, , 
91.95, 0.026933, , 
91.98, 0.027034, , 
92.01, 0.027120, , 
92.04, 0.027228, , 
92.07, 0.027298, , 
92.10, 0.027345, , 
92.13, 0.027355, , 
92.16, 0.027367, , 
92.19, 0.027358, , 
92.22, 0.027390, , 
92.25, 0.027371, , 
92.28, 0.027361, , 
92.31, 0.027386, , 
92.34, 0.027396, , 
92.37, 0.027399, , 
92.41, 0.027377, , 
92.43, 0.027361, , 
92.46, 0.027361, , 
92.49, 0.027355, , 
92.52, 0.027352, , 
92.55, 0.027380, , 
92.58, 0.027412, , 
92.61, 0.027390, , 
92.64, 0.027371, , 
92.67, 0.027406, , 
92.70, 0.027418, , 
92.73, 0.027409, , 
92.76, 0.027447, , 
92.79, 0.027599, , 
92.82, 0.027707, , 
92.85, 0.027805, , 
92.88, 0.027837, , 
92.91, 0.027843, , 
92.94, 0.027881, , 
92.97, 0.027891, , 
93.00, 0.027888, , 
93.03, 0.027859, , 
93.06, 0.027888, , 
93.09, 0.027910, , 
93.12, 0.027919, , 
93.15, 0.027881, , 
93.18, 0.027894, , 
93.21, 0.027878, , 
93.24, 0.027891, , 
93.27, 0.027945, , 
93.30, 0.028078, , 
93.33, 0.028214, , 
93.36, 0.028313, , 
93.39, 0.028367, , 
93.42, 0.028376, , 
93.45, 0.028379, , 
93.48, 0.028363, , 
93.51, 0.028357, , 
93.54, 0.028392, , 
93.57, 0.028379, , 
93.60, 0.028348, , 
93.63, 0.028348, , 
93.66, 0.028379, , 
93.69, 0.028360, , 
93.72, 0.028354, , 
93.75, 0.028363, , 
93.78, 0.028373, , 
93.81, 0.028344, , 
93.85, 0.028344, , 
93.87, 0.028357, , 
93.90, 0.028351, , 
93.93, 0.028367, , 
93.96, 0.028354, , 
93.99, 0.028338, , 
94.02, 0.028348, , 
94.05, 0.028338, , 
94.08, 0.028335, , 
94.11, 0.028389, , 
94.14, 0.028544, , 
94.17, 0.028681, , 
94.20, 0.028750, , 
94.23, 0.028801, , 
94.26, 0.028811, , 
94.29, 0.028823, , 
94.32, 0.028788, , 
94.35, 0.028801, , 
94.38, 0.028839, , 
94.41, 0.028827, , 
94.44, 0.028811, , 
94.47, 0.028804, , 
94.50, 0.028842, , 
94.53, 0.028836, , 
94.56, 0.028823, , 
94.59, 0.028817, , 
94.62, 0.028833, , 
94.65, 0.028817, , 
94.68, 0.028808, , 
94.71, 0.028827, , 
94.74, 0.028827, , 
94.77, 0.028808, , 
94.80, 0.028795, , 
94.83, 0.028880, , 
94.86, 0.029011, , 
94.89, 0.029153, , 
94.92, 0.029166, , 
94.95, 0.029217, , 
94.98, 0.029274, , 
95.01, 0.029271, , 
95.04, 0.029245, , 
95.07, 0.029267, , 
95.10, 0.029274, , 
95.13, 0.029274, , 
95.16, 0.029252, , 
95.19, 0.029290, , 
95.22, 0.029306, , 
95.25, 0.029296, , 
95.28, 0.029306, , 
95.31, 0.029293, , 
95.34, 0.029340, , 
95.37, 0.029321, , 
95.40, 0.029293, , 
95.43, 0.029286, , 
95.46, 0.029306, , 
95.49, 0.029334, , 
95.52, 0.029344, , 
95.55, 0.029321, , 
95.58, 0.029337, , 
95.61, 0.029334, , 
95.64, 0.029302, , 
95.68, 0.029328, , 
95.70, 0.029328, , 
95.73, 0.029299, , 
95.76, 0.029267, , 
95.79, 0.029280, , 
95.82, 0.029331, , 
95.85, 0.029328, , 
95.88, 0.029312, , 
95.91, 0.029309, , 
95.94, 0.029321, , 
95.97, 0.029306, , 
96.00, 0.029286, , 
