Gradient Profiler Text Data File: 20231116_MV_I_40C.csv
Date: 2023-11-16
Time: 18:01:10

User: jared
Experiment name: 20231116_BY4742_30
UV Unit: EM-1
Rotor Manufacturer: Beckman
Rotor Model: SW28.1
Speed: 28 rpm
Gradient: sucrose 10.0% to 50.0% w/v
Time: 4
w2t:  x 10^0
Sample Volume: 18 ml
Number of Tubes: 6
Volume per mm: 0.183 ml/mm

Absorbance Units Full Scale (AUFS): 2.00
Event Mark-triggered gradient; (with distance; auto start and stop)
Delay: No Delay
UV Wavelength: 254 nm
Samples / sec: 10 Hz
EM1 Speed: 0.30 mm/sec
Distance: 3.20 mm
Number: 30
Dead Volume: 0.000000 ml; Distance due to Dead Volume: 0.00 mm
Total Distance: 96.00 mm

Data Columns:
Distance(mm), Absorbance, Fraction Number, Fraction Volume(ml)
0.00, 1.734284, 0, 0.000
0.03, 1.734297, , 
0.06, 1.734290, , 
0.09, 1.734227, , 
0.12, 1.734271, , 
0.15, 1.734630, , 
0.18, 1.735128, , 
0.21, 1.735768, , 
0.24, 1.736314, , 
0.27, 1.737031, , 
0.30, 1.737376, , 
0.33, 1.736986, , 
0.36, 1.735819, , 
0.39, 1.734347, , 
0.42, 1.732723, , 
0.45, 1.731797, , 
0.48, 1.732733, , 
0.51, 1.736777, , 
0.54, 1.742347, , 
0.57, 1.749443, , 
0.60, 1.759222, , 
0.64, 1.768611, , 
0.66, 1.778678, , 
0.69, 1.789307, , 
0.72, 1.800520, , 
0.75, 1.814350, , 
0.78, 1.826387, , 
0.81, 1.840915, , 
0.85, 1.854110, , 
0.87, 1.865770, , 
0.90, 1.882807, , 
0.93, 1.898086, , 
0.96, 1.913628, , 
0.99, 1.930560, , 
1.02, 1.942965, , 
1.05, 1.954978, , 
1.08, 1.962048, , 
1.11, 1.969067, , 
1.14, 1.975138, , 
1.17, 1.978361, , 
1.20, 1.980128, , 
1.23, 1.980461, , 
1.26, 1.980220, , 
1.29, 1.979801, , 
1.32, 1.979420, , 
1.35, 1.979106, , 
1.38, 1.978954, , 
1.41, 1.978802, , 
1.44, 1.978494, , 
1.47, 1.978038, , 
1.50, 1.977473, , 
1.53, 1.976835, , 
1.56, 1.976198, , 
1.59, 1.975500, , 
1.62, 1.975072, , 
1.65, 1.975272, , 
1.68, 1.976413, , 
1.71, 1.978018, , 
1.74, 1.980822, , 
1.77, 1.983382, , 
1.80, 1.986180, , 
1.83, 1.988238, , 
1.86, 1.990097, , 
1.90, 1.992099, , 
1.92, 1.993355, , 
1.95, 1.994909, , 
1.98, 1.996099, , 
2.01, 1.997209, , 
2.04, 1.998316, , 
2.07, 1.999178, , 
2.10, 1.999981, , 
2.13, 2.000787, , 
2.16, 2.001557, , 
2.19, 2.002322, , 
2.22, 2.002918, , 
2.25, 2.003451, , 
2.28, 2.004044, , 
2.31, 2.004476, , 
2.34, 2.004945, , 
2.37, 2.005411, , 
2.40, 2.005782, , 
2.43, 2.006112, , 
2.46, 2.006391, , 
2.49, 2.006766, , 
2.52, 2.006988, , 
2.56, 2.007127, , 
2.58, 2.007267, , 
2.61, 2.007375, , 
2.64, 2.007435, , 
2.67, 2.007571, , 
2.70, 2.007816, , 
2.73, 2.008234, , 
2.76, 2.008672, , 
2.79, 2.009433, , 
2.82, 2.010331, , 
2.85, 2.011539, , 
2.88, 2.013030, , 
2.91, 2.014290, , 
2.94, 2.015511, , 
2.97, 2.016275, , 
3.00, 2.017040, , 
3.03, 2.017769, , 
3.06, 2.018381, , 
3.09, 2.019146, , 
3.12, 2.019739, , 
3.15, 2.020218, , 
3.18, 2.020618, , 
3.21, 2.020884, , 
3.24, 2.020909, , 
3.27, 2.020671, , 
3.30, 2.020183, , 
3.33, 2.019178, , 
3.36, 2.017890, , 
3.39, 2.016332, , 
3.42, 2.014664, , 
3.45, 2.012916, , 
3.48, 2.010959, , 
3.51, 2.009272, , 
3.54, 2.007327, , 
3.58, 2.005481, , 
3.60, 2.003790, , 
3.63, 2.001120, , 
3.66, 1.998582, , 
3.69, 1.995391, , 
3.72, 1.992333, , 
3.75, 1.989031, , 
3.78, 1.985492, , 
3.81, 1.981844, , 
3.84, 1.977660, , 
3.87, 1.974158, , 
3.90, 1.970828, , 
3.93, 1.967117, , 
3.96, 1.964005, , 
3.99, 1.961080, , 
4.02, 1.958299, , 
4.05, 1.955685, , 
4.08, 1.952862, , 
4.11, 1.950676, , 
4.14, 1.948469, , 
4.17, 1.946908, , 
4.20, 1.945909, , 
4.23, 1.944875, , 
4.26, 1.944393, , 
4.29, 1.944228, , 
4.32, 1.944361, , 
4.35, 1.944589, , 
4.38, 1.945008, , 
4.41, 1.945351, , 
4.44, 1.945839, , 
4.47, 1.946248, , 
4.50, 1.946696, , 
4.53, 1.947197, , 
4.56, 1.947590, , 
4.57, 1.947663, 1, 0.836
4.59, 1.948079, , 
4.62, 1.948412, , 
4.65, 1.948748, , 
4.68, 1.949005, , 
4.71, 1.948960, , 
4.74, 1.948405, , 
4.77, 1.947219, , 
4.80, 1.945176, , 
4.83, 1.942353, , 
4.86, 1.938918, , 
4.89, 1.935048, , 
4.92, 1.929811, , 
4.95, 1.924740, , 
4.98, 1.917977, , 
5.02, 1.911335, , 
5.04, 1.903976, , 
5.07, 1.895961, , 
5.10, 1.887250, , 
5.13, 1.876276, , 
5.16, 1.866078, , 
5.19, 1.855163, , 
5.22, 1.841898, , 
5.25, 1.832373, , 
5.28, 1.819361, , 
5.31, 1.808973, , 
5.34, 1.799565, , 
5.37, 1.789834, , 
5.40, 1.782294, , 
5.43, 1.775443, , 
5.46, 1.768281, , 
5.50, 1.762831, , 
5.52, 1.757785, , 
5.55, 1.752913, , 
5.58, 1.747752, , 
5.61, 1.741072, , 
5.64, 1.735270, , 
5.67, 1.728276, , 
5.70, 1.722709, , 
5.73, 1.714983, , 
5.76, 1.704407, , 
5.79, 1.694102, , 
5.82, 1.680656, , 
5.85, 1.667778, , 
5.88, 1.653825, , 
5.91, 1.638704, , 
5.94, 1.622606, , 
5.97, 1.602693, , 
6.00, 1.584781, , 
6.03, 1.566187, , 
6.06, 1.544038, , 
6.09, 1.525231, , 
6.12, 1.506939, , 
6.15, 1.488970, , 
6.18, 1.471080, , 
6.21, 1.450754, , 
6.24, 1.434273, , 
6.27, 1.416488, , 
6.30, 1.402303, , 
6.33, 1.391023, , 
6.36, 1.375697, , 
6.39, 1.362949, , 
6.42, 1.350505, , 
6.45, 1.336247, , 
6.48, 1.324194, , 
6.51, 1.310304, , 
6.54, 1.300439, , 
6.57, 1.288706, , 
6.60, 1.275159, , 
6.63, 1.263594, , 
6.66, 1.250145, , 
6.69, 1.238663, , 
6.72, 1.227237, , 
6.75, 1.215841, , 
6.78, 1.204460, , 
6.81, 1.191214, , 
6.84, 1.179890, , 
6.87, 1.168633, , 
6.90, 1.155555, , 
6.94, 1.144304, , 
6.96, 1.133101, , 
6.99, 1.121993, , 
7.02, 1.110996, , 
7.05, 1.098190, , 
7.08, 1.087209, , 
7.11, 1.074534, , 
7.15, 1.063800, , 
7.17, 1.054922, , 
7.20, 1.042732, , 
7.23, 1.032411, , 
7.26, 1.022270, , 
7.29, 1.010499, , 
7.32, 1.000530, , 
7.35, 0.990668, , 
7.38, 0.979290, , 
7.41, 0.969683, , 
7.44, 0.960205, , 
7.47, 0.950825, , 
7.50, 0.941487, , 
7.53, 0.930696, , 
7.56, 0.921501, , 
7.59, 0.911037, , 
7.62, 0.902130, , 
7.65, 0.894752, , 
7.68, 0.884564, , 
7.71, 0.875920, , 
7.74, 0.865827, , 
7.77, 0.857177, 2, 0.587
7.78, 0.855706, , 
7.80, 0.848537, , 
7.83, 0.838602, , 
7.86, 0.830149, , 
7.89, 0.823149, , 
7.92, 0.813363, , 
7.95, 0.805043, , 
7.98, 0.795496, , 
8.01, 0.787312, , 
8.04, 0.779179, , 
8.07, 0.769822, , 
8.10, 0.763180, , 
8.13, 0.754013, , 
8.16, 0.746220, , 
8.19, 0.738496, , 
8.22, 0.730880, , 
8.25, 0.722053, , 
8.28, 0.714637, , 
8.31, 0.706117, , 
8.34, 0.698872, , 
8.37, 0.691685, , 
8.40, 0.684583, , 
8.43, 0.677557, , 
8.46, 0.669446, , 
8.49, 0.662620, , 
8.52, 0.655886, , 
8.55, 0.648131, , 
8.59, 0.641571, , 
8.61, 0.635120, , 
8.64, 0.628779, , 
8.67, 0.622540, , 
8.70, 0.615301, , 
8.73, 0.609056, , 
8.76, 0.601741, , 
8.79, 0.596539, , 
8.82, 0.590456, , 
8.85, 0.583404, , 
8.88, 0.577387, , 
8.91, 0.570463, , 
8.94, 0.564557, , 
8.97, 0.558641, , 
9.00, 0.552830, , 
9.03, 0.547095, , 
9.06, 0.540428, , 
9.09, 0.534677, , 
9.12, 0.528999, , 
9.15, 0.522465, , 
9.18, 0.516902, , 
9.21, 0.511395, , 
9.24, 0.505955, , 
9.27, 0.500626, , 
9.30, 0.494416, , 
9.33, 0.489147, , 
9.36, 0.483146, , 
9.39, 0.478112, , 
9.42, 0.473960, , 
9.45, 0.468197, , 
9.48, 0.463359, , 
9.51, 0.457812, , 
9.54, 0.453079, , 
9.57, 0.448397, , 
9.60, 0.442992, , 
9.63, 0.439215, , 
9.66, 0.434723, , 
9.69, 0.429477, , 
9.72, 0.425014, , 
9.75, 0.420541, , 
9.78, 0.415305, , 
9.81, 0.410902, , 
9.84, 0.406626, , 
9.87, 0.401615, , 
9.90, 0.397301, , 
9.94, 0.392460, , 
9.96, 0.389022, , 
9.99, 0.384889, , 
10.02, 0.380106, , 
10.05, 0.376084, , 
10.08, 0.371560, , 
10.11, 0.367754, , 
10.14, 0.364589, , 
10.17, 0.360183, , 
10.20, 0.356475, , 
10.23, 0.352196, , 
10.26, 0.348592, , 
10.29, 0.345043, , 
10.32, 0.340948, , 
10.35, 0.337494, , 
10.38, 0.334068, , 
10.41, 0.330677, , 
10.44, 0.327375, , 
10.47, 0.324188, , 
10.50, 0.320502, , 
10.53, 0.317381, , 
10.56, 0.313777, , 
10.59, 0.310732, , 
10.62, 0.307668, , 
10.65, 0.304591, , 
10.68, 0.301515, , 
10.71, 0.297987, , 
10.74, 0.295076, , 
10.77, 0.292234, , 
10.80, 0.288928, , 
10.83, 0.286112, , 
10.86, 0.283809, , 
10.89, 0.280650, , 
10.92, 0.277903, , 
10.95, 0.274696, , 
10.97, 0.272891, 3, 0.586
10.98, 0.272000, , 
11.01, 0.268996, , 
11.04, 0.266880, , 
11.07, 0.264359, , 
11.10, 0.261444, , 
11.13, 0.258979, , 
11.16, 0.256181, , 
11.19, 0.253825, , 
11.22, 0.251439, , 
11.25, 0.249092, , 
11.28, 0.246869, , 
11.31, 0.244753, , 
11.34, 0.242272, , 
11.37, 0.240150, , 
11.40, 0.237749, , 
11.43, 0.235726, , 
11.46, 0.234063, , 
11.49, 0.231745, , 
11.52, 0.229784, , 
11.55, 0.227475, , 
11.58, 0.225537, , 
11.61, 0.223656, , 
11.64, 0.221404, , 
11.67, 0.219745, , 
11.70, 0.217373, , 
11.73, 0.215403, , 
11.76, 0.213531, , 
11.79, 0.211428, , 
11.82, 0.209627, , 
11.85, 0.207543, , 
11.88, 0.206081, , 
11.91, 0.204317, , 
11.94, 0.202258, , 
11.97, 0.200514, , 
12.00, 0.198484, , 
12.03, 0.196727, , 
12.06, 0.195036, , 
12.09, 0.193431, , 
12.12, 0.191829, , 
12.15, 0.190062, , 
12.18, 0.188572, , 
12.21, 0.187055, , 
12.24, 0.185362, , 
12.28, 0.183960, , 
12.30, 0.182558, , 
12.33, 0.181203, , 
12.36, 0.179823, , 
12.39, 0.178142, , 
12.42, 0.176699, , 
12.45, 0.175135, , 
12.48, 0.174088, , 
12.51, 0.172883, , 
12.54, 0.171424, , 
12.57, 0.170111, , 
12.60, 0.168512, , 
12.63, 0.167094, , 
12.66, 0.165699, , 
12.69, 0.164395, , 
12.72, 0.163180, , 
12.75, 0.161921, , 
12.78, 0.160475, , 
12.81, 0.159206, , 
12.84, 0.157763, , 
12.87, 0.156583, , 
12.90, 0.155393, , 
12.93, 0.154074, , 
12.96, 0.153163, , 
12.99, 0.151898, , 
13.02, 0.150848, , 
13.05, 0.149820, , 
13.08, 0.148615, , 
13.11, 0.147622, , 
13.14, 0.146645, , 
13.17, 0.145719, , 
13.20, 0.144862, , 
13.23, 0.143933, , 
13.26, 0.143178, , 
13.29, 0.142252, , 
13.32, 0.141424, , 
13.35, 0.140723, , 
13.38, 0.139790, , 
13.41, 0.139045, , 
13.44, 0.138173, , 
13.47, 0.137408, , 
13.50, 0.136656, , 
13.53, 0.135806, , 
13.56, 0.135166, , 
13.59, 0.134224, , 
13.62, 0.133418, , 
13.65, 0.132679, , 
13.68, 0.131775, , 
13.71, 0.130982, , 
13.74, 0.130002, , 
13.77, 0.129298, , 
13.80, 0.128530, , 
13.83, 0.127667, , 
13.86, 0.126915, , 
13.89, 0.126043, , 
13.92, 0.125336, , 
13.95, 0.124609, , 
13.98, 0.123934, , 
14.01, 0.123255, , 
14.04, 0.122532, , 
14.07, 0.121939, , 
14.10, 0.121323, , 
14.13, 0.120600, , 
14.17, 0.119994, , 
14.18, 0.119668, 4, 0.587
14.19, 0.119347, , 
14.22, 0.118741, , 
14.25, 0.118199, , 
14.28, 0.117644, , 
14.31, 0.117178, , 
14.34, 0.116629, , 
14.37, 0.116248, , 
14.40, 0.115836, , 
14.43, 0.115297, , 
14.46, 0.114748, , 
14.49, 0.114107, , 
14.52, 0.113555, , 
14.55, 0.112978, , 
14.58, 0.112369, , 
14.61, 0.111808, , 
14.64, 0.111224, , 
14.67, 0.110694, , 
14.70, 0.110206, , 
14.73, 0.109635, , 
14.76, 0.109118, , 
14.79, 0.108550, , 
14.82, 0.107973, , 
14.85, 0.107456, , 
14.88, 0.106935, , 
14.91, 0.106479, , 
14.94, 0.106025, , 
14.97, 0.105492, , 
15.00, 0.105099, , 
15.03, 0.104655, , 
15.06, 0.104309, , 
15.09, 0.103954, , 
15.12, 0.103611, , 
15.15, 0.103332, , 
15.18, 0.102958, , 
15.21, 0.102641, , 
15.24, 0.102355, , 
15.27, 0.101952, , 
15.30, 0.101664, , 
15.33, 0.101362, , 
15.36, 0.101115, , 
15.39, 0.100836, , 
15.43, 0.100446, , 
15.45, 0.100160, , 
15.48, 0.099697, , 
15.51, 0.099256, , 
15.54, 0.098828, , 
15.57, 0.098444, , 
15.60, 0.098146, , 
15.63, 0.097807, , 
15.66, 0.097486, , 
15.69, 0.097204, , 
15.72, 0.096909, , 
15.75, 0.096649, , 
15.78, 0.096360, , 
15.81, 0.096072, , 
15.84, 0.095850, , 
15.87, 0.095643, , 
15.90, 0.095520, , 
15.93, 0.095399, , 
15.96, 0.095231, , 
15.99, 0.095098, , 
16.02, 0.094990, , 
16.05, 0.094933, , 
16.08, 0.094796, , 
16.11, 0.094657, , 
16.14, 0.094543, , 
16.17, 0.094473, , 
16.20, 0.094460, , 
16.24, 0.094409, , 
16.26, 0.094384, , 
16.29, 0.094371, , 
16.32, 0.094381, , 
16.35, 0.094384, , 
16.38, 0.094387, , 
16.41, 0.094419, , 
16.44, 0.094432, , 
16.47, 0.094444, , 
16.50, 0.094549, , 
16.53, 0.094689, , 
16.56, 0.094774, , 
16.59, 0.094831, , 
16.62, 0.094866, , 
16.66, 0.094885, , 
16.68, 0.094974, , 
16.71, 0.095104, , 
16.74, 0.095221, , 
16.77, 0.095323, , 
16.80, 0.095396, , 
16.83, 0.095561, , 
16.86, 0.095650, , 
16.89, 0.095767, , 
16.92, 0.095957, , 
16.95, 0.096113, , 
16.98, 0.096252, , 
17.02, 0.096395, , 
17.04, 0.096589, , 
17.07, 0.096773, , 
17.10, 0.096976, , 
17.13, 0.097188, , 
17.16, 0.097302, , 
17.20, 0.097499, , 
17.22, 0.097626, , 
17.25, 0.097753, , 
17.28, 0.097962, , 
17.31, 0.098121, , 
17.34, 0.098219, , 
17.37, 0.098298, 5, 0.583
17.37, 0.098311, , 
17.40, 0.098378, , 
17.43, 0.098400, , 
17.46, 0.098412, , 
17.49, 0.098419, , 
17.52, 0.098428, , 
17.55, 0.098444, , 
17.58, 0.098451, , 
17.61, 0.098441, , 
17.64, 0.098447, , 
17.67, 0.098339, , 
17.70, 0.098232, , 
17.73, 0.098175, , 
17.76, 0.098114, , 
17.79, 0.098054, , 
17.82, 0.098013, , 
17.85, 0.097962, , 
17.88, 0.097870, , 
17.91, 0.097724, , 
17.94, 0.097629, , 
17.97, 0.097566, , 
18.00, 0.097458, , 
18.03, 0.097296, , 
18.06, 0.097128, , 
18.09, 0.097004, , 
18.12, 0.096871, , 
18.15, 0.096693, , 
18.18, 0.096557, , 
18.21, 0.096373, , 
18.24, 0.096195, , 
18.27, 0.095992, , 
18.30, 0.095748, , 
18.33, 0.095510, , 
18.36, 0.095244, , 
18.39, 0.094930, , 
18.42, 0.094644, , 
18.45, 0.094337, , 
18.48, 0.094035, , 
18.51, 0.093683, , 
18.54, 0.093372, , 
18.57, 0.093118, , 
18.60, 0.092808, , 
18.63, 0.092516, , 
18.66, 0.092138, , 
18.69, 0.091885, , 
18.72, 0.091625, , 
18.75, 0.091222, , 
18.78, 0.090946, , 
18.81, 0.090638, , 
18.84, 0.090334, , 
18.87, 0.090035, , 
18.90, 0.089731, , 
18.93, 0.089477, , 
18.97, 0.089100, , 
18.99, 0.088849, , 
19.02, 0.088573, , 
19.05, 0.088253, , 
19.08, 0.087945, , 
19.11, 0.087634, , 
19.14, 0.087308, , 
19.18, 0.087009, , 
19.20, 0.086749, , 
19.23, 0.086464, , 
19.26, 0.086140, , 
19.29, 0.085817, , 
19.32, 0.085515, , 
19.35, 0.085141, , 
19.38, 0.084773, , 
19.41, 0.084516, , 
19.44, 0.084161, , 
19.47, 0.083847, , 
19.50, 0.083501, , 
19.53, 0.083219, , 
19.56, 0.082908, , 
19.59, 0.082489, , 
19.62, 0.082131, , 
19.65, 0.081849, , 
19.68, 0.081544, , 
19.71, 0.081335, , 
19.74, 0.081078, , 
19.77, 0.080764, , 
19.80, 0.080459, , 
19.83, 0.080145, , 
19.86, 0.079898, , 
19.89, 0.079689, , 
19.92, 0.079451, , 
19.96, 0.079267, , 
19.98, 0.079127, , 
20.01, 0.078940, , 
20.04, 0.078788, , 
20.07, 0.078639, , 
20.10, 0.078480, , 
20.13, 0.078337, , 
20.16, 0.078144, , 
20.19, 0.077887, , 
20.22, 0.077630, , 
20.25, 0.077414, , 
20.28, 0.077227, , 
20.31, 0.076942, , 
20.34, 0.076780, , 
20.37, 0.076656, , 
20.40, 0.076472, , 
20.43, 0.076276, , 
20.46, 0.076031, , 
20.49, 0.075857, , 
20.52, 0.075701, , 
20.55, 0.075530, , 
20.57, 0.075419, 6, 0.586
20.58, 0.075359, , 
20.61, 0.075229, , 
20.64, 0.075153, , 
20.67, 0.075051, , 
20.70, 0.074893, , 
20.73, 0.074763, , 
20.76, 0.074667, , 
20.79, 0.074626, , 
20.82, 0.074563, , 
20.85, 0.074544, , 
20.88, 0.074445, , 
20.91, 0.074315, , 
20.94, 0.074223, , 
20.98, 0.074147, , 
21.00, 0.074090, , 
21.03, 0.074065, , 
21.06, 0.074008, , 
21.09, 0.073874, , 
21.12, 0.073767, , 
21.15, 0.073649, , 
21.18, 0.073579, , 
21.21, 0.073564, , 
21.25, 0.073468, , 
21.27, 0.073367, , 
21.30, 0.073224, , 
21.33, 0.073085, , 
21.36, 0.072935, , 
21.39, 0.072751, , 
21.42, 0.072631, , 
21.45, 0.072587, , 
21.48, 0.072463, , 
21.51, 0.072314, , 
21.54, 0.072209, , 
21.57, 0.072136, , 
21.60, 0.071990, , 
21.63, 0.071825, , 
21.66, 0.071727, , 
21.69, 0.071638, , 
21.72, 0.071559, , 
21.75, 0.071372, , 
21.78, 0.071226, , 
21.81, 0.071166, , 
21.84, 0.071089, , 
21.87, 0.070950, , 
21.90, 0.070775, , 
21.93, 0.070702, , 
21.96, 0.070598, , 
21.99, 0.070471, , 
22.02, 0.070325, , 
22.05, 0.070189, , 
22.08, 0.070062, , 
22.11, 0.069900, , 
22.14, 0.069694, , 
22.17, 0.069570, , 
22.20, 0.069411, , 
22.23, 0.069259, , 
22.26, 0.069155, , 
22.29, 0.069009, , 
22.32, 0.068837, , 
22.35, 0.068688, , 
22.38, 0.068536, , 
22.41, 0.068371, , 
22.44, 0.068197, , 
22.47, 0.068076, , 
22.50, 0.067905, , 
22.53, 0.067756, , 
22.56, 0.067667, , 
22.59, 0.067578, , 
22.62, 0.067521, , 
22.65, 0.067410, , 
22.69, 0.067289, , 
22.71, 0.067178, , 
22.74, 0.067118, , 
22.77, 0.067096, , 
22.80, 0.067052, , 
22.83, 0.067052, , 
22.86, 0.067036, , 
22.89, 0.067061, , 
22.92, 0.067153, , 
22.95, 0.067289, , 
22.98, 0.067381, , 
23.01, 0.067473, , 
23.04, 0.067511, , 
23.07, 0.067578, , 
23.10, 0.067733, , 
23.13, 0.067876, , 
23.16, 0.067965, , 
23.19, 0.068124, , 
23.22, 0.068301, , 
23.25, 0.068549, , 
23.28, 0.068904, , 
23.31, 0.069164, , 
23.34, 0.069430, , 
23.37, 0.069738, , 
23.40, 0.070078, , 
23.43, 0.070528, , 
23.46, 0.070985, , 
23.49, 0.071422, , 
23.52, 0.071901, , 
23.55, 0.072317, , 
23.58, 0.072751, , 
23.61, 0.073243, , 
23.64, 0.073782, , 
23.67, 0.074395, , 
23.70, 0.074953, , 
23.73, 0.075622, , 
23.76, 0.076123, , 
23.77, 0.076326, 7, 0.586
23.79, 0.076745, , 
23.82, 0.077506, , 
23.85, 0.078179, , 
23.88, 0.078978, , 
23.91, 0.079685, , 
23.94, 0.080374, , 
23.97, 0.081091, , 
24.00, 0.081760, , 
24.03, 0.082534, , 
24.06, 0.083282, , 
24.09, 0.084006, , 
24.12, 0.084805, , 
24.15, 0.085461, , 
24.18, 0.086121, , 
24.21, 0.086819, , 
24.24, 0.087549, , 
24.27, 0.088370, , 
24.30, 0.089074, , 
24.33, 0.089817, , 
24.36, 0.090403, , 
24.39, 0.090895, , 
24.42, 0.091631, , 
24.45, 0.092202, , 
24.48, 0.092877, , 
24.51, 0.093467, , 
24.54, 0.094045, , 
24.57, 0.094654, , 
24.60, 0.095053, , 
24.63, 0.095589, , 
24.66, 0.096037, , 
24.69, 0.096468, , 
24.72, 0.096849, , 
24.75, 0.097175, , 
24.78, 0.097512, , 
24.81, 0.097870, , 
24.84, 0.098140, , 
24.87, 0.098403, , 
24.90, 0.098581, , 
24.93, 0.098717, , 
24.96, 0.098891, , 
24.99, 0.099037, , 
25.02, 0.099161, , 
25.05, 0.099224, , 
25.08, 0.099263, , 
25.11, 0.099250, , 
25.14, 0.099269, , 
25.17, 0.099304, , 
25.20, 0.099228, , 
25.23, 0.099088, , 
25.26, 0.098980, , 
25.29, 0.098876, , 
25.32, 0.098698, , 
25.35, 0.098495, , 
25.38, 0.098267, , 
25.41, 0.098079, , 
25.44, 0.097861, , 
25.47, 0.097613, , 
25.50, 0.097375, , 
25.53, 0.097112, , 
25.56, 0.096773, , 
25.59, 0.096516, , 
25.62, 0.096179, , 
25.65, 0.095916, , 
25.68, 0.095539, , 
25.71, 0.095171, , 
25.74, 0.094879, , 
25.77, 0.094492, , 
25.80, 0.094118, , 
25.83, 0.093715, , 
25.86, 0.093277, , 
25.89, 0.092865, , 
25.92, 0.092376, , 
25.95, 0.091948, , 
25.98, 0.091577, , 
26.01, 0.091025, , 
26.04, 0.090562, , 
26.07, 0.090131, , 
26.10, 0.089721, , 
26.13, 0.089293, , 
26.16, 0.088738, , 
26.19, 0.088278, , 
26.22, 0.087780, , 
26.25, 0.087149, , 
26.28, 0.086584, , 
26.31, 0.086070, , 
26.34, 0.085604, , 
26.37, 0.085166, , 
26.40, 0.084637, , 
26.43, 0.084117, , 
26.46, 0.083492, , 
26.49, 0.083060, , 
26.52, 0.082546, , 
26.55, 0.081941, , 
26.58, 0.081525, , 
26.61, 0.080995, , 
26.64, 0.080539, , 
26.67, 0.080101, , 
26.70, 0.079625, , 
26.73, 0.079070, , 
26.76, 0.078398, , 
26.79, 0.077871, , 
26.82, 0.077395, , 
26.85, 0.076865, , 
26.88, 0.076412, , 
26.91, 0.075961, , 
26.94, 0.075514, , 
26.97, 0.075096, 8, 0.585
26.97, 0.075019, , 
27.00, 0.074588, , 
27.03, 0.074150, , 
27.06, 0.073617, , 
27.09, 0.073053, , 
27.12, 0.072590, , 
27.15, 0.071990, , 
27.18, 0.071622, , 
27.21, 0.071207, , 
27.24, 0.070836, , 
27.27, 0.070449, , 
27.30, 0.069989, , 
27.33, 0.069656, , 
27.36, 0.069142, , 
27.39, 0.068768, , 
27.42, 0.068469, , 
27.45, 0.068117, , 
27.48, 0.067740, , 
27.52, 0.067296, , 
27.54, 0.067039, , 
27.57, 0.066750, , 
27.60, 0.066474, , 
27.63, 0.066227, , 
27.66, 0.065970, , 
27.69, 0.065745, , 
27.73, 0.065519, , 
27.75, 0.065320, , 
27.78, 0.065117, , 
27.81, 0.064860, , 
27.84, 0.064622, , 
27.87, 0.064425, , 
27.90, 0.064292, , 
27.93, 0.064216, , 
27.96, 0.064060, , 
27.99, 0.063892, , 
28.02, 0.063788, , 
28.05, 0.063705, , 
28.08, 0.063670, , 
28.11, 0.063648, , 
28.14, 0.063626, , 
28.17, 0.063540, , 
28.20, 0.063493, , 
28.23, 0.063512, , 
28.26, 0.063585, , 
28.29, 0.063581, , 
28.32, 0.063610, , 
28.35, 0.063670, , 
28.38, 0.063822, , 
28.41, 0.064010, , 
28.44, 0.064194, , 
28.47, 0.064400, , 
28.50, 0.064730, , 
28.53, 0.065006, , 
28.56, 0.065209, , 
28.59, 0.065535, , 
28.62, 0.065849, , 
28.65, 0.066290, , 
28.68, 0.066760, , 
28.71, 0.067305, , 
28.74, 0.068006, , 
28.77, 0.068526, , 
28.80, 0.069266, , 
28.83, 0.069995, , 
28.86, 0.071016, , 
28.89, 0.071978, , 
28.92, 0.073008, , 
28.95, 0.074284, , 
28.98, 0.075283, , 
29.01, 0.076586, , 
29.04, 0.078236, , 
29.07, 0.079777, , 
29.10, 0.081763, , 
29.13, 0.083660, , 
29.16, 0.085642, , 
29.19, 0.087767, , 
29.22, 0.090077, , 
29.25, 0.093080, , 
29.28, 0.095834, , 
29.31, 0.099253, , 
29.35, 0.102362, , 
29.37, 0.105054, , 
29.40, 0.109061, , 
29.43, 0.112746, , 
29.46, 0.117365, , 
29.49, 0.121590, , 
29.52, 0.125964, , 
29.56, 0.131286, , 
29.58, 0.135254, , 
29.61, 0.140980, , 
29.64, 0.146090, , 
29.67, 0.151447, , 
29.70, 0.157874, , 
29.73, 0.163450, , 
29.76, 0.169150, , 
29.79, 0.174939, , 
29.82, 0.180889, , 
29.85, 0.187915, , 
29.88, 0.193964, , 
29.91, 0.201066, , 
29.94, 0.207127, , 
29.97, 0.213106, , 
30.00, 0.219035, , 
30.03, 0.224916, , 
30.06, 0.230733, , 
30.09, 0.237343, , 
30.12, 0.242840, , 
30.15, 0.249111, , 
30.17, 0.252648, 9, 0.586
30.19, 0.254386, , 
30.21, 0.259426, , 
30.24, 0.264298, , 
30.27, 0.268980, , 
30.30, 0.274147, , 
30.33, 0.278252, , 
30.36, 0.282702, , 
30.39, 0.285703, , 
30.42, 0.289122, , 
30.45, 0.292773, , 
30.48, 0.295618, , 
30.51, 0.298241, , 
30.54, 0.300639, , 
30.57, 0.303091, , 
30.60, 0.304902, , 
30.63, 0.306526, , 
30.66, 0.308179, , 
30.69, 0.309299, , 
30.72, 0.310145, , 
30.75, 0.310824, , 
30.78, 0.311316, , 
30.81, 0.311652, , 
30.84, 0.311716, , 
30.87, 0.311506, , 
30.90, 0.311087, , 
30.93, 0.310567, , 
30.96, 0.309720, , 
30.99, 0.308877, , 
31.02, 0.307728, , 
31.05, 0.306529, , 
31.08, 0.305216, , 
31.11, 0.303488, , 
31.14, 0.302124, , 
31.17, 0.300046, , 
31.20, 0.298152, , 
31.23, 0.296119, , 
31.26, 0.293585, , 
31.29, 0.291307, , 
31.32, 0.288500, , 
31.35, 0.286454, , 
31.38, 0.284034, , 
31.41, 0.281154, , 
31.44, 0.278556, , 
31.47, 0.275444, , 
31.50, 0.272767, , 
31.53, 0.270011, , 
31.56, 0.267210, , 
31.59, 0.264432, , 
31.62, 0.261142, , 
31.65, 0.258329, , 
31.68, 0.255490, , 
31.71, 0.252194, , 
31.74, 0.249365, , 
31.77, 0.246548, , 
31.80, 0.243687, , 
31.83, 0.240864, , 
31.86, 0.237648, , 
31.89, 0.234853, , 
31.92, 0.231602, , 
31.95, 0.228861, , 
31.98, 0.226600, , 
32.01, 0.223469, , 
32.04, 0.220827, , 
32.07, 0.218197, , 
32.10, 0.215136, , 
32.13, 0.212510, , 
32.16, 0.209915, , 
32.19, 0.206975, , 
32.22, 0.204495, , 
32.25, 0.201951, , 
32.28, 0.199458, , 
32.31, 0.197015, , 
32.34, 0.194592, , 
32.37, 0.191791, , 
32.40, 0.189463, , 
32.43, 0.187125, , 
32.46, 0.184369, , 
32.49, 0.181968, , 
32.52, 0.179608, , 
32.55, 0.177289, , 
32.58, 0.174650, , 
32.61, 0.172417, , 
32.64, 0.170197, , 
32.67, 0.167694, , 
32.70, 0.165623, , 
32.73, 0.163561, , 
32.76, 0.161505, , 
32.79, 0.159149, , 
32.82, 0.157141, , 
32.85, 0.155171, , 
32.88, 0.152973, , 
32.91, 0.151165, , 
32.94, 0.149671, , 
32.97, 0.147590, , 
33.00, 0.145985, , 
33.03, 0.143784, , 
33.06, 0.142033, , 
33.09, 0.140317, , 
33.12, 0.138392, , 
33.15, 0.136802, , 
33.18, 0.135267, , 
33.21, 0.133700, , 
33.24, 0.132216, , 
33.27, 0.130744, , 
33.30, 0.129101, , 
33.33, 0.127655, , 
33.36, 0.125935, , 
33.37, 0.125469, 10, 0.586
33.39, 0.124543, , 
33.42, 0.123391, , 
33.45, 0.121780, , 
33.48, 0.120438, , 
33.51, 0.118922, , 
33.54, 0.117603, , 
33.57, 0.116277, , 
33.60, 0.114979, , 
33.63, 0.113476, , 
33.66, 0.112166, , 
33.69, 0.110704, , 
33.72, 0.109730, , 
33.75, 0.108585, , 
33.78, 0.107281, , 
33.81, 0.106165, , 
33.84, 0.104890, , 
33.87, 0.103802, , 
33.90, 0.102720, , 
33.93, 0.101711, , 
33.96, 0.100782, , 
33.99, 0.099745, , 
34.02, 0.098828, , 
34.05, 0.097940, , 
34.08, 0.096909, , 
34.11, 0.096043, , 
34.14, 0.095155, , 
34.17, 0.094308, , 
34.20, 0.093563, , 
34.23, 0.092681, , 
34.26, 0.091910, , 
34.29, 0.091057, , 
34.32, 0.090353, , 
34.35, 0.089699, , 
34.38, 0.088748, , 
34.41, 0.087986, , 
34.44, 0.087273, , 
34.47, 0.086461, , 
34.50, 0.085775, , 
34.53, 0.084944, , 
34.56, 0.084431, , 
34.59, 0.083647, , 
34.62, 0.082807, , 
34.65, 0.082045, , 
34.68, 0.081221, , 
34.71, 0.080529, , 
34.74, 0.079866, , 
34.77, 0.079251, , 
34.80, 0.078680, , 
34.83, 0.077960, , 
34.86, 0.077373, , 
34.89, 0.076770, , 
34.92, 0.076082, , 
34.95, 0.075517, , 
34.98, 0.074962, , 
35.01, 0.074420, , 
35.04, 0.074077, , 
35.07, 0.073567, , 
35.10, 0.073040, , 
35.13, 0.072612, , 
35.16, 0.072104, , 
35.19, 0.071610, , 
35.22, 0.071026, , 
35.25, 0.070484, , 
35.28, 0.069973, , 
35.31, 0.069424, , 
35.34, 0.068974, , 
35.37, 0.068539, , 
35.40, 0.068025, , 
35.43, 0.067565, , 
35.46, 0.067118, , 
35.49, 0.066699, , 
35.52, 0.066268, , 
35.55, 0.065770, , 
35.58, 0.065336, , 
35.61, 0.064838, , 
35.64, 0.064397, , 
35.67, 0.064003, , 
35.70, 0.063496, , 
35.73, 0.063061, , 
35.76, 0.062570, , 
35.79, 0.062157, , 
35.82, 0.061792, , 
35.85, 0.061428, , 
35.88, 0.061142, , 
35.91, 0.060714, , 
35.94, 0.060302, , 
35.97, 0.059883, , 
36.00, 0.059439, , 
36.03, 0.059106, , 
36.06, 0.058770, , 
36.09, 0.058446, , 
36.12, 0.058192, , 
36.15, 0.057856, , 
36.18, 0.057602, , 
36.21, 0.057314, , 
36.24, 0.057031, , 
36.27, 0.056768, , 
36.30, 0.056441, , 
36.33, 0.056153, , 
36.36, 0.055817, , 
36.39, 0.055496, , 
36.42, 0.055214, , 
36.45, 0.054935, , 
36.48, 0.054646, , 
36.51, 0.054310, , 
36.54, 0.054078, , 
36.57, 0.053806, 11, 0.586
36.58, 0.053764, , 
36.60, 0.053533, , 
36.63, 0.053276, , 
36.66, 0.052936, , 
36.69, 0.052692, , 
36.72, 0.052442, , 
36.75, 0.052159, , 
36.78, 0.051928, , 
36.81, 0.051680, , 
36.84, 0.051458, , 
36.87, 0.051116, , 
36.90, 0.050922, , 
36.93, 0.050757, , 
36.96, 0.050535, , 
36.99, 0.050386, , 
37.02, 0.050202, , 
37.05, 0.050053, , 
37.08, 0.049869, , 
37.11, 0.049619, , 
37.14, 0.049431, , 
37.17, 0.049159, , 
37.20, 0.048937, , 
37.23, 0.048711, , 
37.26, 0.048486, , 
37.29, 0.048350, , 
37.32, 0.048185, , 
37.35, 0.047982, , 
37.38, 0.047798, , 
37.41, 0.047570, , 
37.44, 0.047395, , 
37.47, 0.047202, , 
37.50, 0.047014, , 
37.53, 0.046837, , 
37.56, 0.046650, , 
37.59, 0.046418, , 
37.62, 0.046269, , 
37.65, 0.046199, , 
37.68, 0.046076, , 
37.71, 0.045917, , 
37.74, 0.045793, , 
37.77, 0.045698, , 
37.81, 0.045609, , 
37.83, 0.045467, , 
37.86, 0.045346, , 
37.89, 0.045238, , 
37.92, 0.045156, , 
37.95, 0.045118, , 
37.98, 0.045118, , 
38.01, 0.045083, , 
38.04, 0.044927, , 
38.07, 0.044813, , 
38.10, 0.044737, , 
38.13, 0.044689, , 
38.16, 0.044604, , 
38.19, 0.044477, , 
38.22, 0.044347, , 
38.25, 0.044245, , 
38.28, 0.044188, , 
38.31, 0.044166, , 
38.34, 0.044169, , 
38.37, 0.044157, , 
38.40, 0.044150, , 
38.43, 0.044134, , 
38.46, 0.044103, , 
38.49, 0.043995, , 
38.52, 0.043858, , 
38.55, 0.043741, , 
38.58, 0.043681, , 
38.61, 0.043652, , 
38.64, 0.043633, , 
38.67, 0.043617, , 
38.70, 0.043617, , 
38.73, 0.043655, , 
38.76, 0.043687, , 
38.79, 0.043792, , 
38.82, 0.043950, , 
38.85, 0.044071, , 
38.88, 0.044087, , 
38.91, 0.044122, , 
38.94, 0.044153, , 
38.97, 0.044210, , 
39.00, 0.044347, , 
39.03, 0.044448, , 
39.06, 0.044547, , 
39.09, 0.044585, , 
39.12, 0.044651, , 
39.15, 0.044766, , 
39.18, 0.044930, , 
39.21, 0.045089, , 
39.24, 0.045222, , 
39.27, 0.045384, , 
39.30, 0.045654, , 
39.33, 0.045869, , 
39.36, 0.046063, , 
39.39, 0.046250, , 
39.42, 0.046507, , 
39.45, 0.046856, , 
39.48, 0.047148, , 
39.51, 0.047398, , 
39.54, 0.047734, , 
39.57, 0.048017, , 
39.60, 0.048451, , 
39.63, 0.048845, , 
39.66, 0.049378, , 
39.69, 0.049828, , 
39.72, 0.050231, , 
39.75, 0.050719, , 
39.77, 0.051109, 12, 0.585
39.78, 0.051414, , 
39.81, 0.051975, , 
39.84, 0.052486, , 
39.87, 0.053000, , 
39.90, 0.053596, , 
39.93, 0.054275, , 
39.96, 0.054906, , 
39.99, 0.055537, , 
40.02, 0.056292, , 
40.05, 0.056832, , 
40.08, 0.057548, , 
40.11, 0.058221, , 
40.14, 0.058903, , 
40.17, 0.059658, , 
40.20, 0.060302, , 
40.23, 0.061091, , 
40.26, 0.061634, , 
40.29, 0.062446, , 
40.32, 0.063233, , 
40.35, 0.063899, , 
40.38, 0.064695, , 
40.41, 0.065418, , 
40.44, 0.066116, , 
40.47, 0.066810, , 
40.50, 0.067505, , 
40.53, 0.068222, , 
40.56, 0.068806, , 
40.59, 0.069399, , 
40.62, 0.070093, , 
40.65, 0.070639, , 
40.68, 0.071131, , 
40.71, 0.071591, , 
40.74, 0.072035, , 
40.77, 0.072542, , 
40.80, 0.072967, , 
40.83, 0.073472, , 
40.86, 0.073871, , 
40.89, 0.074134, , 
40.92, 0.074433, , 
40.95, 0.074702, , 
40.98, 0.074981, , 
41.01, 0.075149, , 
41.04, 0.075299, , 
41.08, 0.075492, , 
41.10, 0.075651, , 
41.13, 0.075784, , 
41.16, 0.075787, , 
41.19, 0.075717, , 
41.22, 0.075603, , 
41.25, 0.075524, , 
41.29, 0.075400, , 
41.31, 0.075321, , 
41.34, 0.075226, , 
41.37, 0.075061, , 
41.40, 0.074896, , 
41.43, 0.074632, , 
41.46, 0.074372, , 
41.49, 0.074141, , 
41.52, 0.073811, , 
41.55, 0.073513, , 
41.58, 0.073227, , 
41.61, 0.072878, , 
41.64, 0.072533, , 
41.67, 0.072149, , 
41.70, 0.071695, , 
41.73, 0.071251, , 
41.76, 0.070813, , 
41.79, 0.070385, , 
41.82, 0.069941, , 
41.85, 0.069418, , 
41.88, 0.068958, , 
41.91, 0.068507, , 
41.94, 0.068082, , 
41.97, 0.067708, , 
42.00, 0.067166, , 
42.03, 0.066757, , 
42.06, 0.066262, , 
42.09, 0.065824, , 
42.12, 0.065370, , 
42.15, 0.064917, , 
42.18, 0.064558, , 
42.21, 0.064022, , 
42.24, 0.063610, , 
42.27, 0.063194, , 
42.30, 0.062655, , 
42.33, 0.062205, , 
42.36, 0.061713, , 
42.39, 0.061361, , 
42.42, 0.060930, , 
42.45, 0.060413, , 
42.48, 0.059997, , 
42.51, 0.059509, , 
42.54, 0.059055, , 
42.57, 0.058617, , 
42.60, 0.058237, , 
42.63, 0.057916, , 
42.66, 0.057542, , 
42.69, 0.057193, , 
42.72, 0.056819, , 
42.75, 0.056464, , 
42.78, 0.056178, , 
42.81, 0.055810, , 
42.84, 0.055439, , 
42.87, 0.055135, , 
42.90, 0.054802, , 
42.93, 0.054465, , 
42.96, 0.054129, , 
42.97, 0.054056, 13, 0.586
42.99, 0.053847, , 
43.03, 0.053539, , 
43.05, 0.053231, , 
43.08, 0.052987, , 
43.11, 0.052708, , 
43.14, 0.052315, , 
43.17, 0.052023, , 
43.20, 0.051722, , 
43.23, 0.051534, , 
43.26, 0.051312, , 
43.29, 0.051049, , 
43.32, 0.050881, , 
43.35, 0.050748, , 
43.38, 0.050557, , 
43.41, 0.050345, , 
43.44, 0.050126, , 
43.47, 0.049933, , 
43.50, 0.049761, , 
43.53, 0.049593, , 
43.56, 0.049435, , 
43.60, 0.049324, , 
43.62, 0.049184, , 
43.65, 0.048946, , 
43.68, 0.048826, , 
43.71, 0.048680, , 
43.74, 0.048496, , 
43.77, 0.048350, , 
43.80, 0.048201, , 
43.83, 0.048077, , 
43.86, 0.047877, , 
43.89, 0.047655, , 
43.92, 0.047462, , 
43.95, 0.047322, , 
43.98, 0.047157, , 
44.01, 0.046964, , 
44.04, 0.046808, , 
44.07, 0.046602, , 
44.10, 0.046386, , 
44.13, 0.046231, , 
44.16, 0.046015, , 
44.19, 0.045869, , 
44.22, 0.045733, , 
44.25, 0.045514, , 
44.28, 0.045394, , 
44.31, 0.045257, , 
44.34, 0.045095, , 
44.37, 0.044930, , 
44.40, 0.044772, , 
44.43, 0.044654, , 
44.46, 0.044464, , 
44.49, 0.044328, , 
44.52, 0.044210, , 
44.55, 0.044026, , 
44.58, 0.043830, , 
44.61, 0.043690, , 
44.64, 0.043630, , 
44.67, 0.043500, , 
44.70, 0.043338, , 
44.73, 0.043221, , 
44.76, 0.043173, , 
44.79, 0.043075, , 
44.82, 0.042894, , 
44.85, 0.042764, , 
44.88, 0.042666, , 
44.91, 0.042590, , 
44.94, 0.042425, , 
44.97, 0.042279, , 
45.00, 0.042184, , 
45.03, 0.042145, , 
45.06, 0.042076, , 
45.09, 0.041984, , 
45.12, 0.041828, , 
45.15, 0.041733, , 
45.18, 0.041632, , 
45.21, 0.041575, , 
45.24, 0.041568, , 
45.27, 0.041552, , 
45.30, 0.041514, , 
45.33, 0.041406, , 
45.36, 0.041311, , 
45.39, 0.041216, , 
45.42, 0.041080, , 
45.45, 0.041042, , 
45.48, 0.041058, , 
45.51, 0.041051, , 
45.54, 0.041035, , 
45.57, 0.041042, , 
45.60, 0.041038, , 
45.63, 0.041026, , 
45.66, 0.041026, , 
45.69, 0.041010, , 
45.72, 0.041004, , 
45.75, 0.041000, , 
45.78, 0.041013, , 
45.81, 0.041035, , 
45.84, 0.041035, , 
45.87, 0.041042, , 
45.90, 0.041067, , 
45.93, 0.041035, , 
45.96, 0.041045, , 
45.99, 0.041172, , 
46.02, 0.041295, , 
46.05, 0.041429, , 
46.08, 0.041470, , 
46.11, 0.041511, , 
46.14, 0.041511, , 
46.17, 0.041613, 14, 0.586
46.18, 0.041635, , 
46.20, 0.041771, , 
46.23, 0.041885, , 
46.26, 0.041993, , 
46.29, 0.042165, , 
46.32, 0.042333, , 
46.35, 0.042472, , 
46.38, 0.042609, , 
46.41, 0.042799, , 
46.44, 0.043069, , 
46.47, 0.043313, , 
46.50, 0.043598, , 
46.53, 0.043903, , 
46.56, 0.044163, , 
46.59, 0.044401, , 
46.62, 0.044664, , 
46.65, 0.045057, , 
46.68, 0.045460, , 
46.71, 0.045803, , 
46.74, 0.046288, , 
46.77, 0.046713, , 
46.80, 0.047255, , 
46.83, 0.047671, , 
46.86, 0.048087, , 
46.89, 0.048572, , 
46.92, 0.049165, , 
46.95, 0.049717, , 
46.99, 0.050332, , 
47.01, 0.050811, , 
47.04, 0.051430, , 
47.07, 0.052229, , 
47.10, 0.052914, , 
47.13, 0.053603, , 
47.16, 0.054478, , 
47.19, 0.055176, , 
47.22, 0.055858, , 
47.25, 0.056597, , 
47.28, 0.057406, , 
47.31, 0.058354, , 
47.34, 0.059198, , 
47.37, 0.060245, , 
47.40, 0.061117, , 
47.43, 0.062008, , 
47.46, 0.062950, , 
47.49, 0.063962, , 
47.52, 0.065091, , 
47.55, 0.066024, , 
47.58, 0.066909, , 
47.61, 0.067816, , 
47.64, 0.068840, , 
47.67, 0.069719, , 
47.70, 0.070718, , 
47.74, 0.071597, , 
47.76, 0.072298, , 
47.79, 0.073205, , 
47.82, 0.073941, , 
47.85, 0.074747, , 
47.88, 0.075413, , 
47.91, 0.076082, , 
47.94, 0.076761, , 
47.97, 0.077421, , 
48.00, 0.078128, , 
48.03, 0.078658, , 
48.06, 0.079146, , 
48.09, 0.079695, , 
48.12, 0.080139, , 
48.15, 0.080450, , 
48.18, 0.080742, , 
48.21, 0.081014, , 
48.24, 0.081284, , 
48.27, 0.081490, , 
48.30, 0.081680, , 
48.33, 0.081807, , 
48.36, 0.081839, , 
48.39, 0.081864, , 
48.42, 0.081893, , 
48.45, 0.081925, , 
48.48, 0.081887, , 
48.51, 0.081750, , 
48.54, 0.081585, , 
48.57, 0.081462, , 
48.60, 0.081259, , 
48.63, 0.080992, , 
48.66, 0.080802, , 
48.69, 0.080564, , 
48.72, 0.080298, , 
48.75, 0.079936, , 
48.78, 0.079562, , 
48.81, 0.079178, , 
48.84, 0.078677, , 
48.87, 0.078214, , 
48.90, 0.077766, , 
48.93, 0.077278, , 
48.96, 0.076846, , 
48.99, 0.076387, , 
49.02, 0.075901, , 
49.05, 0.075365, , 
49.08, 0.074718, , 
49.11, 0.074204, , 
49.14, 0.073614, , 
49.17, 0.073043, , 
49.20, 0.072571, , 
49.23, 0.071911, , 
49.26, 0.071419, , 
49.29, 0.070867, , 
49.32, 0.070328, , 
49.35, 0.069770, , 
49.37, 0.069411, 15, 0.585
49.38, 0.069158, , 
49.41, 0.068729, , 
49.44, 0.068251, , 
49.47, 0.067711, , 
49.50, 0.067248, , 
49.53, 0.066611, , 
49.56, 0.066052, , 
49.59, 0.065500, , 
49.62, 0.065006, , 
49.65, 0.064549, , 
49.68, 0.064026, , 
49.71, 0.063559, , 
49.74, 0.063064, , 
49.77, 0.062633, , 
49.80, 0.062211, , 
49.83, 0.061767, , 
49.86, 0.061342, , 
49.89, 0.060825, , 
49.92, 0.060359, , 
49.95, 0.059927, , 
49.98, 0.059436, , 
50.01, 0.059080, , 
50.04, 0.058814, , 
50.07, 0.058452, , 
50.10, 0.058116, , 
50.13, 0.057694, , 
50.16, 0.057377, , 
50.19, 0.057092, , 
50.23, 0.056692, , 
50.25, 0.056397, , 
50.28, 0.056001, , 
50.31, 0.055718, , 
50.34, 0.055401, , 
50.37, 0.055058, , 
50.40, 0.054779, , 
50.43, 0.054507, , 
50.46, 0.054335, , 
50.49, 0.054107, , 
50.52, 0.053837, , 
50.55, 0.053587, , 
50.58, 0.053308, , 
50.61, 0.053022, , 
50.64, 0.052708, , 
50.67, 0.052496, , 
50.70, 0.052327, , 
50.73, 0.052121, , 
50.76, 0.051963, , 
50.79, 0.051785, , 
50.82, 0.051572, , 
50.85, 0.051322, , 
50.88, 0.051090, , 
50.91, 0.050903, , 
50.94, 0.050789, , 
50.97, 0.050605, , 
51.00, 0.050424, , 
51.03, 0.050304, , 
51.06, 0.050174, , 
51.09, 0.049942, , 
51.12, 0.049796, , 
51.15, 0.049726, , 
51.18, 0.049622, , 
51.21, 0.049523, , 
51.24, 0.049403, , 
51.27, 0.049336, , 
51.30, 0.049219, , 
51.33, 0.049083, , 
51.36, 0.048943, , 
51.39, 0.048835, , 
51.42, 0.048781, , 
51.45, 0.048708, , 
51.48, 0.048664, , 
51.51, 0.048692, , 
51.54, 0.048642, , 
51.57, 0.048493, , 
51.60, 0.048366, , 
51.63, 0.048331, , 
51.66, 0.048280, , 
51.69, 0.048264, , 
51.72, 0.048347, , 
51.75, 0.048470, , 
51.78, 0.048550, , 
51.81, 0.048613, , 
51.84, 0.048657, , 
51.87, 0.048673, , 
51.90, 0.048689, , 
51.93, 0.048749, , 
51.96, 0.048880, , 
51.99, 0.048984, , 
52.02, 0.049095, , 
52.05, 0.049295, , 
52.08, 0.049428, , 
52.11, 0.049558, , 
52.14, 0.049749, , 
52.17, 0.049907, , 
52.20, 0.050066, , 
52.23, 0.050339, , 
52.26, 0.050681, , 
52.29, 0.050932, , 
52.32, 0.051230, , 
52.35, 0.051614, , 
52.38, 0.051890, , 
52.41, 0.052061, , 
52.44, 0.052492, , 
52.47, 0.052851, , 
52.50, 0.053308, , 
52.53, 0.053748, , 
52.56, 0.054231, , 
52.57, 0.054411, 16, 0.586
52.60, 0.054906, , 
52.62, 0.055360, , 
52.65, 0.055953, , 
52.68, 0.056479, , 
52.71, 0.057069, , 
52.74, 0.057761, , 
52.77, 0.058357, , 
52.80, 0.059014, , 
52.83, 0.059670, , 
52.86, 0.060371, , 
52.89, 0.061187, , 
52.92, 0.061878, , 
52.95, 0.062630, , 
52.98, 0.063534, , 
53.01, 0.064308, , 
53.04, 0.065025, , 
53.07, 0.065761, , 
53.10, 0.066668, , 
53.13, 0.067467, , 
53.16, 0.068292, , 
53.19, 0.069208, , 
53.22, 0.069935, , 
53.25, 0.070706, , 
53.28, 0.071495, , 
53.31, 0.072282, , 
53.34, 0.073142, , 
53.37, 0.073884, , 
53.40, 0.074632, , 
53.43, 0.075479, , 
53.46, 0.076038, , 
53.49, 0.076789, , 
53.52, 0.077402, , 
53.55, 0.078026, , 
53.58, 0.078734, , 
53.61, 0.079267, , 
53.64, 0.079882, , 
53.67, 0.080275, , 
53.70, 0.080688, , 
53.73, 0.081081, , 
53.76, 0.081401, , 
53.79, 0.081779, , 
53.82, 0.082055, , 
53.85, 0.082337, , 
53.88, 0.082569, , 
53.91, 0.082718, , 
53.94, 0.082892, , 
53.97, 0.083070, , 
54.00, 0.083219, , 
54.03, 0.083320, , 
54.07, 0.083358, , 
54.09, 0.083355, , 
54.12, 0.083276, , 
54.15, 0.083124, , 
54.18, 0.082987, , 
54.21, 0.082851, , 
54.24, 0.082654, , 
54.27, 0.082473, , 
54.30, 0.082223, , 
54.33, 0.081918, , 
54.36, 0.081671, , 
54.39, 0.081328, , 
54.42, 0.080967, , 
54.45, 0.080589, , 
54.48, 0.080180, , 
54.51, 0.079746, , 
54.54, 0.079248, , 
54.57, 0.078807, , 
54.60, 0.078369, , 
54.63, 0.077858, , 
54.66, 0.077411, , 
54.69, 0.076964, , 
54.72, 0.076513, , 
54.75, 0.075939, , 
54.78, 0.075260, , 
54.81, 0.074743, , 
54.84, 0.074188, , 
54.87, 0.073703, , 
54.90, 0.073243, , 
54.93, 0.072571, , 
54.96, 0.072050, , 
54.99, 0.071470, , 
55.02, 0.070896, , 
55.05, 0.070322, , 
55.09, 0.069684, , 
55.11, 0.069158, , 
55.14, 0.068688, , 
55.17, 0.068149, , 
55.20, 0.067765, , 
55.23, 0.067220, , 
55.26, 0.066585, , 
55.29, 0.066062, , 
55.32, 0.065478, , 
55.35, 0.065041, , 
55.38, 0.064568, , 
55.41, 0.064102, , 
55.44, 0.063667, , 
55.47, 0.063166, , 
55.50, 0.062776, , 
55.53, 0.062421, , 
55.56, 0.062081, , 
55.59, 0.061735, , 
55.62, 0.061355, , 
55.65, 0.060980, , 
55.68, 0.060632, , 
55.71, 0.060321, , 
55.74, 0.059943, , 
55.77, 0.059693, 17, 0.585
55.77, 0.059648, , 
55.80, 0.059366, , 
55.83, 0.059052, , 
55.86, 0.058741, , 
55.90, 0.058411, , 
55.92, 0.058186, , 
55.95, 0.057954, , 
55.98, 0.057669, , 
56.01, 0.057536, , 
56.04, 0.057314, , 
56.07, 0.057155, , 
56.10, 0.056949, , 
56.13, 0.056816, , 
56.16, 0.056695, , 
56.19, 0.056473, , 
56.22, 0.056315, , 
56.25, 0.056238, , 
56.28, 0.056178, , 
56.31, 0.056127, , 
56.34, 0.056118, , 
56.37, 0.056143, , 
56.40, 0.056143, , 
56.43, 0.056096, , 
56.46, 0.056108, , 
56.49, 0.056150, , 
56.52, 0.056162, , 
56.55, 0.056146, , 
56.58, 0.056150, , 
56.61, 0.056204, , 
56.64, 0.056213, , 
56.67, 0.056315, , 
56.70, 0.056451, , 
56.73, 0.056571, , 
56.76, 0.056670, , 
56.79, 0.056841, , 
56.82, 0.057057, , 
56.85, 0.057269, , 
56.88, 0.057529, , 
56.91, 0.057799, , 
56.94, 0.058104, , 
56.97, 0.058392, , 
57.00, 0.058659, , 
57.03, 0.058995, , 
57.06, 0.059271, , 
57.09, 0.059578, , 
57.12, 0.059940, , 
57.15, 0.060286, , 
57.18, 0.060708, , 
57.21, 0.061126, , 
57.24, 0.061532, , 
57.27, 0.062027, , 
57.30, 0.062481, , 
57.33, 0.063052, , 
57.36, 0.063597, , 
57.39, 0.064064, , 
57.42, 0.064685, , 
57.45, 0.065183, , 
57.48, 0.065805, , 
57.51, 0.066379, , 
57.54, 0.066956, , 
57.58, 0.067622, , 
57.60, 0.068120, , 
57.63, 0.068745, , 
57.66, 0.069338, , 
57.69, 0.069938, , 
57.72, 0.070588, , 
57.75, 0.071150, , 
57.78, 0.071775, , 
57.81, 0.072384, , 
57.84, 0.072935, , 
57.87, 0.073611, , 
57.90, 0.074207, , 
57.93, 0.074877, , 
57.96, 0.075381, , 
58.00, 0.075879, , 
58.02, 0.076336, , 
58.05, 0.076777, , 
58.08, 0.077281, , 
58.11, 0.077719, , 
58.14, 0.078179, , 
58.17, 0.078699, , 
58.20, 0.079041, , 
58.23, 0.079457, , 
58.26, 0.079784, , 
58.29, 0.080056, , 
58.32, 0.080329, , 
58.35, 0.080554, , 
58.38, 0.080821, , 
58.41, 0.080986, , 
58.44, 0.081173, , 
58.47, 0.081322, , 
58.50, 0.081424, , 
58.53, 0.081474, , 
58.56, 0.081465, , 
58.59, 0.081455, , 
58.62, 0.081497, , 
58.65, 0.081509, , 
58.68, 0.081503, , 
58.71, 0.081474, , 
58.74, 0.081360, , 
58.77, 0.081205, , 
58.80, 0.081106, , 
58.83, 0.080973, , 
58.86, 0.080818, , 
58.89, 0.080599, , 
58.92, 0.080266, , 
58.95, 0.079996, , 
58.97, 0.079885, 18, 0.585
58.98, 0.079717, , 
59.02, 0.079425, , 
59.04, 0.079219, , 
59.07, 0.078724, , 
59.10, 0.078420, , 
59.13, 0.078074, , 
59.16, 0.077712, , 
59.19, 0.077319, , 
59.22, 0.076907, , 
59.25, 0.076498, , 
59.28, 0.076006, , 
59.31, 0.075575, , 
59.34, 0.075137, , 
59.37, 0.074705, , 
59.40, 0.074195, , 
59.43, 0.073779, , 
59.46, 0.073243, , 
59.50, 0.072853, , 
59.52, 0.072577, , 
59.55, 0.072222, , 
59.58, 0.071898, , 
59.61, 0.071435, , 
59.64, 0.071032, , 
59.67, 0.070607, , 
59.70, 0.070173, , 
59.73, 0.069748, , 
59.76, 0.069247, , 
59.79, 0.068831, , 
59.82, 0.068517, , 
59.85, 0.068146, , 
59.88, 0.067775, , 
59.91, 0.067413, , 
59.94, 0.067109, , 
59.97, 0.066782, , 
60.00, 0.066455, , 
60.03, 0.066132, , 
60.06, 0.065865, , 
60.09, 0.065602, , 
60.12, 0.065316, , 
60.15, 0.065101, , 
60.18, 0.064847, , 
60.21, 0.064635, , 
60.24, 0.064466, , 
60.27, 0.064206, , 
60.30, 0.064019, , 
60.33, 0.063832, , 
60.36, 0.063705, , 
60.39, 0.063629, , 
60.43, 0.063470, , 
60.45, 0.063356, , 
60.48, 0.063245, , 
60.51, 0.063210, , 
60.54, 0.063153, , 
60.57, 0.063137, , 
60.60, 0.063156, , 
60.63, 0.063242, , 
60.66, 0.063394, , 
60.69, 0.063499, , 
60.72, 0.063648, , 
60.75, 0.063832, , 
60.78, 0.063994, , 
60.81, 0.064105, , 
60.84, 0.064251, , 
60.87, 0.064527, , 
60.90, 0.064796, , 
60.93, 0.065094, , 
60.96, 0.065396, , 
60.99, 0.065700, , 
61.02, 0.066008, , 
61.05, 0.066255, , 
61.08, 0.066677, , 
61.11, 0.067109, , 
61.14, 0.067524, , 
61.17, 0.068003, , 
61.20, 0.068444, , 
61.23, 0.068948, , 
61.26, 0.069323, , 
61.29, 0.069741, , 
61.32, 0.070262, , 
61.35, 0.070715, , 
61.38, 0.071299, , 
61.41, 0.071838, , 
61.44, 0.072355, , 
61.47, 0.072901, , 
61.50, 0.073361, , 
61.53, 0.073890, , 
61.56, 0.074407, , 
61.59, 0.074937, , 
61.62, 0.075581, , 
61.65, 0.076019, , 
61.68, 0.076574, , 
61.71, 0.077040, , 
61.74, 0.077516, , 
61.77, 0.078030, , 
61.80, 0.078445, , 
61.83, 0.078899, , 
61.86, 0.079165, , 
61.89, 0.079473, , 
61.92, 0.079863, , 
61.95, 0.080231, , 
61.98, 0.080593, , 
62.01, 0.080862, , 
62.04, 0.081163, , 
62.07, 0.081538, , 
62.10, 0.081744, , 
62.13, 0.081864, , 
62.16, 0.082058, , 
62.18, 0.082090, 19, 0.588
62.19, 0.082185, , 
62.22, 0.082309, , 
62.25, 0.082404, , 
62.28, 0.082559, , 
62.32, 0.082708, , 
62.34, 0.082765, , 
62.37, 0.082727, , 
62.40, 0.082626, , 
62.43, 0.082515, , 
62.46, 0.082458, , 
62.49, 0.082362, , 
62.52, 0.082198, , 
62.55, 0.082064, , 
62.58, 0.081979, , 
62.61, 0.081779, , 
62.64, 0.081576, , 
62.67, 0.081398, , 
62.70, 0.081135, , 
62.74, 0.080884, , 
62.76, 0.080589, , 
62.79, 0.080329, , 
62.82, 0.080028, , 
62.85, 0.079720, , 
62.88, 0.079432, , 
62.91, 0.079127, , 
62.94, 0.078873, , 
62.97, 0.078537, , 
63.00, 0.078131, , 
63.03, 0.077823, , 
63.06, 0.077440, , 
63.09, 0.077091, , 
63.12, 0.076754, , 
63.15, 0.076450, , 
63.18, 0.076139, , 
63.21, 0.075752, , 
63.24, 0.075479, , 
63.27, 0.075241, , 
63.30, 0.074927, , 
63.33, 0.074661, , 
63.36, 0.074426, , 
63.39, 0.074147, , 
63.42, 0.073849, , 
63.45, 0.073573, , 
63.48, 0.073370, , 
63.51, 0.073158, , 
63.54, 0.072967, , 
63.57, 0.072856, , 
63.60, 0.072720, , 
63.63, 0.072596, , 
63.66, 0.072396, , 
63.69, 0.072254, , 
63.72, 0.072168, , 
63.75, 0.072120, , 
63.78, 0.072066, , 
63.81, 0.072057, , 
63.84, 0.072073, , 
63.87, 0.072079, , 
63.90, 0.072057, , 
63.93, 0.072108, , 
63.96, 0.072241, , 
63.99, 0.072374, , 
64.02, 0.072488, , 
64.05, 0.072675, , 
64.08, 0.072863, , 
64.11, 0.073129, , 
64.14, 0.073380, , 
64.17, 0.073589, , 
64.20, 0.073947, , 
64.23, 0.074265, , 
64.26, 0.074651, , 
64.29, 0.074981, , 
64.32, 0.075276, , 
64.35, 0.075635, , 
64.38, 0.075933, , 
64.41, 0.076377, , 
64.44, 0.076780, , 
64.47, 0.077230, , 
64.50, 0.077738, , 
64.53, 0.078166, , 
64.56, 0.078702, , 
64.59, 0.079073, , 
64.62, 0.079495, , 
64.65, 0.079974, , 
64.68, 0.080418, , 
64.71, 0.080919, , 
64.74, 0.081351, , 
64.77, 0.081763, , 
64.80, 0.082112, , 
64.83, 0.082394, , 
64.86, 0.082807, , 
64.89, 0.083178, , 
64.92, 0.083514, , 
64.95, 0.083844, , 
64.98, 0.084101, , 
65.01, 0.084361, , 
65.04, 0.084561, , 
65.07, 0.084773, , 
65.10, 0.085027, , 
65.13, 0.085214, , 
65.16, 0.085354, , 
65.20, 0.085420, , 
65.22, 0.085449, , 
65.25, 0.085461, , 
65.28, 0.085468, , 
65.31, 0.085477, , 
65.34, 0.085471, , 
65.37, 0.085471, 20, 0.583
65.37, 0.085471, , 
65.40, 0.085487, , 
65.43, 0.085461, , 
65.46, 0.085322, , 
65.49, 0.085198, , 
65.52, 0.085128, , 
65.55, 0.085043, , 
65.58, 0.084887, , 
65.61, 0.084757, , 
65.64, 0.084573, , 
65.67, 0.084320, , 
65.70, 0.084104, , 
65.73, 0.083929, , 
65.76, 0.083669, , 
65.79, 0.083476, , 
65.82, 0.083216, , 
65.85, 0.082994, , 
65.88, 0.082784, , 
65.91, 0.082537, , 
65.94, 0.082305, , 
65.97, 0.082029, , 
66.00, 0.081864, , 
66.03, 0.081646, , 
66.06, 0.081439, , 
66.09, 0.081186, , 
66.12, 0.080960, , 
66.15, 0.080748, , 
66.18, 0.080586, , 
66.21, 0.080437, , 
66.24, 0.080310, , 
66.27, 0.080177, , 
66.30, 0.080088, , 
66.33, 0.080088, , 
66.36, 0.080056, , 
66.39, 0.080037, , 
66.42, 0.080047, , 
66.45, 0.080063, , 
66.48, 0.080056, , 
66.51, 0.080047, , 
66.54, 0.080018, , 
66.57, 0.080091, , 
66.60, 0.080180, , 
66.63, 0.080345, , 
66.66, 0.080437, , 
66.69, 0.080618, , 
66.72, 0.080780, , 
66.75, 0.080932, , 
66.78, 0.081173, , 
66.81, 0.081389, , 
66.84, 0.081646, , 
66.87, 0.081963, , 
66.90, 0.082213, , 
66.93, 0.082578, , 
66.96, 0.082835, , 
66.99, 0.083095, , 
67.02, 0.083419, , 
67.05, 0.083752, , 
67.08, 0.084085, , 
67.11, 0.084294, , 
67.14, 0.084659, , 
67.17, 0.085005, , 
67.20, 0.085344, , 
67.23, 0.085671, , 
67.26, 0.085959, , 
67.29, 0.086254, , 
67.32, 0.086451, , 
67.35, 0.086651, , 
67.38, 0.086911, , 
67.41, 0.087152, , 
67.44, 0.087371, , 
67.47, 0.087583, , 
67.50, 0.087745, , 
67.53, 0.087939, , 
67.56, 0.088100, , 
67.59, 0.088246, , 
67.62, 0.088354, , 
67.65, 0.088427, , 
67.68, 0.088440, , 
67.71, 0.088456, , 
67.74, 0.088472, , 
67.77, 0.088475, , 
67.80, 0.088456, , 
67.83, 0.088361, , 
67.86, 0.088224, , 
67.89, 0.088110, , 
67.92, 0.088031, , 
67.95, 0.087872, , 
67.98, 0.087707, , 
68.01, 0.087602, , 
68.04, 0.087453, , 
68.07, 0.087219, , 
68.10, 0.087006, , 
68.13, 0.086787, , 
68.16, 0.086626, , 
68.19, 0.086508, , 
68.22, 0.086343, , 
68.25, 0.086213, , 
68.28, 0.086039, , 
68.31, 0.085909, , 
68.34, 0.085722, , 
68.38, 0.085630, , 
68.40, 0.085566, , 
68.43, 0.085487, , 
68.46, 0.085408, , 
68.49, 0.085306, , 
68.52, 0.085160, , 
68.55, 0.085052, , 
68.57, 0.085030, 21, 0.586
68.58, 0.085027, , 
68.61, 0.085024, , 
68.64, 0.085027, , 
68.67, 0.085033, , 
68.70, 0.085011, , 
68.73, 0.085036, , 
68.76, 0.085144, , 
68.79, 0.085246, , 
68.82, 0.085360, , 
68.85, 0.085414, , 
68.88, 0.085455, , 
68.92, 0.085541, , 
68.94, 0.085652, , 
68.97, 0.085814, , 
69.00, 0.085925, , 
69.03, 0.086032, , 
69.06, 0.086267, , 
69.09, 0.086457, , 
69.12, 0.086714, , 
69.15, 0.086908, , 
69.18, 0.087104, , 
69.21, 0.087393, , 
69.24, 0.087555, , 
69.27, 0.087761, , 
69.30, 0.088005, , 
69.33, 0.088158, , 
69.36, 0.088342, , 
69.39, 0.088506, , 
69.42, 0.088697, , 
69.45, 0.088840, , 
69.48, 0.088963, , 
69.51, 0.089144, , 
69.54, 0.089258, , 
69.57, 0.089388, , 
69.60, 0.089480, , 
69.63, 0.089569, , 
69.66, 0.089734, , 
69.69, 0.089817, , 
69.72, 0.089794, , 
69.75, 0.089718, , 
69.78, 0.089617, , 
69.82, 0.089515, , 
69.84, 0.089439, , 
69.87, 0.089407, , 
69.90, 0.089331, , 
69.93, 0.089144, , 
69.96, 0.089049, , 
69.99, 0.088928, , 
70.02, 0.088754, , 
70.05, 0.088608, , 
70.08, 0.088421, , 
70.11, 0.088262, , 
70.15, 0.088100, , 
70.17, 0.088018, , 
70.20, 0.087936, , 
70.23, 0.087809, , 
70.26, 0.087660, , 
70.29, 0.087536, , 
70.32, 0.087469, , 
70.35, 0.087371, , 
70.38, 0.087196, , 
70.41, 0.087047, , 
70.44, 0.086946, , 
70.47, 0.086908, , 
70.50, 0.086889, , 
70.53, 0.086835, , 
70.56, 0.086838, , 
70.59, 0.086816, , 
70.62, 0.086832, , 
70.65, 0.086848, , 
70.68, 0.086841, , 
70.71, 0.086829, , 
70.74, 0.086841, , 
70.77, 0.086851, , 
70.80, 0.086873, , 
70.83, 0.086974, , 
70.86, 0.087133, , 
70.89, 0.087222, , 
70.92, 0.087266, , 
70.95, 0.087412, , 
70.98, 0.087545, , 
71.01, 0.087679, , 
71.04, 0.087761, , 
71.07, 0.087786, , 
71.10, 0.087882, , 
71.13, 0.087993, , 
71.16, 0.088116, , 
71.19, 0.088212, , 
71.22, 0.088291, , 
71.25, 0.088424, , 
71.28, 0.088554, , 
71.31, 0.088678, , 
71.34, 0.088741, , 
71.37, 0.088770, , 
71.40, 0.088789, , 
71.43, 0.088808, , 
71.46, 0.088814, , 
71.49, 0.088795, , 
71.52, 0.088811, , 
71.55, 0.088811, , 
71.58, 0.088792, , 
71.61, 0.088694, , 
71.64, 0.088570, , 
71.67, 0.088459, , 
71.70, 0.088383, , 
71.73, 0.088262, , 
71.76, 0.088113, , 
71.77, 0.088059, 22, 0.586
71.79, 0.087974, , 
71.82, 0.087875, , 
71.85, 0.087675, , 
71.88, 0.087517, , 
71.91, 0.087399, , 
71.95, 0.087222, , 
71.97, 0.087073, , 
72.00, 0.086955, , 
72.03, 0.086882, , 
72.06, 0.086762, , 
72.09, 0.086581, , 
72.12, 0.086489, , 
72.15, 0.086410, , 
72.18, 0.086378, , 
72.21, 0.086327, , 
72.24, 0.086258, , 
72.27, 0.086178, , 
72.30, 0.086039, , 
72.33, 0.085947, , 
72.36, 0.085874, , 
72.39, 0.085867, , 
72.42, 0.085874, , 
72.45, 0.085836, , 
72.48, 0.085848, , 
72.51, 0.085848, , 
72.54, 0.085836, , 
72.57, 0.085823, , 
72.60, 0.085823, , 
72.63, 0.085833, , 
72.66, 0.085829, , 
72.69, 0.085842, , 
72.72, 0.085817, , 
72.75, 0.085864, , 
72.78, 0.085880, , 
72.81, 0.085798, , 
72.84, 0.085633, , 
72.87, 0.085531, , 
72.90, 0.085446, , 
72.93, 0.085388, , 
72.96, 0.085376, , 
72.99, 0.085379, , 
73.02, 0.085360, , 
73.05, 0.085258, , 
73.08, 0.085103, , 
73.11, 0.084989, , 
73.14, 0.084960, , 
73.17, 0.084913, , 
73.20, 0.084868, , 
73.23, 0.084833, , 
73.26, 0.084735, , 
73.29, 0.084548, , 
73.32, 0.084475, , 
73.35, 0.084396, , 
73.38, 0.084285, , 
73.41, 0.084132, , 
73.44, 0.084031, , 
73.47, 0.083917, , 
73.50, 0.083739, , 
73.53, 0.083571, , 
73.56, 0.083460, , 
73.59, 0.083390, , 
73.62, 0.083235, , 
73.65, 0.083117, , 
73.68, 0.082978, , 
73.71, 0.082860, , 
73.74, 0.082705, , 
73.77, 0.082540, , 
73.80, 0.082439, , 
73.83, 0.082366, , 
73.86, 0.082239, , 
73.89, 0.082086, , 
73.92, 0.081995, , 
73.95, 0.081963, , 
73.98, 0.081903, , 
74.01, 0.081776, , 
74.04, 0.081630, , 
74.07, 0.081522, , 
74.10, 0.081490, , 
74.13, 0.081455, , 
74.16, 0.081417, , 
74.19, 0.081366, , 
74.22, 0.081233, , 
74.25, 0.081081, , 
74.28, 0.080983, , 
74.31, 0.080951, , 
74.34, 0.080932, , 
74.37, 0.080881, , 
74.40, 0.080767, , 
74.43, 0.080665, , 
74.46, 0.080567, , 
74.49, 0.080475, , 
74.52, 0.080459, , 
74.55, 0.080409, , 
74.58, 0.080269, , 
74.61, 0.080142, , 
74.64, 0.079999, , 
74.67, 0.079825, , 
74.71, 0.079704, , 
74.73, 0.079552, , 
74.76, 0.079390, , 
74.79, 0.079286, , 
74.82, 0.079156, , 
74.85, 0.079007, , 
74.88, 0.078816, , 
74.91, 0.078712, , 
74.94, 0.078610, , 
74.97, 0.078448, 23, 0.586
74.97, 0.078417, , 
75.00, 0.078290, , 
75.03, 0.078207, , 
75.06, 0.078087, , 
75.09, 0.077928, , 
75.12, 0.077789, , 
75.15, 0.077662, , 
75.18, 0.077589, , 
75.21, 0.077440, , 
75.24, 0.077259, , 
75.27, 0.077164, , 
75.30, 0.077034, , 
75.33, 0.076869, , 
75.36, 0.076691, , 
75.39, 0.076602, , 
75.42, 0.076539, , 
75.45, 0.076368, , 
75.48, 0.076222, , 
75.51, 0.076114, , 
75.54, 0.075952, , 
75.57, 0.075765, , 
75.60, 0.075619, , 
75.63, 0.075492, , 
75.66, 0.075349, , 
75.69, 0.075188, , 
75.72, 0.075057, , 
75.75, 0.074889, , 
75.78, 0.074743, , 
75.81, 0.074585, , 
75.84, 0.074468, , 
75.87, 0.074312, , 
75.90, 0.074217, , 
75.93, 0.074020, , 
75.96, 0.073884, , 
75.99, 0.073760, , 
76.02, 0.073678, , 
76.05, 0.073579, , 
76.08, 0.073437, , 
76.11, 0.073322, , 
76.14, 0.073249, , 
76.17, 0.073154, , 
76.20, 0.073034, , 
76.23, 0.072866, , 
76.26, 0.072821, , 
76.29, 0.072644, , 
76.32, 0.072457, , 
76.35, 0.072336, , 
76.38, 0.072244, , 
76.41, 0.072127, , 
76.44, 0.071968, , 
76.47, 0.071851, , 
76.50, 0.071721, , 
76.53, 0.071508, , 
76.56, 0.071324, , 
76.59, 0.071213, , 
76.62, 0.071077, , 
76.65, 0.070886, , 
76.68, 0.070782, , 
76.71, 0.070706, , 
76.74, 0.070569, , 
76.77, 0.070395, , 
76.80, 0.070268, , 
76.84, 0.070154, , 
76.86, 0.070011, , 
76.89, 0.069811, , 
76.92, 0.069691, , 
76.95, 0.069529, , 
76.98, 0.069354, , 
77.01, 0.069234, , 
77.05, 0.069186, , 
77.07, 0.069097, , 
77.10, 0.068942, , 
77.13, 0.068818, , 
77.16, 0.068736, , 
77.19, 0.068660, , 
77.22, 0.068514, , 
77.25, 0.068343, , 
77.28, 0.068251, , 
77.31, 0.068231, , 
77.34, 0.068114, , 
77.37, 0.067946, , 
77.40, 0.067810, , 
77.43, 0.067702, , 
77.46, 0.067562, , 
77.49, 0.067410, , 
77.52, 0.067305, , 
77.55, 0.067213, , 
77.58, 0.067090, , 
77.61, 0.066912, , 
77.64, 0.066699, , 
77.67, 0.066544, , 
77.70, 0.066373, , 
77.73, 0.066281, , 
77.76, 0.066182, , 
77.79, 0.066037, , 
77.82, 0.065935, , 
77.85, 0.065748, , 
77.88, 0.065618, , 
77.91, 0.065500, , 
77.94, 0.065383, , 
77.97, 0.065294, , 
78.00, 0.065152, , 
78.03, 0.065018, , 
78.06, 0.064898, , 
78.09, 0.064736, , 
78.12, 0.064584, , 
78.15, 0.064485, , 
78.17, 0.064425, 24, 0.585
78.18, 0.064371, , 
78.21, 0.064273, , 
78.24, 0.064146, , 
78.27, 0.063984, , 
78.30, 0.063880, , 
78.33, 0.063702, , 
78.36, 0.063610, , 
78.39, 0.063442, , 
78.42, 0.063264, , 
78.45, 0.063106, , 
78.48, 0.062953, , 
78.51, 0.062807, , 
78.54, 0.062652, , 
78.57, 0.062490, , 
78.61, 0.062398, , 
78.63, 0.062332, , 
78.66, 0.062157, , 
78.69, 0.062011, , 
78.72, 0.061907, , 
78.75, 0.061754, , 
78.78, 0.061570, , 
78.81, 0.061415, , 
78.84, 0.061345, , 
78.87, 0.061247, , 
78.90, 0.061082, , 
78.93, 0.060946, , 
78.96, 0.060866, , 
78.99, 0.060809, , 
79.02, 0.060749, , 
79.05, 0.060695, , 
79.08, 0.060613, , 
79.11, 0.060476, , 
79.14, 0.060346, , 
79.17, 0.060260, , 
79.20, 0.060216, , 
79.23, 0.060159, , 
79.26, 0.060007, , 
79.29, 0.059892, , 
79.32, 0.059791, , 
79.35, 0.059708, , 
79.38, 0.059642, , 
79.41, 0.059505, , 
79.44, 0.059391, , 
79.47, 0.059299, , 
79.50, 0.059207, , 
79.53, 0.059087, , 
79.56, 0.058916, , 
79.59, 0.058836, , 
79.62, 0.058751, , 
79.66, 0.058646, , 
79.68, 0.058532, , 
79.71, 0.058370, , 
79.74, 0.058253, , 
79.77, 0.058173, , 
79.80, 0.058075, , 
79.83, 0.057942, , 
79.86, 0.057812, , 
79.89, 0.057717, , 
79.92, 0.057691, , 
79.95, 0.057682, , 
79.98, 0.057621, , 
80.01, 0.057491, , 
80.04, 0.057364, , 
80.07, 0.057288, , 
80.10, 0.057177, , 
80.13, 0.057066, , 
80.16, 0.056908, , 
80.19, 0.056771, , 
80.22, 0.056698, , 
80.25, 0.056654, , 
80.28, 0.056594, , 
80.31, 0.056464, , 
80.34, 0.056356, , 
80.37, 0.056216, , 
80.40, 0.056070, , 
80.43, 0.055921, , 
80.46, 0.055778, , 
80.49, 0.055683, , 
80.52, 0.055594, , 
80.55, 0.055468, , 
80.58, 0.055312, , 
80.61, 0.055160, , 
80.64, 0.055008, , 
80.67, 0.054871, , 
80.70, 0.054744, , 
80.73, 0.054646, , 
80.76, 0.054548, , 
80.79, 0.054402, , 
80.82, 0.054307, , 
80.85, 0.054212, , 
80.88, 0.054161, , 
80.91, 0.054078, , 
80.94, 0.053910, , 
80.97, 0.053821, , 
81.00, 0.053714, , 
81.03, 0.053679, , 
81.06, 0.053618, , 
81.09, 0.053460, , 
81.12, 0.053361, , 
81.15, 0.053276, , 
81.18, 0.053197, , 
81.21, 0.053070, , 
81.24, 0.052905, , 
81.27, 0.052778, , 
81.30, 0.052705, , 
81.33, 0.052572, , 
81.36, 0.052470, , 
81.38, 0.052410, 25, 0.587
81.39, 0.052340, , 
81.42, 0.052232, , 
81.45, 0.052061, , 
81.48, 0.051902, , 
81.51, 0.051804, , 
81.54, 0.051706, , 
81.57, 0.051626, , 
81.60, 0.051468, , 
81.63, 0.051335, , 
81.66, 0.051274, , 
81.69, 0.051151, , 
81.72, 0.051008, , 
81.75, 0.050894, , 
81.78, 0.050808, , 
81.81, 0.050729, , 
81.84, 0.050713, , 
81.87, 0.050691, , 
81.90, 0.050583, , 
81.93, 0.050440, , 
81.96, 0.050345, , 
81.99, 0.050259, , 
82.02, 0.050221, , 
82.05, 0.050180, , 
82.08, 0.050186, , 
82.11, 0.050123, , 
82.14, 0.049993, , 
82.17, 0.049882, , 
82.20, 0.049825, , 
82.23, 0.049796, , 
82.26, 0.049818, , 
82.29, 0.049939, , 
82.32, 0.050082, , 
82.35, 0.050129, , 
82.38, 0.050142, , 
82.41, 0.050161, , 
82.44, 0.050126, , 
82.47, 0.050009, , 
82.50, 0.049882, , 
82.53, 0.049796, , 
82.56, 0.049752, , 
82.59, 0.049714, , 
82.62, 0.049568, , 
82.65, 0.049438, , 
82.68, 0.049346, , 
82.71, 0.049276, , 
82.74, 0.049222, , 
82.77, 0.049114, , 
82.80, 0.048984, , 
82.83, 0.048702, , 
82.86, 0.048439, , 
82.89, 0.048204, , 
82.92, 0.047998, , 
82.95, 0.047871, , 
82.98, 0.047747, , 
83.01, 0.047715, , 
83.04, 0.047715, , 
83.07, 0.047703, , 
83.10, 0.047639, , 
83.13, 0.047468, , 
83.17, 0.047379, , 
83.19, 0.047300, , 
83.22, 0.047224, , 
83.25, 0.047072, , 
83.28, 0.046938, , 
83.31, 0.046840, , 
83.34, 0.046729, , 
83.37, 0.046640, , 
83.40, 0.046482, , 
83.43, 0.046364, , 
83.46, 0.046209, , 
83.49, 0.045993, , 
83.52, 0.045866, , 
83.55, 0.045752, , 
83.58, 0.045695, , 
83.61, 0.045533, , 
83.64, 0.045403, , 
83.67, 0.045311, , 
83.70, 0.045219, , 
83.73, 0.045203, , 
83.76, 0.045197, , 
83.79, 0.045092, , 
83.82, 0.044940, , 
83.85, 0.044810, , 
83.88, 0.044740, , 
83.91, 0.044680, , 
83.94, 0.044610, , 
83.97, 0.044477, , 
84.00, 0.044353, , 
84.03, 0.044271, , 
84.06, 0.044160, , 
84.09, 0.044052, , 
84.12, 0.043922, , 
84.15, 0.043823, , 
84.18, 0.043678, , 
84.21, 0.043598, , 
84.24, 0.043494, , 
84.27, 0.043325, , 
84.30, 0.043237, , 
84.33, 0.043116, , 
84.36, 0.042996, , 
84.39, 0.042853, , 
84.42, 0.042777, , 
84.45, 0.042685, , 
84.48, 0.042602, , 
84.51, 0.042456, , 
84.54, 0.042295, , 
84.57, 0.042184, 26, 0.585
84.58, 0.042174, , 
84.60, 0.042168, , 
84.63, 0.042187, , 
84.66, 0.042158, , 
84.69, 0.042107, , 
84.72, 0.041993, , 
84.75, 0.041873, , 
84.78, 0.041749, , 
84.81, 0.041692, , 
84.84, 0.041657, , 
84.87, 0.041622, , 
84.90, 0.041625, , 
84.93, 0.041625, , 
84.96, 0.041625, , 
84.99, 0.041565, , 
85.03, 0.041432, , 
85.05, 0.041327, , 
85.08, 0.041241, , 
85.11, 0.041191, , 
85.15, 0.041124, , 
85.17, 0.041115, , 
85.20, 0.041118, , 
85.23, 0.041013, , 
85.27, 0.040851, , 
85.29, 0.040778, , 
85.32, 0.040718, , 
85.35, 0.040645, , 
85.38, 0.040594, , 
85.41, 0.040591, , 
85.44, 0.040585, , 
85.47, 0.040483, , 
85.50, 0.040388, , 
85.53, 0.040226, , 
85.56, 0.040185, , 
85.59, 0.040134, , 
85.62, 0.040077, , 
85.65, 0.040033, , 
85.68, 0.039925, , 
85.71, 0.039792, , 
85.74, 0.039700, , 
85.77, 0.039630, , 
85.80, 0.039640, , 
85.83, 0.039617, , 
85.86, 0.039598, , 
85.89, 0.039602, , 
85.92, 0.039567, , 
85.95, 0.039446, , 
85.98, 0.039303, , 
86.01, 0.039250, , 
86.04, 0.039202, , 
86.07, 0.039183, , 
86.10, 0.039126, , 
86.13, 0.038999, , 
86.16, 0.038875, , 
86.19, 0.038774, , 
86.22, 0.038701, , 
86.25, 0.038587, , 
86.28, 0.038463, , 
86.31, 0.038330, , 
86.34, 0.038174, , 
86.37, 0.037984, , 
86.40, 0.037835, , 
86.43, 0.037743, , 
86.46, 0.037625, , 
86.49, 0.037489, , 
86.52, 0.037346, , 
86.55, 0.037245, , 
86.58, 0.037188, , 
86.61, 0.037143, , 
86.64, 0.037036, , 
86.67, 0.036924, , 
86.70, 0.036760, , 
86.73, 0.036693, , 
86.76, 0.036623, , 
86.79, 0.036538, , 
86.82, 0.036392, , 
86.85, 0.036271, , 
86.88, 0.036189, , 
86.91, 0.036144, , 
86.95, 0.036087, , 
86.97, 0.036049, , 
87.00, 0.035995, , 
87.03, 0.035837, , 
87.06, 0.035681, , 
87.09, 0.035602, , 
87.12, 0.035510, , 
87.15, 0.035377, , 
87.18, 0.035224, , 
87.21, 0.035091, , 
87.24, 0.035028, , 
87.27, 0.034910, , 
87.30, 0.034736, , 
87.33, 0.034625, , 
87.36, 0.034580, , 
87.39, 0.034539, , 
87.42, 0.034501, , 
87.45, 0.034431, , 
87.48, 0.034333, , 
87.51, 0.034301, , 
87.54, 0.034358, , 
87.57, 0.034381, , 
87.60, 0.034412, , 
87.63, 0.034419, , 
87.66, 0.034415, , 
87.69, 0.034438, , 
87.72, 0.034460, , 
87.75, 0.034431, , 
87.77, 0.034412, 27, 0.586
87.78, 0.034415, , 
87.81, 0.034422, , 
87.84, 0.034447, , 
87.87, 0.034390, , 
87.90, 0.034152, , 
87.93, 0.034038, , 
87.96, 0.033965, , 
87.99, 0.033940, , 
88.02, 0.033848, , 
88.05, 0.033695, , 
88.08, 0.033584, , 
88.11, 0.033473, , 
88.14, 0.033423, , 
88.17, 0.033413, , 
88.20, 0.033343, , 
88.23, 0.033226, , 
88.26, 0.033074, , 
88.29, 0.033004, , 
88.32, 0.032909, , 
88.35, 0.032868, , 
88.38, 0.032852, , 
88.42, 0.032861, , 
88.44, 0.032861, , 
88.47, 0.032858, , 
88.50, 0.032852, , 
88.53, 0.032852, , 
88.56, 0.032804, , 
88.59, 0.032677, , 
88.63, 0.032569, , 
88.65, 0.032465, , 
88.68, 0.032401, , 
88.71, 0.032370, , 
88.74, 0.032376, , 
88.77, 0.032357, , 
88.80, 0.032376, , 
88.84, 0.032392, , 
88.86, 0.032366, , 
88.89, 0.032360, , 
88.92, 0.032379, , 
88.95, 0.032328, , 
88.98, 0.032236, , 
89.01, 0.032109, , 
89.04, 0.032021, , 
89.07, 0.031948, , 
89.10, 0.031891, , 
89.13, 0.031872, , 
89.16, 0.031865, , 
89.19, 0.031853, , 
89.22, 0.031840, , 
89.25, 0.031849, , 
89.28, 0.031856, , 
89.31, 0.031830, , 
89.34, 0.031811, , 
89.37, 0.031716, , 
89.40, 0.031596, , 
89.43, 0.031472, , 
89.46, 0.031399, , 
89.49, 0.031389, , 
89.52, 0.031367, , 
89.55, 0.031374, , 
89.58, 0.031355, , 
89.61, 0.031339, , 
89.65, 0.031339, , 
89.67, 0.031332, , 
89.70, 0.031323, , 
89.73, 0.031351, , 
89.76, 0.031345, , 
89.79, 0.031329, , 
89.82, 0.031259, , 
89.85, 0.031145, , 
89.88, 0.031022, , 
89.91, 0.030933, , 
89.94, 0.030898, , 
89.97, 0.030879, , 
90.00, 0.030847, , 
90.03, 0.030831, , 
90.06, 0.030838, , 
90.09, 0.030844, , 
90.12, 0.030822, , 
90.15, 0.030825, , 
90.18, 0.030831, , 
90.21, 0.030841, , 
90.24, 0.030831, , 
90.27, 0.030847, , 
90.30, 0.030834, , 
90.33, 0.030850, , 
90.36, 0.030863, , 
90.39, 0.030834, , 
90.42, 0.030815, , 
90.45, 0.030853, , 
90.48, 0.030853, , 
90.51, 0.030834, , 
90.54, 0.030822, , 
90.57, 0.030853, , 
90.60, 0.030850, , 
90.63, 0.030841, , 
90.66, 0.030853, , 
90.69, 0.030841, , 
90.72, 0.030866, , 
90.75, 0.030844, , 
90.78, 0.030831, , 
90.81, 0.030831, , 
90.84, 0.030847, , 
90.87, 0.030834, , 
90.90, 0.030809, , 
90.93, 0.030831, , 
90.96, 0.030850, , 
90.99, 0.030809, , 
91.02, 0.030828, , 
91.05, 0.030834, , 
91.09, 0.030844, , 
91.11, 0.030834, , 
91.14, 0.030841, , 
91.17, 0.030812, , 
91.20, 0.030831, , 
91.23, 0.030828, , 
91.26, 0.030784, , 
91.29, 0.030834, , 
91.32, 0.030911, , 
91.35, 0.031044, , 
91.38, 0.031123, , 
91.41, 0.031190, , 
91.45, 0.031253, , 
91.47, 0.031291, , 
91.50, 0.031301, , 
91.53, 0.031291, , 
91.56, 0.031304, , 
91.59, 0.031320, , 
91.62, 0.031297, , 
91.65, 0.031297, , 
91.68, 0.031329, , 
91.71, 0.031326, , 
91.74, 0.031282, , 
91.77, 0.031288, , 
91.80, 0.031301, , 
91.83, 0.031304, , 
91.86, 0.031307, , 
91.89, 0.031323, , 
91.92, 0.031418, , 
91.95, 0.031539, , 
91.98, 0.031624, , 
92.01, 0.031726, , 
92.04, 0.031764, , 
92.07, 0.031767, , 
92.10, 0.031789, , 
92.13, 0.031808, , 
92.16, 0.031827, , 
92.19, 0.031773, , 
92.22, 0.031770, , 
92.25, 0.031792, , 
92.28, 0.031789, , 
92.31, 0.031770, , 
92.34, 0.031757, , 
92.37, 0.031786, , 
92.40, 0.031818, , 
92.43, 0.031805, , 
92.47, 0.031805, , 
92.49, 0.031827, , 
92.52, 0.031989, , 
92.55, 0.032084, , 
92.58, 0.032157, , 
92.61, 0.032255, , 
92.64, 0.032252, , 
92.67, 0.032271, , 
92.70, 0.032274, , 
92.73, 0.032290, , 
92.76, 0.032309, , 
92.79, 0.032297, , 
92.82, 0.032316, , 
92.85, 0.032455, , 
92.88, 0.032525, , 
92.91, 0.032693, , 
92.94, 0.032741, , 
92.97, 0.032779, , 
93.00, 0.032810, , 
93.03, 0.032810, , 
93.06, 0.032801, , 
93.09, 0.032830, , 
93.12, 0.032826, , 
93.15, 0.032814, , 
93.18, 0.032801, , 
93.21, 0.032839, , 
93.24, 0.032861, , 
93.27, 0.032836, , 
93.30, 0.032836, , 
93.33, 0.032931, , 
93.36, 0.033093, , 
93.39, 0.033182, , 
93.42, 0.033255, , 
93.45, 0.033328, , 
93.48, 0.033350, , 
93.51, 0.033340, , 
93.54, 0.033337, , 
93.57, 0.033372, , 
93.60, 0.033378, , 
93.63, 0.033343, , 
93.66, 0.033340, , 
93.69, 0.033366, , 
93.72, 0.033375, , 
93.75, 0.033439, , 
93.78, 0.033575, , 
93.81, 0.033711, , 
93.84, 0.033759, , 
93.87, 0.033797, , 
93.90, 0.033838, , 
93.93, 0.033857, , 
93.96, 0.033876, , 
93.99, 0.033860, , 
94.02, 0.033860, , 
94.05, 0.033892, , 
94.08, 0.033921, , 
94.11, 0.033921, , 
94.14, 0.033883, , 
94.17, 0.033898, , 
94.20, 0.033905, , 
94.23, 0.033883, , 
94.26, 0.033879, , 
94.29, 0.033902, , 
94.32, 0.033908, , 
94.35, 0.033895, , 
94.38, 0.033902, , 
94.41, 0.033924, , 
94.44, 0.033908, , 
94.47, 0.033889, , 
94.50, 0.033895, , 
94.53, 0.033924, , 
94.56, 0.033911, , 
94.59, 0.033921, , 
94.62, 0.034035, , 
94.65, 0.034203, , 
94.68, 0.034273, , 
94.71, 0.034336, , 
94.74, 0.034368, , 
94.77, 0.034377, , 
94.80, 0.034374, , 
94.83, 0.034362, , 
94.86, 0.034393, , 
94.89, 0.034422, , 
94.92, 0.034415, , 
94.95, 0.034393, , 
94.98, 0.034403, , 
95.01, 0.034415, , 
95.04, 0.034406, , 
95.07, 0.034403, , 
95.10, 0.034409, , 
95.13, 0.034400, , 
95.16, 0.034390, , 
95.19, 0.034377, , 
95.22, 0.034390, , 
95.25, 0.034409, , 
95.28, 0.034415, , 
95.31, 0.034412, , 
95.34, 0.034396, , 
95.37, 0.034396, , 
95.40, 0.034387, , 
95.43, 0.034390, , 
95.46, 0.034415, , 
95.49, 0.034428, , 
95.52, 0.034488, , 
95.56, 0.034625, , 
95.58, 0.034745, , 
95.61, 0.034866, , 
95.64, 0.034901, , 
95.67, 0.034936, , 
95.70, 0.034971, , 
95.73, 0.034986, , 
95.76, 0.034967, , 
95.79, 0.034939, , 
95.82, 0.034958, , 
95.85, 0.034983, , 
95.88, 0.034967, , 
95.91, 0.034974, , 
95.94, 0.034999, , 
95.97, 0.034996, , 
96.00, 0.034977, , 
