Gradient Profiler Text Data File: 20231116_MV_A_40C.csv
Date: 2023-11-16
Time: 18:18:30

User: jared
Experiment name: 20231116_BY4742_30
UV Unit: EM-1
Rotor Manufacturer: Beckman
Rotor Model: SW28.1
Speed: 28 rpm
Gradient: sucrose 10.0% to 50.0% w/v
Time: 4
w2t:  x 10^0
Sample Volume: 18 ml
Number of Tubes: 6
Volume per mm: 0.183 ml/mm

Absorbance Units Full Scale (AUFS): 2.00
Event Mark-triggered gradient; (with distance; auto start and stop)
Delay: No Delay
UV Wavelength: 254 nm
Samples / sec: 10 Hz
EM1 Speed: 0.30 mm/sec
Distance: 3.20 mm
Number: 30
Dead Volume: 0.000000 ml; Distance due to Dead Volume: 0.00 mm
Total Distance: 96.00 mm

Data Columns:
Distance(mm), Absorbance, Fraction Number, Fraction Volume(ml)
0.00, 0.082550, 0, 0.000
0.03, 0.082562, , 
0.06, 0.082556, , 
0.09, 0.082546, , 
0.12, 0.082540, , 
0.15, 0.082556, , 
0.18, 0.082553, , 
0.21, 0.082540, , 
0.24, 0.082515, , 
0.27, 0.082572, , 
0.30, 0.082699, , 
0.33, 0.082860, , 
0.36, 0.082927, , 
0.39, 0.083022, , 
0.42, 0.083187, , 
0.45, 0.083305, , 
0.48, 0.083450, , 
0.51, 0.083603, , 
0.54, 0.083948, , 
0.57, 0.084982, , 
0.60, 0.089236, , 
0.63, 0.104277, , 
0.66, 0.134306, , 
0.69, 0.196961, , 
0.72, 0.271403, , 
0.75, 0.358860, , 
0.78, 0.454091, , 
0.81, 0.553728, , 
0.84, 0.673094, , 
0.87, 0.776578, , 
0.90, 0.880796, , 
0.93, 1.003004, , 
0.96, 1.108081, , 
0.99, 1.213370, , 
1.02, 1.318929, , 
1.05, 1.424278, , 
1.08, 1.547054, , 
1.11, 1.650726, , 
1.14, 1.749849, , 
1.17, 1.851950, , 
1.20, 1.919430, , 
1.23, 1.965670, , 
1.26, 1.994484, , 
1.29, 2.011295, , 
1.32, 2.021782, , 
1.35, 2.026419, , 
1.38, 2.029277, , 
1.42, 2.030596, , 
1.44, 2.031301, , 
1.47, 2.031894, , 
1.50, 2.032211, , 
1.53, 2.032544, , 
1.56, 2.032760, , 
1.59, 2.032874, , 
1.62, 2.032960, , 
1.65, 2.033074, , 
1.69, 2.033172, , 
1.71, 2.033232, , 
1.74, 2.033255, , 
1.77, 2.033315, , 
1.80, 2.033388, , 
1.83, 2.033477, , 
1.86, 2.033502, , 
1.89, 2.033540, , 
1.92, 2.033591, , 
1.95, 2.033610, , 
1.98, 2.033642, , 
2.01, 2.033657, , 
2.05, 2.033721, , 
2.07, 2.033762, , 
2.10, 2.033794, , 
2.13, 2.033841, , 
2.16, 2.033848, , 
2.19, 2.033826, , 
2.22, 2.033794, , 
2.25, 2.033829, , 
2.28, 2.033876, , 
2.31, 2.033908, , 
2.34, 2.033883, , 
2.37, 2.033895, , 
2.40, 2.033943, , 
2.43, 2.033924, , 
2.46, 2.033917, , 
2.49, 2.033949, , 
2.52, 2.033997, , 
2.55, 2.034029, , 
2.58, 2.034044, , 
2.61, 2.034067, , 
2.64, 2.034082, , 
2.67, 2.034063, , 
2.70, 2.034054, , 
2.73, 2.034067, , 
2.76, 2.034070, , 
2.79, 2.034086, , 
2.82, 2.034082, , 
2.85, 2.034095, , 
2.88, 2.034098, , 
2.91, 2.034111, , 
2.94, 2.034101, , 
2.97, 2.034095, , 
3.00, 2.034121, , 
3.03, 2.034127, , 
3.06, 2.034124, , 
3.09, 2.034133, , 
3.12, 2.034114, , 
3.15, 2.034149, , 
3.18, 2.034168, , 
3.19, 2.034152, 1, 0.584
3.21, 2.034155, , 
3.24, 2.033997, , 
3.27, 2.033584, , 
3.30, 2.032807, , 
3.33, 2.031624, , 
3.36, 2.029664, , 
3.39, 2.027383, , 
3.42, 2.023932, , 
3.45, 2.020265, , 
3.48, 2.015907, , 
3.51, 2.010984, , 
3.54, 2.005430, , 
3.57, 1.998173, , 
3.60, 1.991188, , 
3.63, 1.983560, , 
3.66, 1.973860, , 
3.69, 1.966463, , 
3.72, 1.955377, , 
3.75, 1.945151, , 
3.78, 1.934423, , 
3.81, 1.921371, , 
3.84, 1.909850, , 
3.87, 1.896141, , 
3.90, 1.886194, , 
3.93, 1.874207, , 
3.96, 1.860216, , 
3.99, 1.848179, , 
4.02, 1.836116, , 
4.05, 1.821813, , 
4.08, 1.809440, , 
4.11, 1.796920, , 
4.14, 1.782272, , 
4.17, 1.769676, , 
4.20, 1.756903, , 
4.23, 1.744111, , 
4.26, 1.731248, , 
4.29, 1.716270, , 
4.32, 1.703373, , 
4.35, 1.688421, , 
4.38, 1.675647, , 
4.41, 1.664904, , 
4.44, 1.649755, , 
4.47, 1.636725, , 
4.50, 1.621553, , 
4.53, 1.608583, , 
4.56, 1.595686, , 
4.59, 1.580765, , 
4.62, 1.570158, , 
4.65, 1.555501, , 
4.68, 1.542969, , 
4.71, 1.530484, , 
4.74, 1.516061, , 
4.77, 1.503767, , 
4.80, 1.491491, , 
4.83, 1.479260, , 
4.86, 1.467052, , 
4.89, 1.452882, , 
4.92, 1.440820, , 
4.95, 1.426873, , 
4.98, 1.414972, , 
5.01, 1.405037, , 
5.04, 1.391100, , 
5.07, 1.379208, , 
5.10, 1.365410, , 
5.13, 1.353721, , 
5.16, 1.342014, , 
5.20, 1.328479, , 
5.22, 1.318881, , 
5.25, 1.305419, , 
5.28, 1.293880, , 
5.31, 1.282404, , 
5.34, 1.269072, , 
5.37, 1.257682, , 
5.41, 1.244512, , 
5.43, 1.235174, , 
5.46, 1.224012, , 
5.49, 1.211007, , 
5.52, 1.199940, , 
5.55, 1.188968, , 
5.58, 1.176315, , 
5.61, 1.165556, , 
5.64, 1.154870, , 
5.67, 1.144206, , 
5.70, 1.133557, , 
5.73, 1.121174, , 
5.76, 1.110618, , 
5.79, 1.098419, , 
5.82, 1.088031, , 
5.85, 1.079403, , 
5.88, 1.067397, , 
5.91, 1.057291, , 
5.94, 1.045571, , 
5.97, 1.035570, , 
6.00, 1.025651, , 
6.03, 1.014252, , 
6.06, 1.006182, , 
6.09, 0.994912, , 
6.12, 0.985292, , 
6.15, 0.974247, , 
6.18, 0.964836, , 
6.21, 0.957071, , 
6.24, 0.946264, , 
6.27, 0.937094, , 
6.30, 0.928010, , 
6.33, 0.917444, , 
6.36, 0.908369, , 
6.38, 0.902336, 2, 0.584
6.39, 0.897841, , 
6.42, 0.888887, , 
6.45, 0.881531, , 
6.48, 0.871292, , 
6.51, 0.862658, , 
6.54, 0.852724, , 
6.57, 0.844264, , 
6.60, 0.835878, , 
6.63, 0.826216, , 
6.66, 0.819276, , 
6.69, 0.809598, , 
6.72, 0.801450, , 
6.75, 0.793380, , 
6.78, 0.784045, , 
6.81, 0.776128, , 
6.84, 0.767059, , 
6.87, 0.760757, , 
6.90, 0.753296, , 
6.93, 0.744659, , 
6.96, 0.737310, , 
6.99, 0.728809, , 
7.02, 0.721555, , 
7.05, 0.714389, , 
7.08, 0.707364, , 
7.11, 0.700465, , 
7.14, 0.692446, , 
7.17, 0.685598, , 
7.20, 0.678848, , 
7.23, 0.671013, , 
7.26, 0.664359, , 
7.29, 0.657745, , 
7.32, 0.651154, , 
7.35, 0.644578, , 
7.38, 0.636985, , 
7.41, 0.630552, , 
7.44, 0.623069, , 
7.48, 0.616697, , 
7.50, 0.611400, , 
7.53, 0.604070, , 
7.56, 0.597837, , 
7.59, 0.590573, , 
7.62, 0.584391, , 
7.65, 0.578275, , 
7.68, 0.572255, , 
7.71, 0.566279, , 
7.74, 0.559412, , 
7.77, 0.553607, , 
7.80, 0.547987, , 
7.83, 0.541433, , 
7.86, 0.535914, , 
7.89, 0.530487, , 
7.92, 0.525171, , 
7.95, 0.519950, , 
7.98, 0.513933, , 
8.01, 0.508801, , 
8.04, 0.502821, , 
8.07, 0.497734, , 
8.10, 0.493455, , 
8.13, 0.487488, , 
8.16, 0.482445, , 
8.19, 0.476624, , 
8.22, 0.471689, , 
8.25, 0.466817, , 
8.28, 0.461209, , 
8.31, 0.457206, , 
8.34, 0.451576, , 
8.37, 0.446840, , 
8.40, 0.442174, , 
8.43, 0.436766, , 
8.46, 0.432240, , 
8.49, 0.427123, , 
8.52, 0.423491, , 
8.55, 0.419149, , 
8.58, 0.414106, , 
8.61, 0.409862, , 
8.64, 0.404967, , 
8.67, 0.400863, , 
8.70, 0.396790, , 
8.73, 0.392765, , 
8.76, 0.388781, , 
8.79, 0.384264, , 
8.82, 0.380439, , 
8.85, 0.376686, , 
8.88, 0.372312, , 
8.91, 0.368617, , 
8.94, 0.364982, , 
8.97, 0.361394, , 
9.00, 0.357855, , 
9.03, 0.353728, , 
9.06, 0.350210, , 
9.09, 0.346696, , 
9.12, 0.342674, , 
9.15, 0.339889, , 
9.18, 0.336076, , 
9.21, 0.332774, , 
9.24, 0.329447, , 
9.27, 0.325545, , 
9.30, 0.322307, , 
9.33, 0.318662, , 
9.36, 0.316071, , 
9.39, 0.312959, , 
9.42, 0.309381, , 
9.45, 0.306358, , 
9.48, 0.303291, , 
9.51, 0.299732, , 
9.54, 0.296785, , 
9.57, 0.293880, , 
9.59, 0.292437, 3, 0.587
9.60, 0.291006, , 
9.63, 0.287783, , 
9.66, 0.285084, , 
9.69, 0.282413, , 
9.72, 0.279330, , 
9.75, 0.277186, , 
9.78, 0.274261, , 
9.81, 0.271803, , 
9.84, 0.269345, , 
9.88, 0.266481, , 
9.90, 0.264114, , 
9.93, 0.261444, , 
9.96, 0.259563, , 
9.99, 0.257320, , 
10.02, 0.254722, , 
10.05, 0.252454, , 
10.08, 0.249758, , 
10.11, 0.247547, , 
10.14, 0.245425, , 
10.17, 0.243313, , 
10.20, 0.241191, , 
10.23, 0.238660, , 
10.26, 0.236474, , 
10.29, 0.234343, , 
10.32, 0.231910, , 
10.35, 0.229832, , 
10.38, 0.227764, , 
10.41, 0.225740, , 
10.44, 0.223796, , 
10.47, 0.221518, , 
10.50, 0.219587, , 
10.53, 0.217373, , 
10.56, 0.215527, , 
10.59, 0.214033, , 
10.62, 0.211999, , 
10.65, 0.210341, , 
10.68, 0.208456, , 
10.71, 0.206867, , 
10.74, 0.205281, , 
10.77, 0.203683, , 
10.80, 0.202068, , 
10.83, 0.200285, , 
10.86, 0.198858, , 
10.89, 0.197215, , 
10.92, 0.195724, , 
10.95, 0.194455, , 
10.98, 0.192698, , 
11.01, 0.191198, , 
11.04, 0.189415, , 
11.07, 0.187899, , 
11.10, 0.186446, , 
11.13, 0.184835, , 
11.16, 0.183712, , 
11.19, 0.182174, , 
11.22, 0.180854, , 
11.25, 0.179532, , 
11.28, 0.177971, , 
11.31, 0.176664, , 
11.34, 0.175132, , 
11.37, 0.174038, , 
11.40, 0.172706, , 
11.43, 0.171196, , 
11.46, 0.169971, , 
11.49, 0.168566, , 
11.52, 0.167364, , 
11.55, 0.166387, , 
11.58, 0.165058, , 
11.61, 0.163916, , 
11.64, 0.162638, , 
11.67, 0.161543, , 
11.70, 0.160494, , 
11.73, 0.159282, , 
11.76, 0.158368, , 
11.79, 0.157169, , 
11.82, 0.156186, , 
11.85, 0.155228, , 
11.88, 0.154150, , 
11.91, 0.153252, , 
11.94, 0.152224, , 
11.97, 0.151444, , 
12.00, 0.150492, , 
12.03, 0.149465, , 
12.06, 0.148627, , 
12.09, 0.147657, , 
12.12, 0.146934, , 
12.15, 0.145941, , 
12.18, 0.145065, , 
12.21, 0.144044, , 
12.24, 0.143159, , 
12.27, 0.142296, , 
12.30, 0.141402, , 
12.33, 0.140498, , 
12.36, 0.139495, , 
12.39, 0.138677, , 
12.42, 0.137919, , 
12.45, 0.137164, , 
12.48, 0.136235, , 
12.51, 0.135442, , 
12.54, 0.134538, , 
12.57, 0.133922, , 
12.60, 0.133243, , 
12.63, 0.132444, , 
12.66, 0.131791, , 
12.69, 0.131096, , 
12.72, 0.130497, , 
12.75, 0.129913, , 
12.78, 0.129317, 4, 0.585
12.79, 0.129215, , 
12.81, 0.128727, , 
12.84, 0.128013, , 
12.87, 0.127398, , 
12.90, 0.126747, , 
12.93, 0.125967, , 
12.96, 0.125339, , 
12.99, 0.124714, , 
13.02, 0.124108, , 
13.05, 0.123579, , 
13.08, 0.122951, , 
13.11, 0.122351, , 
13.14, 0.121666, , 
13.17, 0.121123, , 
13.20, 0.120641, , 
13.23, 0.119934, , 
13.26, 0.119382, , 
13.29, 0.118773, , 
13.32, 0.118228, , 
13.35, 0.117653, , 
13.38, 0.117009, , 
13.41, 0.116581, , 
13.44, 0.116026, , 
13.47, 0.115639, , 
13.50, 0.115313, , 
13.53, 0.114900, , 
13.56, 0.114542, , 
13.59, 0.114117, , 
13.62, 0.113771, , 
13.65, 0.113340, , 
13.68, 0.112835, , 
13.71, 0.112480, , 
13.74, 0.112125, , 
13.77, 0.111785, , 
13.80, 0.111417, , 
13.83, 0.111043, , 
13.86, 0.110650, , 
13.89, 0.110130, , 
13.92, 0.109708, , 
13.95, 0.109365, , 
13.98, 0.108994, , 
14.01, 0.108655, , 
14.04, 0.108369, , 
14.07, 0.108109, , 
14.10, 0.107789, , 
14.13, 0.107380, , 
14.16, 0.107037, , 
14.19, 0.106736, , 
14.22, 0.106580, , 
14.25, 0.106396, , 
14.28, 0.106161, , 
14.31, 0.105943, , 
14.34, 0.105727, , 
14.37, 0.105578, , 
14.40, 0.105419, , 
14.43, 0.105251, , 
14.46, 0.105083, , 
14.49, 0.104982, , 
14.52, 0.104959, , 
14.55, 0.104924, , 
14.58, 0.104782, , 
14.61, 0.104648, , 
14.64, 0.104537, , 
14.67, 0.104468, , 
14.70, 0.104388, , 
14.73, 0.104388, , 
14.76, 0.104417, , 
14.79, 0.104388, , 
14.82, 0.104373, , 
14.85, 0.104350, , 
14.88, 0.104373, , 
14.91, 0.104430, , 
14.94, 0.104537, , 
14.97, 0.104677, , 
15.00, 0.104782, , 
15.03, 0.104829, , 
15.06, 0.104836, , 
15.09, 0.104845, , 
15.12, 0.104855, , 
15.15, 0.104924, , 
15.18, 0.105045, , 
15.21, 0.105191, , 
15.24, 0.105327, , 
15.27, 0.105492, , 
15.30, 0.105641, , 
15.33, 0.105797, , 
15.36, 0.105952, , 
15.39, 0.106117, , 
15.43, 0.106241, , 
15.45, 0.106345, , 
15.48, 0.106580, , 
15.51, 0.106726, , 
15.54, 0.106853, , 
15.57, 0.107024, , 
15.60, 0.107234, , 
15.63, 0.107427, , 
15.66, 0.107576, , 
15.69, 0.107722, , 
15.72, 0.107814, , 
15.75, 0.107827, , 
15.78, 0.107827, , 
15.81, 0.107852, , 
15.84, 0.107855, , 
15.87, 0.107839, , 
15.90, 0.107833, , 
15.93, 0.107839, , 
15.96, 0.107865, , 
15.99, 0.107836, 5, 0.586
15.99, 0.107814, , 
16.02, 0.107738, , 
16.05, 0.107608, , 
16.08, 0.107513, , 
16.11, 0.107405, , 
16.14, 0.107268, , 
16.17, 0.107154, , 
16.20, 0.107031, , 
16.23, 0.106932, , 
16.26, 0.106831, , 
16.29, 0.106717, , 
16.32, 0.106583, , 
16.35, 0.106441, , 
16.38, 0.106276, , 
16.41, 0.106101, , 
16.44, 0.105889, , 
16.47, 0.105676, , 
16.50, 0.105448, , 
16.53, 0.105213, , 
16.56, 0.105074, , 
16.59, 0.104890, , 
16.62, 0.104661, , 
16.65, 0.104411, , 
16.68, 0.104176, , 
16.71, 0.103862, , 
16.74, 0.103551, , 
16.77, 0.103240, , 
16.80, 0.102955, , 
16.83, 0.102590, , 
16.86, 0.102216, , 
16.89, 0.101924, , 
16.92, 0.101584, , 
16.95, 0.101274, , 
16.98, 0.100864, , 
17.01, 0.100481, , 
17.04, 0.100109, , 
17.07, 0.099713, , 
17.10, 0.099466, , 
17.13, 0.099085, , 
17.16, 0.098707, , 
17.19, 0.098308, , 
17.22, 0.097899, , 
17.25, 0.097597, , 
17.29, 0.097239, , 
17.31, 0.096909, , 
17.34, 0.096455, , 
17.37, 0.096002, , 
17.40, 0.095650, , 
17.43, 0.095275, , 
17.46, 0.094968, , 
17.49, 0.094717, , 
17.52, 0.094289, , 
17.55, 0.093937, , 
17.58, 0.093585, , 
17.61, 0.093261, , 
17.64, 0.092887, , 
17.67, 0.092389, , 
17.70, 0.092050, , 
17.73, 0.091618, , 
17.76, 0.091317, , 
17.79, 0.090984, , 
17.82, 0.090575, , 
17.85, 0.090191, , 
17.88, 0.089715, , 
17.91, 0.089366, , 
17.94, 0.088992, , 
17.97, 0.088649, , 
18.00, 0.088342, , 
18.03, 0.087913, , 
18.06, 0.087564, , 
18.09, 0.087273, , 
18.12, 0.086968, , 
18.15, 0.086657, , 
18.18, 0.086334, , 
18.21, 0.086083, , 
18.24, 0.085794, , 
18.28, 0.085522, , 
18.30, 0.085309, , 
18.33, 0.084982, , 
18.36, 0.084745, , 
18.39, 0.084538, , 
18.42, 0.084380, , 
18.45, 0.084186, , 
18.48, 0.083980, , 
18.51, 0.083774, , 
18.54, 0.083511, , 
18.57, 0.083305, , 
18.60, 0.083079, , 
18.63, 0.082807, , 
18.66, 0.082565, , 
18.69, 0.082375, , 
18.72, 0.082169, , 
18.75, 0.081925, , 
18.78, 0.081677, , 
18.81, 0.081500, , 
18.84, 0.081230, , 
18.87, 0.080973, , 
18.90, 0.080815, , 
18.93, 0.080653, , 
18.96, 0.080485, , 
18.99, 0.080282, , 
19.02, 0.080152, , 
19.05, 0.080047, , 
19.08, 0.079831, , 
19.11, 0.079717, , 
19.14, 0.079644, , 
19.17, 0.079562, , 
19.19, 0.079505, 6, 0.586
19.20, 0.079441, , 
19.23, 0.079283, , 
19.26, 0.079178, , 
19.29, 0.079089, , 
19.32, 0.078956, , 
19.35, 0.078807, , 
19.38, 0.078667, , 
19.41, 0.078594, , 
19.44, 0.078553, , 
19.47, 0.078524, , 
19.50, 0.078470, , 
19.53, 0.078347, , 
19.56, 0.078229, , 
19.59, 0.078137, , 
19.62, 0.078064, , 
19.65, 0.077953, , 
19.68, 0.077769, , 
19.71, 0.077649, , 
19.74, 0.077576, , 
19.77, 0.077528, , 
19.80, 0.077452, , 
19.83, 0.077316, , 
19.86, 0.077192, , 
19.89, 0.077103, , 
19.93, 0.077002, , 
19.95, 0.076897, , 
19.98, 0.076767, , 
20.01, 0.076672, , 
20.04, 0.076561, , 
20.07, 0.076434, , 
20.10, 0.076310, , 
20.13, 0.076196, , 
20.16, 0.076114, , 
20.19, 0.075987, , 
20.22, 0.075866, , 
20.25, 0.075758, , 
20.28, 0.075609, , 
20.31, 0.075444, , 
20.34, 0.075327, , 
20.37, 0.075207, , 
20.40, 0.075121, , 
20.43, 0.074994, , 
20.46, 0.074845, , 
20.49, 0.074712, , 
20.52, 0.074585, , 
20.55, 0.074448, , 
20.58, 0.074284, , 
20.61, 0.074179, , 
20.64, 0.073998, , 
20.67, 0.073798, , 
20.70, 0.073595, , 
20.73, 0.073402, , 
20.76, 0.073249, , 
20.79, 0.073129, , 
20.82, 0.072904, , 
20.85, 0.072713, , 
20.88, 0.072450, , 
20.91, 0.072288, , 
20.94, 0.072206, , 
20.97, 0.072009, , 
21.00, 0.071857, , 
21.03, 0.071717, , 
21.06, 0.071537, , 
21.09, 0.071372, , 
21.12, 0.071238, , 
21.15, 0.071153, , 
21.18, 0.071061, , 
21.21, 0.070877, , 
21.24, 0.070760, , 
21.27, 0.070696, , 
21.30, 0.070633, , 
21.33, 0.070629, , 
21.36, 0.070610, , 
21.39, 0.070598, , 
21.42, 0.070585, , 
21.45, 0.070610, , 
21.48, 0.070620, , 
21.51, 0.070610, , 
21.54, 0.070649, , 
21.57, 0.070626, , 
21.60, 0.070585, , 
21.63, 0.070601, , 
21.66, 0.070617, , 
21.69, 0.070607, , 
21.73, 0.070649, , 
21.75, 0.070725, , 
21.78, 0.070883, , 
21.81, 0.071013, , 
21.84, 0.071175, , 
21.87, 0.071330, , 
21.90, 0.071530, , 
21.94, 0.071825, , 
21.96, 0.072108, , 
21.99, 0.072501, , 
22.02, 0.072809, , 
22.05, 0.073145, , 
22.08, 0.073503, , 
22.11, 0.073890, , 
22.14, 0.074318, , 
22.17, 0.074756, , 
22.20, 0.075238, , 
22.23, 0.075882, , 
22.26, 0.076459, , 
22.29, 0.077049, , 
22.32, 0.077532, , 
22.35, 0.077995, , 
22.38, 0.078702, , 
22.39, 0.078807, 7, 0.586
22.41, 0.079333, , 
22.44, 0.080060, , 
22.47, 0.080738, , 
22.50, 0.081389, , 
22.53, 0.082156, , 
22.56, 0.082667, , 
22.59, 0.083425, , 
22.62, 0.084136, , 
22.65, 0.084827, , 
22.68, 0.085591, , 
22.71, 0.086280, , 
22.74, 0.087076, , 
22.77, 0.087666, , 
22.80, 0.088386, , 
22.83, 0.089198, , 
22.86, 0.089921, , 
22.89, 0.090682, , 
22.92, 0.091336, , 
22.95, 0.091989, , 
22.98, 0.092671, , 
23.01, 0.093331, , 
23.04, 0.094054, , 
23.07, 0.094717, , 
23.10, 0.095367, , 
23.13, 0.095992, , 
23.16, 0.096411, , 
23.19, 0.097102, , 
23.22, 0.097680, , 
23.25, 0.098225, , 
23.28, 0.098787, , 
23.31, 0.099202, , 
23.34, 0.099605, , 
23.37, 0.099872, , 
23.40, 0.100205, , 
23.43, 0.100607, , 
23.46, 0.100928, , 
23.49, 0.101270, , 
23.52, 0.101496, , 
23.55, 0.101727, , 
23.58, 0.101936, , 
23.61, 0.102063, , 
23.64, 0.102168, , 
23.67, 0.102216, , 
23.70, 0.102225, , 
23.73, 0.102231, , 
23.76, 0.102225, , 
23.79, 0.102222, , 
23.82, 0.102235, , 
23.85, 0.102247, , 
23.88, 0.102212, , 
23.91, 0.102111, , 
23.94, 0.101978, , 
23.98, 0.101838, , 
24.00, 0.101718, , 
24.03, 0.101521, , 
24.06, 0.101334, , 
24.09, 0.101128, , 
24.12, 0.100899, , 
24.15, 0.100642, , 
24.18, 0.100363, , 
24.21, 0.100078, , 
24.24, 0.099761, , 
24.27, 0.099440, , 
24.30, 0.099101, , 
24.33, 0.098720, , 
24.36, 0.098416, , 
24.39, 0.098108, , 
24.42, 0.097759, , 
24.45, 0.097372, , 
24.48, 0.096887, , 
24.51, 0.096446, , 
24.54, 0.095964, , 
24.57, 0.095529, , 
24.60, 0.095155, , 
24.63, 0.094663, , 
24.66, 0.094168, , 
24.69, 0.093499, , 
24.72, 0.092931, , 
24.75, 0.092398, , 
24.78, 0.091869, , 
24.81, 0.091494, , 
24.84, 0.090987, , 
24.87, 0.090495, , 
24.90, 0.089969, , 
24.93, 0.089331, , 
24.96, 0.088782, , 
25.00, 0.088212, , 
25.02, 0.087853, , 
25.05, 0.087393, , 
25.08, 0.086819, , 
25.11, 0.086223, , 
25.14, 0.085611, , 
25.17, 0.085093, , 
25.21, 0.084580, , 
25.23, 0.083986, , 
25.26, 0.083419, , 
25.29, 0.082816, , 
25.32, 0.082305, , 
25.35, 0.081738, , 
25.38, 0.081097, , 
25.41, 0.080700, , 
25.44, 0.080041, , 
25.47, 0.079517, , 
25.50, 0.078978, , 
25.53, 0.078296, , 
25.56, 0.077738, , 
25.58, 0.077351, 8, 0.585
25.59, 0.077195, , 
25.62, 0.076824, , 
25.65, 0.076380, , 
25.68, 0.075841, , 
25.71, 0.075330, , 
25.74, 0.074683, , 
25.77, 0.074122, , 
25.80, 0.073608, , 
25.83, 0.073180, , 
25.86, 0.072853, , 
25.89, 0.072469, , 
25.92, 0.072114, , 
25.95, 0.071727, , 
25.98, 0.071242, , 
26.01, 0.070820, , 
26.04, 0.070373, , 
26.07, 0.069973, , 
26.10, 0.069624, , 
26.13, 0.069285, , 
26.16, 0.068986, , 
26.19, 0.068618, , 
26.22, 0.068393, , 
26.25, 0.068076, , 
26.28, 0.067714, , 
26.31, 0.067470, , 
26.34, 0.067175, , 
26.37, 0.066956, , 
26.40, 0.066690, , 
26.43, 0.066481, , 
26.46, 0.066309, , 
26.49, 0.066052, , 
26.52, 0.065799, , 
26.55, 0.065567, , 
26.58, 0.065389, , 
26.61, 0.065253, , 
26.64, 0.065072, , 
26.67, 0.064888, , 
26.70, 0.064806, , 
26.73, 0.064752, , 
26.76, 0.064720, , 
26.79, 0.064698, , 
26.82, 0.064701, , 
26.85, 0.064698, , 
26.88, 0.064669, , 
26.91, 0.064676, , 
26.94, 0.064755, , 
26.97, 0.064860, , 
27.00, 0.064961, , 
27.03, 0.065126, , 
27.06, 0.065253, , 
27.09, 0.065469, , 
27.12, 0.065688, , 
27.15, 0.065992, , 
27.18, 0.066338, , 
27.21, 0.066592, , 
27.24, 0.066928, , 
27.27, 0.067245, , 
27.30, 0.067642, , 
27.33, 0.068105, , 
27.36, 0.068526, , 
27.39, 0.069069, , 
27.42, 0.069637, , 
27.46, 0.070239, , 
27.48, 0.070874, , 
27.51, 0.071603, , 
27.54, 0.072526, , 
27.57, 0.073433, , 
27.60, 0.074401, , 
27.63, 0.075686, , 
27.66, 0.076729, , 
27.69, 0.078264, , 
27.72, 0.079730, , 
27.75, 0.081309, , 
27.78, 0.083257, , 
27.81, 0.085068, , 
27.84, 0.087041, , 
27.87, 0.089204, , 
27.90, 0.091542, , 
27.93, 0.094489, , 
27.96, 0.097207, , 
27.99, 0.100611, , 
28.02, 0.103764, , 
28.05, 0.107085, , 
28.08, 0.110609, , 
28.11, 0.114415, , 
28.15, 0.119154, , 
28.17, 0.123480, , 
28.20, 0.127950, , 
28.23, 0.133389, , 
28.26, 0.137434, , 
28.29, 0.143333, , 
28.32, 0.148535, , 
28.35, 0.153956, , 
28.38, 0.160563, , 
28.41, 0.166416, , 
28.44, 0.173349, , 
28.47, 0.178399, , 
28.50, 0.184477, , 
28.53, 0.191642, , 
28.56, 0.197929, , 
28.59, 0.205376, , 
28.62, 0.211755, , 
28.65, 0.218083, , 
28.68, 0.224427, , 
28.71, 0.230708, , 
28.74, 0.237952, , 
28.77, 0.244045, , 
28.79, 0.248083, 9, 0.587
28.80, 0.250066, , 
28.83, 0.256898, , 
28.86, 0.262649, , 
28.89, 0.268235, , 
28.92, 0.273624, , 
28.95, 0.278867, , 
28.98, 0.284783, , 
29.01, 0.289594, , 
29.04, 0.294917, , 
29.07, 0.299240, , 
29.10, 0.302688, , 
29.13, 0.307221, , 
29.16, 0.310850, , 
29.19, 0.314732, , 
29.22, 0.317742, , 
29.25, 0.320518, , 
29.29, 0.323401, , 
29.31, 0.325257, , 
29.34, 0.327537, , 
29.37, 0.329209, , 
29.40, 0.330722, , 
29.43, 0.331965, , 
29.46, 0.333101, , 
29.49, 0.333824, , 
29.52, 0.334252, , 
29.55, 0.334585, , 
29.58, 0.334626, , 
29.61, 0.334392, , 
29.64, 0.333976, , 
29.67, 0.333370, , 
29.70, 0.332463, , 
29.73, 0.331527, , 
29.76, 0.330236, , 
29.79, 0.328952, , 
29.82, 0.327807, , 
29.85, 0.326050, , 
29.88, 0.324394, , 
29.91, 0.322611, , 
29.94, 0.320410, , 
29.97, 0.318570, , 
30.00, 0.316328, , 
30.03, 0.313787, , 
30.06, 0.311541, , 
30.09, 0.309162, , 
30.12, 0.306717, , 
30.15, 0.304261, , 
30.18, 0.301302, , 
30.21, 0.298711, , 
30.24, 0.295650, , 
30.27, 0.292935, , 
30.30, 0.290657, , 
30.33, 0.287457, , 
30.36, 0.284700, , 
30.39, 0.281474, , 
30.42, 0.278648, , 
30.45, 0.275831, , 
30.48, 0.272520, , 
30.51, 0.270141, , 
30.54, 0.266833, , 
30.57, 0.264203, , 
30.60, 0.261104, , 
30.63, 0.257802, , 
30.66, 0.254985, , 
30.69, 0.252134, , 
30.72, 0.249301, , 
30.75, 0.246482, , 
30.78, 0.243141, , 
30.81, 0.240277, , 
30.84, 0.236953, , 
30.87, 0.234184, , 
30.90, 0.231926, , 
30.93, 0.228731, , 
30.96, 0.225984, , 
30.99, 0.222749, , 
31.02, 0.220002, , 
31.05, 0.217309, , 
31.08, 0.214210, , 
31.11, 0.212025, , 
31.14, 0.208970, , 
31.17, 0.206613, , 
31.20, 0.203895, , 
31.23, 0.200964, , 
31.26, 0.198468, , 
31.29, 0.195620, , 
31.32, 0.193881, , 
31.35, 0.191293, , 
31.38, 0.188533, , 
31.41, 0.186221, , 
31.44, 0.183598, , 
31.47, 0.181368, , 
31.50, 0.179160, , 
31.53, 0.176975, , 
31.56, 0.174815, , 
31.59, 0.172290, , 
31.62, 0.170117, , 
31.65, 0.168008, , 
31.68, 0.165638, , 
31.71, 0.163574, , 
31.74, 0.161509, , 
31.77, 0.159472, , 
31.80, 0.157477, , 
31.83, 0.155269, , 
31.86, 0.153350, , 
31.89, 0.151095, , 
31.92, 0.149550, , 
31.95, 0.147736, , 
31.98, 0.145595, 10, 0.584
31.99, 0.145284, , 
32.01, 0.143803, , 
32.04, 0.141770, , 
32.07, 0.140050, , 
32.10, 0.138382, , 
32.13, 0.136710, , 
32.16, 0.135070, , 
32.19, 0.133205, , 
32.22, 0.131683, , 
32.25, 0.130173, , 
32.28, 0.128454, , 
32.31, 0.127007, , 
32.34, 0.125596, , 
32.37, 0.124219, , 
32.40, 0.122890, , 
32.43, 0.121323, , 
32.46, 0.120001, , 
32.49, 0.118472, , 
32.52, 0.117251, , 
32.55, 0.116277, , 
32.58, 0.114900, , 
32.61, 0.113692, , 
32.64, 0.112363, , 
32.67, 0.111189, , 
32.70, 0.110000, , 
32.73, 0.108686, , 
32.76, 0.107830, , 
32.79, 0.106587, , 
32.82, 0.105559, , 
32.85, 0.104528, , 
32.88, 0.103338, , 
32.91, 0.102327, , 
32.94, 0.101147, , 
32.97, 0.100328, , 
33.00, 0.099399, , 
33.03, 0.098248, , 
33.06, 0.097213, , 
33.09, 0.096078, , 
33.12, 0.095260, , 
33.15, 0.094505, , 
33.18, 0.093702, , 
33.21, 0.092881, , 
33.24, 0.091910, , 
33.27, 0.091054, , 
33.30, 0.090242, , 
33.33, 0.089496, , 
33.36, 0.088665, , 
33.39, 0.087996, , 
33.42, 0.087314, , 
33.45, 0.086534, , 
33.48, 0.085842, , 
33.51, 0.085328, , 
33.54, 0.084570, , 
33.57, 0.083888, , 
33.60, 0.083162, , 
33.63, 0.082458, , 
33.66, 0.081741, , 
33.70, 0.080970, , 
33.72, 0.080472, , 
33.75, 0.079777, , 
33.78, 0.079162, , 
33.81, 0.078556, , 
33.84, 0.077877, , 
33.87, 0.077268, , 
33.90, 0.076685, , 
33.93, 0.076098, , 
33.96, 0.075527, , 
33.99, 0.074864, , 
34.02, 0.074328, , 
34.05, 0.073773, , 
34.08, 0.073275, , 
34.11, 0.072818, , 
34.14, 0.072139, , 
34.17, 0.071591, , 
34.20, 0.071035, , 
34.23, 0.070563, , 
34.26, 0.070084, , 
34.29, 0.069570, , 
34.32, 0.069135, , 
34.35, 0.068701, , 
34.38, 0.068251, , 
34.41, 0.067797, , 
34.44, 0.067308, , 
34.47, 0.066849, , 
34.50, 0.066325, , 
34.53, 0.065973, , 
34.56, 0.065542, , 
34.59, 0.065104, , 
34.62, 0.064831, , 
34.65, 0.064422, , 
34.68, 0.064064, , 
34.71, 0.063680, , 
34.74, 0.063248, , 
34.77, 0.062817, , 
34.80, 0.062351, , 
34.83, 0.062014, , 
34.86, 0.061713, , 
34.89, 0.061326, , 
34.92, 0.060958, , 
34.95, 0.060568, , 
34.98, 0.060210, , 
35.01, 0.059880, , 
35.04, 0.059540, , 
35.07, 0.059233, , 
35.10, 0.058906, , 
35.14, 0.058617, , 
35.16, 0.058329, , 
35.18, 0.058031, 11, 0.586
35.19, 0.057910, , 
35.22, 0.057602, , 
35.25, 0.057276, , 
35.28, 0.056977, , 
35.31, 0.056654, , 
35.34, 0.056365, , 
35.37, 0.056083, , 
35.40, 0.055874, , 
35.43, 0.055598, , 
35.46, 0.055407, , 
35.49, 0.055128, , 
35.52, 0.054808, , 
35.55, 0.054513, , 
35.58, 0.054189, , 
35.61, 0.053863, , 
35.65, 0.053599, , 
35.67, 0.053352, , 
35.70, 0.053095, , 
35.73, 0.052857, , 
35.76, 0.052641, , 
35.79, 0.052410, , 
35.82, 0.052140, , 
35.85, 0.051969, , 
35.88, 0.051718, , 
35.91, 0.051506, , 
35.94, 0.051255, , 
35.97, 0.051011, , 
36.00, 0.050802, , 
36.03, 0.050535, , 
36.06, 0.050351, , 
36.09, 0.050120, , 
36.12, 0.049964, , 
36.15, 0.049815, , 
36.18, 0.049574, , 
36.21, 0.049444, , 
36.24, 0.049327, , 
36.27, 0.049165, , 
36.30, 0.049022, , 
36.33, 0.048880, , 
36.36, 0.048727, , 
36.39, 0.048553, , 
36.42, 0.048388, , 
36.45, 0.048242, , 
36.48, 0.048099, , 
36.51, 0.047941, , 
36.54, 0.047807, , 
36.57, 0.047642, , 
36.60, 0.047503, , 
36.63, 0.047363, , 
36.66, 0.047157, , 
36.69, 0.047002, , 
36.72, 0.046884, , 
36.75, 0.046729, , 
36.78, 0.046558, , 
36.81, 0.046412, , 
36.84, 0.046355, , 
36.88, 0.046291, , 
36.90, 0.046218, , 
36.93, 0.046082, , 
36.96, 0.045911, , 
36.99, 0.045771, , 
37.02, 0.045692, , 
37.05, 0.045654, , 
37.08, 0.045682, , 
37.11, 0.045663, , 
37.14, 0.045644, , 
37.17, 0.045657, , 
37.20, 0.045663, , 
37.23, 0.045650, , 
37.26, 0.045628, , 
37.29, 0.045641, , 
37.32, 0.045654, , 
37.35, 0.045641, , 
37.38, 0.045666, , 
37.41, 0.045698, , 
37.44, 0.045784, , 
37.47, 0.045926, , 
37.50, 0.046028, , 
37.53, 0.046117, , 
37.56, 0.046148, , 
37.59, 0.046171, , 
37.62, 0.046237, , 
37.65, 0.046339, , 
37.68, 0.046434, , 
37.71, 0.046577, , 
37.74, 0.046719, , 
37.77, 0.046910, , 
37.80, 0.047021, , 
37.83, 0.047183, , 
37.86, 0.047455, , 
37.89, 0.047715, , 
37.93, 0.048004, , 
37.95, 0.048201, , 
37.98, 0.048432, , 
38.01, 0.048784, , 
38.04, 0.049121, , 
38.07, 0.049517, , 
38.10, 0.049920, , 
38.14, 0.050351, , 
38.16, 0.050691, , 
38.19, 0.051005, , 
38.22, 0.051389, , 
38.25, 0.051963, , 
38.28, 0.052461, , 
38.31, 0.052959, , 
38.34, 0.053530, , 
38.37, 0.053983, , 
38.39, 0.054215, 12, 0.586
38.40, 0.054449, , 
38.43, 0.054951, , 
38.46, 0.055528, , 
38.49, 0.056280, , 
38.52, 0.056905, , 
38.55, 0.057586, , 
38.58, 0.058157, , 
38.61, 0.058684, , 
38.64, 0.059407, , 
38.67, 0.060057, , 
38.70, 0.060816, , 
38.73, 0.061466, , 
38.76, 0.062103, , 
38.79, 0.062874, , 
38.82, 0.063420, , 
38.85, 0.064194, , 
38.88, 0.064825, , 
38.91, 0.065393, , 
38.94, 0.066059, , 
38.97, 0.066671, , 
39.00, 0.067369, , 
39.03, 0.067787, , 
39.06, 0.068270, , 
39.09, 0.068834, , 
39.12, 0.069266, , 
39.15, 0.069760, , 
39.18, 0.070201, , 
39.21, 0.070642, , 
39.24, 0.071051, , 
39.27, 0.071461, , 
39.30, 0.071886, , 
39.33, 0.072244, , 
39.36, 0.072514, , 
39.39, 0.072802, , 
39.42, 0.073040, , 
39.45, 0.073205, , 
39.48, 0.073370, , 
39.51, 0.073421, , 
39.54, 0.073573, , 
39.57, 0.073738, , 
39.60, 0.073830, , 
39.63, 0.073903, , 
39.66, 0.073884, , 
39.69, 0.073808, , 
39.72, 0.073690, , 
39.75, 0.073564, , 
39.78, 0.073478, , 
39.81, 0.073370, , 
39.84, 0.073224, , 
39.87, 0.073123, , 
39.90, 0.072954, , 
39.93, 0.072685, , 
39.96, 0.072415, , 
39.99, 0.072130, , 
40.02, 0.071924, , 
40.05, 0.071692, , 
40.08, 0.071410, , 
40.11, 0.071099, , 
40.14, 0.070775, , 
40.17, 0.070522, , 
40.20, 0.070170, , 
40.23, 0.069732, , 
40.27, 0.069342, , 
40.29, 0.068983, , 
40.32, 0.068685, , 
40.35, 0.068355, , 
40.38, 0.067940, , 
40.41, 0.067562, , 
40.44, 0.067061, , 
40.47, 0.066684, , 
40.50, 0.066287, , 
40.53, 0.065780, , 
40.56, 0.065364, , 
40.59, 0.065025, , 
40.62, 0.064685, , 
40.65, 0.064324, , 
40.68, 0.063934, , 
40.71, 0.063486, , 
40.74, 0.063061, , 
40.77, 0.062646, , 
40.80, 0.062198, , 
40.83, 0.061767, , 
40.86, 0.061263, , 
40.89, 0.060860, , 
40.92, 0.060467, , 
40.95, 0.060159, , 
40.98, 0.059883, , 
41.01, 0.059429, , 
41.04, 0.059049, , 
41.07, 0.058567, , 
41.10, 0.058189, , 
41.13, 0.057881, , 
41.16, 0.057472, , 
41.19, 0.057199, , 
41.22, 0.056781, , 
41.25, 0.056464, , 
41.28, 0.056169, , 
41.31, 0.055791, , 
41.34, 0.055449, , 
41.37, 0.055033, , 
41.40, 0.054795, , 
41.43, 0.054484, , 
41.46, 0.054126, , 
41.49, 0.053834, , 
41.52, 0.053558, , 
41.55, 0.053308, , 
41.58, 0.053057, , 
41.59, 0.053009, 13, 0.586
41.61, 0.052746, , 
41.65, 0.052473, , 
41.67, 0.052273, , 
41.70, 0.052004, , 
41.73, 0.051731, , 
41.76, 0.051468, , 
41.79, 0.051239, , 
41.82, 0.051014, , 
41.85, 0.050802, , 
41.88, 0.050586, , 
41.91, 0.050361, , 
41.94, 0.050104, , 
41.97, 0.049901, , 
42.00, 0.049752, , 
42.03, 0.049568, , 
42.06, 0.049406, , 
42.09, 0.049200, , 
42.12, 0.048984, , 
42.15, 0.048762, , 
42.18, 0.048540, , 
42.21, 0.048312, , 
42.24, 0.048055, , 
42.27, 0.047874, , 
42.30, 0.047589, , 
42.33, 0.047420, , 
42.36, 0.047284, , 
42.39, 0.047113, , 
42.42, 0.046922, , 
42.45, 0.046672, , 
42.48, 0.046494, , 
42.51, 0.046367, , 
42.54, 0.046196, , 
42.57, 0.045993, , 
42.60, 0.045739, , 
42.63, 0.045539, , 
42.66, 0.045362, , 
42.69, 0.045194, , 
42.72, 0.045026, , 
42.75, 0.044858, , 
42.78, 0.044759, , 
42.81, 0.044664, , 
42.84, 0.044531, , 
42.87, 0.044404, , 
42.90, 0.044268, , 
42.93, 0.044134, , 
42.96, 0.043941, , 
42.99, 0.043792, , 
43.02, 0.043684, , 
43.05, 0.043573, , 
43.08, 0.043478, , 
43.11, 0.043357, , 
43.14, 0.043189, , 
43.17, 0.043107, , 
43.20, 0.042977, , 
43.23, 0.042866, , 
43.26, 0.042720, , 
43.29, 0.042624, , 
43.32, 0.042564, , 
43.35, 0.042526, , 
43.38, 0.042412, , 
43.41, 0.042260, , 
43.44, 0.042165, , 
43.47, 0.042095, , 
43.50, 0.042025, , 
43.53, 0.041936, , 
43.56, 0.041819, , 
43.59, 0.041682, , 
43.62, 0.041594, , 
43.65, 0.041514, , 
43.68, 0.041517, , 
43.71, 0.041489, , 
43.74, 0.041432, , 
43.77, 0.041340, , 
43.80, 0.041248, , 
43.83, 0.041134, , 
43.86, 0.041064, , 
43.89, 0.041134, , 
43.92, 0.041254, , 
43.95, 0.041362, , 
43.98, 0.041410, , 
44.01, 0.041451, , 
44.04, 0.041457, , 
44.07, 0.041467, , 
44.11, 0.041467, , 
44.13, 0.041464, , 
44.16, 0.041470, , 
44.19, 0.041489, , 
44.22, 0.041489, , 
44.25, 0.041514, , 
44.28, 0.041517, , 
44.31, 0.041505, , 
44.34, 0.041517, , 
44.37, 0.041502, , 
44.40, 0.041543, , 
44.43, 0.041660, , 
44.46, 0.041790, , 
44.49, 0.041879, , 
44.52, 0.041946, , 
44.55, 0.041996, , 
44.58, 0.042025, , 
44.61, 0.042041, , 
44.64, 0.042130, , 
44.67, 0.042237, , 
44.70, 0.042364, , 
44.73, 0.042475, , 
44.76, 0.042640, , 
44.78, 0.042799, 14, 0.585
44.79, 0.042846, , 
44.82, 0.043040, , 
44.85, 0.043253, , 
44.88, 0.043395, , 
44.91, 0.043570, , 
44.94, 0.043744, , 
44.97, 0.043912, , 
45.00, 0.044264, , 
45.03, 0.044610, , 
45.06, 0.044930, , 
45.09, 0.045276, , 
45.12, 0.045574, , 
45.15, 0.045920, , 
45.18, 0.046317, , 
45.21, 0.046745, , 
45.24, 0.047240, , 
45.27, 0.047687, , 
45.30, 0.048274, , 
45.33, 0.048854, , 
45.36, 0.049349, , 
45.39, 0.049983, , 
45.42, 0.050580, , 
45.45, 0.051201, , 
45.48, 0.051975, , 
45.51, 0.052594, , 
45.54, 0.053393, , 
45.57, 0.053967, , 
45.60, 0.054824, , 
45.63, 0.055658, , 
45.66, 0.056407, , 
45.69, 0.057314, , 
45.72, 0.058107, , 
45.75, 0.058935, , 
45.78, 0.059791, , 
45.81, 0.060657, , 
45.84, 0.061666, , 
45.87, 0.062532, , 
45.90, 0.063372, , 
45.93, 0.064403, , 
45.96, 0.065301, , 
45.99, 0.066163, , 
46.02, 0.067007, , 
46.05, 0.067845, , 
46.08, 0.068723, , 
46.11, 0.069462, , 
46.14, 0.070382, , 
46.17, 0.071181, , 
46.20, 0.071806, , 
46.23, 0.072634, , 
46.26, 0.073291, , 
46.29, 0.074103, , 
46.32, 0.074763, , 
46.35, 0.075305, , 
46.38, 0.075844, , 
46.41, 0.076326, , 
46.44, 0.076865, , 
46.47, 0.077319, , 
46.50, 0.077858, , 
46.53, 0.078271, , 
46.56, 0.078540, , 
46.59, 0.078864, , 
46.62, 0.079121, , 
46.65, 0.079387, , 
46.68, 0.079590, , 
46.71, 0.079761, , 
46.74, 0.079980, , 
46.77, 0.080139, , 
46.80, 0.080294, , 
46.83, 0.080380, , 
46.86, 0.080370, , 
46.89, 0.080288, , 
46.92, 0.080180, , 
46.95, 0.080060, , 
46.98, 0.080012, , 
47.01, 0.079936, , 
47.04, 0.079746, , 
47.07, 0.079543, , 
47.10, 0.079314, , 
47.13, 0.079114, , 
47.16, 0.078864, , 
47.19, 0.078569, , 
47.22, 0.078325, , 
47.25, 0.077988, , 
47.28, 0.077646, , 
47.31, 0.077259, , 
47.34, 0.076815, , 
47.38, 0.076383, , 
47.40, 0.076041, , 
47.43, 0.075530, , 
47.46, 0.075083, , 
47.49, 0.074582, , 
47.52, 0.074077, , 
47.55, 0.073456, , 
47.58, 0.073012, , 
47.61, 0.072479, , 
47.64, 0.071876, , 
47.67, 0.071416, , 
47.70, 0.070909, , 
47.74, 0.070360, , 
47.76, 0.069773, , 
47.79, 0.069234, , 
47.82, 0.068745, , 
47.85, 0.068292, , 
47.88, 0.067743, , 
47.91, 0.067296, , 
47.94, 0.066842, , 
47.97, 0.066195, , 
47.98, 0.066014, 15, 0.585
48.00, 0.065631, , 
48.03, 0.065120, , 
48.06, 0.064555, , 
48.09, 0.064181, , 
48.12, 0.063642, , 
48.15, 0.063207, , 
48.18, 0.062757, , 
48.21, 0.062300, , 
48.24, 0.062005, , 
48.27, 0.061678, , 
48.30, 0.061269, , 
48.33, 0.060965, , 
48.36, 0.060593, , 
48.39, 0.060302, , 
48.42, 0.059924, , 
48.45, 0.059658, , 
48.48, 0.059369, , 
48.51, 0.059049, , 
48.54, 0.058795, , 
48.57, 0.058316, , 
48.60, 0.057989, , 
48.63, 0.057720, , 
48.66, 0.057339, , 
48.69, 0.057038, , 
48.72, 0.056762, , 
48.75, 0.056438, , 
48.78, 0.056146, , 
48.81, 0.055817, , 
48.84, 0.055503, , 
48.87, 0.055144, , 
48.90, 0.054894, , 
48.93, 0.054643, , 
48.96, 0.054269, , 
48.99, 0.054037, , 
49.02, 0.053863, , 
49.05, 0.053672, , 
49.08, 0.053492, , 
49.11, 0.053314, , 
49.14, 0.053174, , 
49.17, 0.052984, , 
49.20, 0.052832, , 
49.23, 0.052737, , 
49.26, 0.052540, , 
49.29, 0.052426, , 
49.32, 0.052308, , 
49.35, 0.052220, , 
49.38, 0.052064, , 
49.41, 0.051890, , 
49.44, 0.051788, , 
49.47, 0.051741, , 
49.50, 0.051693, , 
49.53, 0.051668, , 
49.56, 0.051595, , 
49.59, 0.051468, , 
49.62, 0.051335, , 
49.65, 0.051236, , 
49.68, 0.051198, , 
49.71, 0.051192, , 
49.75, 0.051141, , 
49.77, 0.051046, , 
49.80, 0.050878, , 
49.83, 0.050773, , 
49.86, 0.050748, , 
49.89, 0.050672, , 
49.92, 0.050675, , 
49.95, 0.050678, , 
49.98, 0.050678, , 
50.01, 0.050665, , 
50.04, 0.050684, , 
50.07, 0.050703, , 
50.10, 0.050668, , 
50.13, 0.050561, , 
50.16, 0.050427, , 
50.19, 0.050367, , 
50.22, 0.050399, , 
50.25, 0.050472, , 
50.28, 0.050576, , 
50.31, 0.050653, , 
50.34, 0.050678, , 
50.37, 0.050678, , 
50.40, 0.050745, , 
50.43, 0.050884, , 
50.46, 0.051030, , 
50.49, 0.051128, , 
50.52, 0.051297, , 
50.55, 0.051484, , 
50.58, 0.051572, , 
50.61, 0.051633, , 
50.64, 0.051728, , 
50.67, 0.051909, , 
50.70, 0.052096, , 
50.73, 0.052362, , 
50.76, 0.052733, , 
50.79, 0.052936, , 
50.82, 0.053203, , 
50.85, 0.053574, , 
50.88, 0.053945, , 
50.91, 0.054411, , 
50.94, 0.054744, , 
50.97, 0.055052, , 
51.00, 0.055401, , 
51.03, 0.055826, , 
51.06, 0.056426, , 
51.09, 0.056946, , 
51.12, 0.057428, , 
51.15, 0.057986, , 
51.18, 0.058478, 16, 0.585
51.19, 0.058563, , 
51.21, 0.059011, , 
51.24, 0.059610, , 
51.27, 0.060257, , 
51.30, 0.060987, , 
51.33, 0.061631, , 
51.36, 0.062316, , 
51.39, 0.062963, , 
51.42, 0.063708, , 
51.45, 0.064340, , 
51.48, 0.065110, , 
51.51, 0.065646, , 
51.54, 0.066319, , 
51.57, 0.067172, , 
51.60, 0.067889, , 
51.63, 0.068596, , 
51.66, 0.069364, , 
51.69, 0.070036, , 
51.72, 0.070772, , 
51.75, 0.071629, , 
51.78, 0.072314, , 
51.81, 0.073015, , 
51.84, 0.073700, , 
51.87, 0.074388, , 
51.90, 0.075124, , 
51.93, 0.075701, , 
51.96, 0.076409, , 
51.99, 0.076910, , 
52.02, 0.077471, , 
52.05, 0.078103, , 
52.08, 0.078578, , 
52.11, 0.079026, , 
52.14, 0.079527, , 
52.17, 0.079961, , 
52.20, 0.080367, , 
52.23, 0.080700, , 
52.26, 0.081068, , 
52.29, 0.081376, , 
52.32, 0.081642, , 
52.35, 0.081880, , 
52.38, 0.082042, , 
52.41, 0.082226, , 
52.44, 0.082366, , 
52.47, 0.082442, , 
52.50, 0.082486, , 
52.53, 0.082493, , 
52.56, 0.082512, , 
52.59, 0.082527, , 
52.62, 0.082508, , 
52.65, 0.082496, , 
52.68, 0.082426, , 
52.71, 0.082299, , 
52.74, 0.082134, , 
52.77, 0.081991, , 
52.80, 0.081839, , 
52.83, 0.081608, , 
52.86, 0.081332, , 
52.89, 0.081018, , 
52.92, 0.080827, , 
52.95, 0.080554, , 
52.98, 0.080148, , 
53.01, 0.079809, , 
53.04, 0.079454, , 
53.07, 0.079159, , 
53.10, 0.078791, , 
53.13, 0.078420, , 
53.16, 0.078014, , 
53.19, 0.077535, , 
53.22, 0.077119, , 
53.25, 0.076701, , 
53.28, 0.076209, , 
53.31, 0.075749, , 
53.34, 0.075318, , 
53.37, 0.074835, , 
53.40, 0.074480, , 
53.43, 0.074027, , 
53.46, 0.073437, , 
53.49, 0.072863, , 
53.52, 0.072247, , 
53.55, 0.071736, , 
53.58, 0.071270, , 
53.61, 0.070836, , 
53.64, 0.070388, , 
53.67, 0.069862, , 
53.70, 0.069411, , 
53.73, 0.069015, , 
53.76, 0.068520, , 
53.79, 0.068063, , 
53.82, 0.067607, , 
53.85, 0.067201, , 
53.88, 0.066795, , 
53.91, 0.066281, , 
53.94, 0.065830, , 
53.97, 0.065355, , 
54.01, 0.064923, , 
54.03, 0.064587, , 
54.06, 0.064143, , 
54.09, 0.063845, , 
54.12, 0.063455, , 
54.15, 0.063090, , 
54.18, 0.062763, , 
54.21, 0.062500, , 
54.24, 0.062243, , 
54.27, 0.062014, , 
54.30, 0.061872, , 
54.33, 0.061662, , 
54.36, 0.061513, , 
54.39, 0.061428, 17, 0.586
54.39, 0.061418, , 
54.42, 0.061234, , 
54.45, 0.061091, , 
54.48, 0.060958, , 
54.51, 0.060873, , 
54.54, 0.060825, , 
54.58, 0.060800, , 
54.60, 0.060730, , 
54.63, 0.060581, , 
54.66, 0.060460, , 
54.69, 0.060390, , 
54.72, 0.060321, , 
54.75, 0.060172, , 
54.78, 0.060013, , 
54.81, 0.059880, , 
54.84, 0.059829, , 
54.87, 0.059753, , 
54.90, 0.059677, , 
54.93, 0.059610, , 
54.96, 0.059629, , 
54.99, 0.059655, , 
55.02, 0.059696, , 
55.05, 0.059728, , 
55.08, 0.059731, , 
55.11, 0.059750, , 
55.14, 0.059762, , 
55.17, 0.059772, , 
55.21, 0.059864, , 
55.23, 0.059950, , 
55.26, 0.060162, , 
55.29, 0.060409, , 
55.32, 0.060720, , 
55.35, 0.060984, , 
55.38, 0.061215, , 
55.41, 0.061456, , 
55.44, 0.061694, , 
55.47, 0.061957, , 
55.50, 0.062157, , 
55.53, 0.062360, , 
55.56, 0.062624, , 
55.59, 0.062918, , 
55.62, 0.063248, , 
55.65, 0.063588, , 
55.68, 0.063857, , 
55.71, 0.064209, , 
55.74, 0.064577, , 
55.77, 0.064993, , 
55.80, 0.065285, , 
55.83, 0.065526, , 
55.86, 0.065922, , 
55.89, 0.066316, , 
55.92, 0.066864, , 
55.95, 0.067429, , 
55.98, 0.067956, , 
56.01, 0.068533, , 
56.04, 0.068926, , 
56.07, 0.069503, , 
56.10, 0.070065, , 
56.13, 0.070636, , 
56.16, 0.071283, , 
56.19, 0.071851, , 
56.23, 0.072536, , 
56.25, 0.073021, , 
56.28, 0.073500, , 
56.31, 0.074074, , 
56.34, 0.074588, , 
56.37, 0.075232, , 
56.40, 0.075784, , 
56.43, 0.076307, , 
56.46, 0.076777, , 
56.49, 0.077249, , 
56.52, 0.077785, , 
56.55, 0.078198, , 
56.58, 0.078654, , 
56.61, 0.079054, , 
56.65, 0.079324, , 
56.67, 0.079650, , 
56.70, 0.080003, , 
56.73, 0.080291, , 
56.76, 0.080618, , 
56.79, 0.080932, , 
56.82, 0.081271, , 
56.85, 0.081471, , 
56.88, 0.081684, , 
56.91, 0.081944, , 
56.94, 0.082153, , 
56.97, 0.082328, , 
57.00, 0.082375, , 
57.03, 0.082407, , 
57.06, 0.082426, , 
57.09, 0.082451, , 
57.12, 0.082445, , 
57.15, 0.082445, , 
57.18, 0.082464, , 
57.21, 0.082477, , 
57.24, 0.082451, , 
57.27, 0.082353, , 
57.30, 0.082223, , 
57.33, 0.082039, , 
57.36, 0.081795, , 
57.39, 0.081560, , 
57.42, 0.081351, , 
57.45, 0.081129, , 
57.48, 0.080926, , 
57.51, 0.080691, , 
57.54, 0.080488, , 
57.57, 0.080234, , 
57.58, 0.080148, 18, 0.585
57.60, 0.079974, , 
57.63, 0.079701, , 
57.66, 0.079387, , 
57.69, 0.079102, , 
57.72, 0.078816, , 
57.75, 0.078404, , 
57.78, 0.078045, , 
57.81, 0.077722, , 
57.84, 0.077459, , 
57.87, 0.077208, , 
57.90, 0.076913, , 
57.93, 0.076659, , 
57.96, 0.076333, , 
57.99, 0.076047, , 
58.02, 0.075727, , 
58.05, 0.075299, , 
58.08, 0.074893, , 
58.11, 0.074575, , 
58.14, 0.074230, , 
58.17, 0.073954, , 
58.20, 0.073529, , 
58.23, 0.073142, , 
58.26, 0.072745, , 
58.29, 0.072377, , 
58.32, 0.072076, , 
58.35, 0.071654, , 
58.38, 0.071343, , 
58.41, 0.070959, , 
58.44, 0.070480, , 
58.47, 0.070135, , 
58.50, 0.069871, , 
58.53, 0.069627, , 
58.56, 0.069411, , 
58.59, 0.069259, , 
58.62, 0.069142, , 
58.65, 0.068974, , 
58.68, 0.068783, , 
58.71, 0.068679, , 
58.74, 0.068637, , 
58.77, 0.068599, , 
58.80, 0.068552, , 
58.83, 0.068542, , 
58.86, 0.068596, , 
58.89, 0.068603, , 
58.92, 0.068561, , 
58.95, 0.068580, , 
58.98, 0.068615, , 
59.01, 0.068609, , 
59.04, 0.068568, , 
59.07, 0.068590, , 
59.10, 0.068571, , 
59.13, 0.068584, , 
59.16, 0.068565, , 
59.19, 0.068590, , 
59.22, 0.068599, , 
59.25, 0.068628, , 
59.28, 0.068749, , 
59.31, 0.068917, , 
59.34, 0.069126, , 
59.37, 0.069319, , 
59.40, 0.069522, , 
59.43, 0.069735, , 
59.46, 0.070008, , 
59.49, 0.070265, , 
59.52, 0.070553, , 
59.55, 0.070855, , 
59.58, 0.071137, , 
59.61, 0.071546, , 
59.64, 0.071917, , 
59.67, 0.072434, , 
59.70, 0.072818, , 
59.73, 0.073066, , 
59.76, 0.073446, , 
59.79, 0.073798, , 
59.82, 0.074236, , 
59.85, 0.074617, , 
59.88, 0.075054, , 
59.91, 0.075562, , 
59.94, 0.075920, , 
59.97, 0.076437, , 
60.00, 0.076859, , 
60.03, 0.077319, , 
60.06, 0.077833, , 
60.09, 0.078245, , 
60.13, 0.078794, , 
60.15, 0.079168, , 
60.18, 0.079600, , 
60.21, 0.080114, , 
60.24, 0.080523, , 
60.27, 0.080970, , 
60.30, 0.081531, , 
60.34, 0.082083, , 
60.36, 0.082654, , 
60.39, 0.083194, , 
60.42, 0.083669, , 
60.45, 0.084189, , 
60.48, 0.084535, , 
60.51, 0.084856, , 
60.54, 0.085217, , 
60.57, 0.085474, , 
60.60, 0.085734, , 
60.63, 0.085906, , 
60.66, 0.086058, , 
60.69, 0.086235, , 
60.72, 0.086359, , 
60.75, 0.086407, , 
60.78, 0.086423, 19, 0.585
60.79, 0.086413, , 
60.81, 0.086394, , 
60.84, 0.086327, , 
60.87, 0.086140, , 
60.90, 0.085890, , 
60.93, 0.085661, , 
60.96, 0.085522, , 
60.99, 0.085316, , 
61.03, 0.085154, , 
61.05, 0.084995, , 
61.08, 0.084856, , 
61.11, 0.084722, , 
61.14, 0.084554, , 
61.17, 0.084370, , 
61.20, 0.084126, , 
61.23, 0.083888, , 
61.26, 0.083631, , 
61.29, 0.083358, , 
61.32, 0.083165, , 
61.35, 0.082905, , 
61.38, 0.082676, , 
61.41, 0.082426, , 
61.44, 0.082125, , 
61.47, 0.081842, , 
61.50, 0.081569, , 
61.53, 0.081182, , 
61.56, 0.080903, , 
61.59, 0.080593, , 
61.62, 0.080266, , 
61.65, 0.080025, , 
61.68, 0.079720, , 
61.71, 0.079514, , 
61.74, 0.079184, , 
61.77, 0.078905, , 
61.80, 0.078607, , 
61.83, 0.078318, , 
61.86, 0.078160, , 
61.89, 0.077957, , 
61.92, 0.077773, , 
61.95, 0.077551, , 
61.98, 0.077306, , 
62.01, 0.077154, , 
62.05, 0.076977, , 
62.07, 0.076831, , 
62.10, 0.076678, , 
62.13, 0.076558, , 
62.16, 0.076539, , 
62.19, 0.076482, , 
62.22, 0.076450, , 
62.25, 0.076459, , 
62.28, 0.076444, , 
62.31, 0.076431, , 
62.34, 0.076393, , 
62.37, 0.076399, , 
62.40, 0.076409, , 
62.43, 0.076485, , 
62.46, 0.076583, , 
62.49, 0.076777, , 
62.52, 0.076961, , 
62.55, 0.077173, , 
62.58, 0.077421, , 
62.61, 0.077649, , 
62.64, 0.077934, , 
62.67, 0.078103, , 
62.70, 0.078312, , 
62.73, 0.078654, , 
62.76, 0.078946, , 
62.79, 0.079260, , 
62.82, 0.079536, , 
62.85, 0.079844, , 
62.88, 0.080114, , 
62.91, 0.080386, , 
62.94, 0.080770, , 
62.97, 0.081160, , 
63.00, 0.081557, , 
63.03, 0.081944, , 
63.06, 0.082223, , 
63.09, 0.082562, , 
63.12, 0.082930, , 
63.15, 0.083320, , 
63.18, 0.083739, , 
63.21, 0.084053, , 
63.24, 0.084408, , 
63.28, 0.084760, , 
63.30, 0.085062, , 
63.33, 0.085449, , 
63.36, 0.085744, , 
63.39, 0.086045, , 
63.42, 0.086283, , 
63.45, 0.086495, , 
63.48, 0.086740, , 
63.51, 0.086971, , 
63.54, 0.087203, , 
63.57, 0.087425, , 
63.60, 0.087612, , 
63.63, 0.087764, , 
63.66, 0.087799, , 
63.69, 0.087828, , 
63.72, 0.087869, , 
63.75, 0.087891, , 
63.78, 0.087970, , 
63.81, 0.088050, , 
63.84, 0.088034, , 
63.87, 0.088012, , 
63.90, 0.087980, , 
63.93, 0.087967, , 
63.96, 0.087977, , 
63.98, 0.087967, 20, 0.586
63.99, 0.087970, , 
64.02, 0.087951, , 
64.05, 0.087945, , 
64.08, 0.087859, , 
64.11, 0.087714, , 
64.14, 0.087577, , 
64.17, 0.087476, , 
64.20, 0.087314, , 
64.23, 0.087149, , 
64.26, 0.087063, , 
64.29, 0.086990, , 
64.32, 0.086841, , 
64.35, 0.086679, , 
64.38, 0.086442, , 
64.41, 0.086251, , 
64.44, 0.086086, , 
64.47, 0.085915, , 
64.50, 0.085731, , 
64.53, 0.085620, , 
64.56, 0.085477, , 
64.59, 0.085233, , 
64.62, 0.085097, , 
64.65, 0.084995, , 
64.68, 0.084827, , 
64.71, 0.084681, , 
64.74, 0.084529, , 
64.77, 0.084478, , 
64.80, 0.084443, , 
64.83, 0.084316, , 
64.86, 0.084155, , 
64.89, 0.084059, , 
64.92, 0.083980, , 
64.95, 0.083942, , 
64.98, 0.083933, , 
65.01, 0.083926, , 
65.04, 0.083933, , 
65.07, 0.083933, , 
65.10, 0.084015, , 
65.13, 0.084161, , 
65.16, 0.084259, , 
65.19, 0.084320, , 
65.22, 0.084415, , 
65.25, 0.084583, , 
65.28, 0.084745, , 
65.31, 0.084868, , 
65.34, 0.085024, , 
65.38, 0.085236, , 
65.40, 0.085404, , 
65.43, 0.085607, , 
65.46, 0.085826, , 
65.49, 0.086055, , 
65.52, 0.086321, , 
65.55, 0.086527, , 
65.58, 0.086746, , 
65.61, 0.087000, , 
65.64, 0.087196, , 
65.67, 0.087491, , 
65.70, 0.087777, , 
65.73, 0.088050, , 
65.76, 0.088338, , 
65.79, 0.088541, , 
65.82, 0.088817, , 
65.85, 0.089020, , 
65.88, 0.089157, , 
65.91, 0.089366, , 
65.94, 0.089534, , 
65.97, 0.089709, , 
66.00, 0.089845, , 
66.03, 0.090020, , 
66.06, 0.090184, , 
66.09, 0.090254, , 
66.12, 0.090337, , 
66.15, 0.090479, , 
66.18, 0.090641, , 
66.21, 0.090755, , 
66.24, 0.090816, , 
66.27, 0.090863, , 
66.30, 0.090911, , 
66.33, 0.090914, , 
66.36, 0.090857, , 
66.39, 0.090740, , 
66.42, 0.090638, , 
66.45, 0.090537, , 
66.48, 0.090502, , 
66.51, 0.090464, , 
66.54, 0.090378, , 
66.57, 0.090245, , 
66.60, 0.090070, , 
66.63, 0.089959, , 
66.66, 0.089826, , 
66.69, 0.089683, , 
66.72, 0.089556, , 
66.75, 0.089357, , 
66.78, 0.089198, , 
66.81, 0.089052, , 
66.84, 0.088874, , 
66.87, 0.088744, , 
66.90, 0.088627, , 
66.93, 0.088551, , 
66.96, 0.088506, , 
66.99, 0.088516, , 
67.02, 0.088500, , 
67.05, 0.088472, , 
67.08, 0.088449, , 
67.11, 0.088303, , 
67.14, 0.088189, , 
67.17, 0.088088, , 
67.18, 0.088043, 21, 0.586
67.20, 0.088018, , 
67.23, 0.088005, , 
67.26, 0.087977, , 
67.29, 0.087961, , 
67.32, 0.087955, , 
67.35, 0.087951, , 
67.38, 0.088018, , 
67.41, 0.088154, , 
67.44, 0.088269, , 
67.47, 0.088357, , 
67.50, 0.088408, , 
67.53, 0.088408, , 
67.56, 0.088446, , 
67.59, 0.088548, , 
67.62, 0.088668, , 
67.65, 0.088792, , 
67.68, 0.088916, , 
67.71, 0.089201, , 
67.74, 0.089452, , 
67.77, 0.089699, , 
67.80, 0.089975, , 
67.83, 0.090131, , 
67.86, 0.090295, , 
67.89, 0.090489, , 
67.92, 0.090635, , 
67.95, 0.090778, , 
67.98, 0.090984, , 
68.01, 0.091088, , 
68.04, 0.091222, , 
68.07, 0.091336, , 
68.10, 0.091336, , 
68.13, 0.091349, , 
68.16, 0.091383, , 
68.19, 0.091406, , 
68.22, 0.091380, , 
68.25, 0.091377, , 
68.28, 0.091393, , 
68.31, 0.091387, , 
68.34, 0.091406, , 
68.37, 0.091380, , 
68.40, 0.091374, , 
68.43, 0.091390, , 
68.46, 0.091409, , 
68.49, 0.091402, , 
68.52, 0.091364, , 
68.55, 0.091218, , 
68.58, 0.091076, , 
68.61, 0.091003, , 
68.64, 0.090981, , 
68.67, 0.090939, , 
68.70, 0.090892, , 
68.73, 0.090778, , 
68.76, 0.090641, , 
68.79, 0.090556, , 
68.82, 0.090410, , 
68.85, 0.090229, , 
68.88, 0.090073, , 
68.91, 0.089848, , 
68.94, 0.089629, , 
68.97, 0.089502, , 
69.00, 0.089369, , 
69.03, 0.089166, , 
69.06, 0.089043, , 
69.09, 0.088966, , 
69.12, 0.088919, , 
69.15, 0.088859, , 
69.18, 0.088719, , 
69.21, 0.088564, , 
69.24, 0.088494, , 
69.27, 0.088478, , 
69.30, 0.088472, , 
69.33, 0.088557, , 
69.36, 0.088687, , 
69.39, 0.088773, , 
69.42, 0.088840, , 
69.45, 0.088868, , 
69.48, 0.088903, , 
69.51, 0.088928, , 
69.54, 0.088932, , 
69.57, 0.088954, , 
69.60, 0.089068, , 
69.63, 0.089192, , 
69.66, 0.089331, , 
69.69, 0.089398, , 
69.72, 0.089417, , 
69.75, 0.089430, , 
69.78, 0.089426, , 
69.81, 0.089449, , 
69.84, 0.089430, , 
69.87, 0.089430, , 
69.90, 0.089395, , 
69.93, 0.089379, , 
69.96, 0.089407, , 
69.99, 0.089407, , 
70.02, 0.089398, , 
70.05, 0.089414, , 
70.08, 0.089433, , 
70.11, 0.089426, , 
70.14, 0.089410, , 
70.17, 0.089357, , 
70.20, 0.089188, , 
70.23, 0.089077, , 
70.26, 0.088992, , 
70.29, 0.088960, , 
70.32, 0.088944, , 
70.35, 0.088893, , 
70.38, 0.088779, , 
70.39, 0.088757, 22, 0.586
70.41, 0.088640, , 
70.44, 0.088557, , 
70.47, 0.088494, , 
70.50, 0.088449, , 
70.54, 0.088370, , 
70.56, 0.088231, , 
70.59, 0.088097, , 
70.62, 0.088021, , 
70.65, 0.087945, , 
70.68, 0.087786, , 
70.71, 0.087612, , 
70.74, 0.087517, , 
70.77, 0.087384, , 
70.80, 0.087209, , 
70.83, 0.087073, , 
70.86, 0.086997, , 
70.89, 0.086968, , 
70.92, 0.086968, , 
70.95, 0.086927, , 
70.98, 0.086933, , 
71.01, 0.086968, , 
71.04, 0.087079, , 
71.07, 0.087193, , 
71.10, 0.087330, , 
71.13, 0.087415, , 
71.16, 0.087545, , 
71.20, 0.087688, , 
71.22, 0.087783, , 
71.25, 0.087885, , 
71.28, 0.087932, , 
71.31, 0.087948, , 
71.34, 0.087964, , 
71.37, 0.087948, , 
71.40, 0.087958, , 
71.43, 0.087986, , 
71.46, 0.087983, , 
71.49, 0.087980, , 
71.52, 0.087945, , 
71.55, 0.087844, , 
71.58, 0.087726, , 
71.61, 0.087615, , 
71.64, 0.087377, , 
71.67, 0.087168, , 
71.70, 0.086921, , 
71.73, 0.086733, , 
71.76, 0.086508, , 
71.79, 0.086286, , 
71.82, 0.086197, , 
71.85, 0.086105, , 
71.88, 0.085963, , 
71.91, 0.085826, , 
71.94, 0.085683, , 
71.97, 0.085636, , 
72.00, 0.085503, , 
72.03, 0.085357, , 
72.06, 0.085249, , 
72.09, 0.085170, , 
72.12, 0.085055, , 
72.15, 0.084925, , 
72.18, 0.084783, , 
72.21, 0.084678, , 
72.24, 0.084526, , 
72.27, 0.084370, , 
72.30, 0.084272, , 
72.33, 0.084186, , 
72.36, 0.084123, , 
72.39, 0.084031, , 
72.42, 0.083926, , 
72.45, 0.083818, , 
72.48, 0.083653, , 
72.51, 0.083527, , 
72.54, 0.083384, , 
72.57, 0.083260, , 
72.60, 0.083181, , 
72.63, 0.083041, , 
72.66, 0.082902, , 
72.69, 0.082794, , 
72.72, 0.082696, , 
72.75, 0.082638, , 
72.78, 0.082553, , 
72.81, 0.082454, , 
72.84, 0.082305, , 
72.87, 0.082156, , 
72.90, 0.082001, , 
72.93, 0.081877, , 
72.96, 0.081722, , 
72.99, 0.081576, , 
73.02, 0.081420, , 
73.05, 0.081300, , 
73.08, 0.081179, , 
73.11, 0.081056, , 
73.14, 0.080951, , 
73.17, 0.080799, , 
73.20, 0.080704, , 
73.23, 0.080646, , 
73.26, 0.080520, , 
73.29, 0.080367, , 
73.33, 0.080244, , 
73.35, 0.080174, , 
73.38, 0.080155, , 
73.41, 0.080120, , 
73.44, 0.080025, , 
73.47, 0.079898, , 
73.50, 0.079774, , 
73.53, 0.079673, , 
73.56, 0.079622, , 
73.59, 0.079612, 23, 0.586
73.59, 0.079616, , 
73.62, 0.079603, , 
73.65, 0.079562, , 
73.68, 0.079463, , 
73.71, 0.079340, , 
73.75, 0.079229, , 
73.77, 0.079152, , 
73.80, 0.079003, , 
73.83, 0.078883, , 
73.86, 0.078746, , 
73.89, 0.078620, , 
73.92, 0.078534, , 
73.95, 0.078432, , 
73.98, 0.078283, , 
74.01, 0.078036, , 
74.04, 0.077836, , 
74.07, 0.077665, , 
74.10, 0.077497, , 
74.13, 0.077310, , 
74.16, 0.077110, , 
74.19, 0.076910, , 
74.22, 0.076713, , 
74.25, 0.076564, , 
74.28, 0.076406, , 
74.31, 0.076237, , 
74.34, 0.076123, , 
74.37, 0.075952, , 
74.40, 0.075784, , 
74.43, 0.075670, , 
74.46, 0.075584, , 
74.49, 0.075524, , 
74.52, 0.075425, , 
74.55, 0.075327, , 
74.58, 0.075210, , 
74.61, 0.075099, , 
74.64, 0.075026, , 
74.67, 0.074902, , 
74.70, 0.074785, , 
74.73, 0.074683, , 
74.77, 0.074636, , 
74.79, 0.074591, , 
74.82, 0.074471, , 
74.85, 0.074312, , 
74.88, 0.074201, , 
74.91, 0.074068, , 
74.94, 0.073893, , 
74.97, 0.073747, , 
75.00, 0.073617, , 
75.03, 0.073462, , 
75.06, 0.073278, , 
75.09, 0.073158, , 
75.12, 0.073056, , 
75.15, 0.072926, , 
75.18, 0.072818, , 
75.21, 0.072688, , 
75.24, 0.072574, , 
75.27, 0.072374, , 
75.30, 0.072193, , 
75.33, 0.072104, , 
75.36, 0.072012, , 
75.39, 0.071911, , 
75.42, 0.071756, , 
75.45, 0.071622, , 
75.48, 0.071502, , 
75.51, 0.071327, , 
75.54, 0.071210, , 
75.57, 0.071121, , 
75.60, 0.071096, , 
75.63, 0.071020, , 
75.66, 0.070832, , 
75.69, 0.070728, , 
75.72, 0.070591, , 
75.75, 0.070439, , 
75.78, 0.070268, , 
75.81, 0.070151, , 
75.84, 0.070078, , 
75.87, 0.069986, , 
75.90, 0.069814, , 
75.93, 0.069706, , 
75.96, 0.069545, , 
76.00, 0.069380, , 
76.02, 0.069231, , 
76.05, 0.069126, , 
76.08, 0.068971, , 
76.11, 0.068799, , 
76.14, 0.068695, , 
76.17, 0.068593, , 
76.20, 0.068501, , 
76.23, 0.068336, , 
76.26, 0.068184, , 
76.29, 0.068124, , 
76.32, 0.068098, , 
76.35, 0.068019, , 
76.38, 0.067889, , 
76.41, 0.067746, , 
76.44, 0.067699, , 
76.47, 0.067629, , 
76.50, 0.067565, , 
76.53, 0.067467, , 
76.56, 0.067318, , 
76.59, 0.067197, , 
76.62, 0.067131, , 
76.65, 0.067096, , 
76.68, 0.067102, , 
76.71, 0.067083, , 
76.74, 0.067026, , 
76.77, 0.066941, , 
76.78, 0.066883, 24, 0.585
76.80, 0.066782, , 
76.83, 0.066696, , 
76.86, 0.066639, , 
76.89, 0.066614, , 
76.92, 0.066515, , 
76.95, 0.066331, , 
76.98, 0.066249, , 
77.01, 0.066128, , 
77.04, 0.065948, , 
77.07, 0.065818, , 
77.10, 0.065646, , 
77.13, 0.065478, , 
77.16, 0.065313, , 
77.19, 0.065094, , 
77.22, 0.064882, , 
77.25, 0.064749, , 
77.28, 0.064635, , 
77.31, 0.064409, , 
77.34, 0.064241, , 
77.37, 0.064187, , 
77.40, 0.064095, , 
77.43, 0.063927, , 
77.46, 0.063753, , 
77.49, 0.063699, , 
77.52, 0.063642, , 
77.55, 0.063486, , 
77.58, 0.063347, , 
77.61, 0.063239, , 
77.64, 0.063172, , 
77.67, 0.063068, , 
77.70, 0.062909, , 
77.73, 0.062792, , 
77.76, 0.062709, , 
77.79, 0.062649, , 
77.82, 0.062627, , 
77.85, 0.062624, , 
77.88, 0.062608, , 
77.91, 0.062585, , 
77.94, 0.062592, , 
77.97, 0.062563, , 
78.00, 0.062401, , 
78.03, 0.062259, , 
78.06, 0.062195, , 
78.09, 0.062141, , 
78.12, 0.062113, , 
78.15, 0.062116, , 
78.18, 0.062119, , 
78.21, 0.062122, , 
78.24, 0.062081, , 
78.27, 0.061976, , 
78.30, 0.061846, , 
78.33, 0.061710, , 
78.36, 0.061567, , 
78.39, 0.061428, , 
78.42, 0.061279, , 
78.45, 0.061196, , 
78.48, 0.061025, , 
78.51, 0.060841, , 
78.54, 0.060730, , 
78.57, 0.060641, , 
78.60, 0.060495, , 
78.63, 0.060356, , 
78.66, 0.060267, , 
78.69, 0.060159, , 
78.72, 0.060045, , 
78.75, 0.059924, , 
78.78, 0.059823, , 
78.81, 0.059715, , 
78.85, 0.059601, , 
78.87, 0.059464, , 
78.90, 0.059337, , 
78.93, 0.059236, , 
78.96, 0.059147, , 
78.99, 0.059122, , 
79.02, 0.059103, , 
79.05, 0.059055, , 
79.08, 0.058919, , 
79.11, 0.058773, , 
79.14, 0.058693, , 
79.17, 0.058640, , 
79.20, 0.058554, , 
79.23, 0.058459, , 
79.26, 0.058329, , 
79.29, 0.058202, , 
79.32, 0.058018, , 
79.35, 0.057853, , 
79.38, 0.057663, , 
79.41, 0.057463, , 
79.44, 0.057285, , 
79.47, 0.057136, , 
79.50, 0.056996, , 
79.53, 0.056832, , 
79.56, 0.056641, , 
79.59, 0.056495, , 
79.62, 0.056340, , 
79.65, 0.056207, , 
79.68, 0.056064, , 
79.71, 0.055893, , 
79.74, 0.055778, , 
79.77, 0.055579, , 
79.80, 0.055426, , 
79.83, 0.055315, , 
79.87, 0.055201, , 
79.89, 0.055122, , 
79.92, 0.054976, , 
79.95, 0.054862, , 
79.98, 0.054754, , 
79.99, 0.054741, 25, 0.586
80.01, 0.054665, , 
80.04, 0.054535, , 
80.07, 0.054434, , 
80.10, 0.054319, , 
80.13, 0.054224, , 
80.16, 0.054189, , 
80.19, 0.054123, , 
80.22, 0.053983, , 
80.25, 0.053866, , 
80.28, 0.053774, , 
80.31, 0.053704, , 
80.34, 0.053637, , 
80.37, 0.053485, , 
80.40, 0.053365, , 
80.43, 0.053304, , 
80.46, 0.053235, , 
80.49, 0.053193, , 
80.52, 0.053114, , 
80.55, 0.053013, , 
80.58, 0.052892, , 
80.61, 0.052778, , 
80.64, 0.052740, , 
80.67, 0.052743, , 
80.70, 0.052718, , 
80.73, 0.052699, , 
80.76, 0.052670, , 
80.79, 0.052578, , 
80.82, 0.052492, , 
80.85, 0.052353, , 
80.88, 0.052280, , 
80.92, 0.052239, , 
80.94, 0.052213, , 
80.97, 0.052197, , 
81.00, 0.052194, , 
81.03, 0.052197, , 
81.06, 0.052162, , 
81.09, 0.052169, , 
81.12, 0.052194, , 
81.15, 0.052181, , 
81.18, 0.052109, , 
81.21, 0.051972, , 
81.24, 0.051855, , 
81.27, 0.051798, , 
81.30, 0.051725, , 
81.33, 0.051690, , 
81.36, 0.051645, , 
81.39, 0.051550, , 
81.42, 0.051427, , 
81.45, 0.051328, , 
81.48, 0.051290, , 
81.51, 0.051246, , 
81.54, 0.051236, , 
81.57, 0.051179, , 
81.60, 0.051036, , 
81.63, 0.050878, , 
81.66, 0.050656, , 
81.69, 0.050456, , 
81.72, 0.050348, , 
81.75, 0.050183, , 
81.78, 0.049990, , 
81.81, 0.049895, , 
81.84, 0.049822, , 
81.87, 0.049692, , 
81.90, 0.049517, , 
81.93, 0.049412, , 
81.96, 0.049352, , 
81.99, 0.049289, , 
82.02, 0.049241, , 
82.05, 0.049117, , 
82.08, 0.048949, , 
82.11, 0.048864, , 
82.14, 0.048664, , 
82.17, 0.048505, , 
82.20, 0.048410, , 
82.23, 0.048343, , 
82.26, 0.048309, , 
82.29, 0.048302, , 
82.32, 0.048242, , 
82.35, 0.048102, , 
82.38, 0.047925, , 
82.41, 0.047811, , 
82.44, 0.047677, , 
82.47, 0.047522, , 
82.50, 0.047379, , 
82.53, 0.047173, , 
82.56, 0.047024, , 
82.59, 0.046884, , 
82.62, 0.046805, , 
82.65, 0.046792, , 
82.68, 0.046729, , 
82.71, 0.046564, , 
82.74, 0.046440, , 
82.77, 0.046355, , 
82.80, 0.046282, , 
82.84, 0.046088, , 
82.86, 0.045952, , 
82.89, 0.045828, , 
82.92, 0.045742, , 
82.95, 0.045698, , 
82.98, 0.045600, , 
83.01, 0.045479, , 
83.04, 0.045355, , 
83.07, 0.045302, , 
83.10, 0.045229, , 
83.13, 0.045168, , 
83.16, 0.045038, , 
83.19, 0.044899, 26, 0.586
83.19, 0.044886, , 
83.22, 0.044800, , 
83.25, 0.044740, , 
83.28, 0.044677, , 
83.31, 0.044572, , 
83.34, 0.044436, , 
83.37, 0.044334, , 
83.40, 0.044258, , 
83.43, 0.044204, , 
83.46, 0.044163, , 
83.49, 0.044042, , 
83.52, 0.043915, , 
83.55, 0.043811, , 
83.58, 0.043731, , 
83.61, 0.043690, , 
83.64, 0.043573, , 
83.67, 0.043436, , 
83.70, 0.043344, , 
83.73, 0.043259, , 
83.76, 0.043202, , 
83.79, 0.043186, , 
83.82, 0.043148, , 
83.85, 0.043027, , 
83.88, 0.042859, , 
83.91, 0.042770, , 
83.94, 0.042716, , 
83.97, 0.042666, , 
84.00, 0.042637, , 
84.03, 0.042640, , 
84.06, 0.042593, , 
84.09, 0.042434, , 
84.12, 0.042323, , 
84.15, 0.042218, , 
84.18, 0.042165, , 
84.21, 0.042139, , 
84.24, 0.042114, , 
84.27, 0.042120, , 
84.30, 0.042034, , 
84.33, 0.041876, , 
84.36, 0.041746, , 
84.39, 0.041689, , 
84.42, 0.041651, , 
84.45, 0.041613, , 
84.48, 0.041587, , 
84.51, 0.041470, , 
84.54, 0.041295, , 
84.57, 0.041197, , 
84.60, 0.041127, , 
84.63, 0.040959, , 
84.66, 0.040902, , 
84.69, 0.040702, , 
84.72, 0.040623, , 
84.75, 0.040550, , 
84.78, 0.040493, , 
84.81, 0.040347, , 
84.84, 0.040226, , 
84.87, 0.040147, , 
84.90, 0.040109, , 
84.93, 0.040068, , 
84.96, 0.039935, , 
84.99, 0.039805, , 
85.02, 0.039703, , 
85.05, 0.039633, , 
85.08, 0.039598, , 
85.11, 0.039564, , 
85.14, 0.039560, , 
85.17, 0.039510, , 
85.20, 0.039389, , 
85.23, 0.039284, , 
85.26, 0.039240, , 
85.29, 0.039139, , 
85.32, 0.039088, , 
85.35, 0.038974, , 
85.38, 0.038809, , 
85.41, 0.038729, , 
85.44, 0.038599, , 
85.47, 0.038583, , 
85.50, 0.038539, , 
85.53, 0.038368, , 
85.56, 0.038250, , 
85.59, 0.038190, , 
85.62, 0.038123, , 
85.65, 0.038057, , 
85.68, 0.037924, , 
85.71, 0.037825, , 
85.74, 0.037714, , 
85.77, 0.037638, , 
85.80, 0.037578, , 
85.83, 0.037562, , 
85.86, 0.037568, , 
85.89, 0.037537, , 
85.92, 0.037562, , 
85.95, 0.037572, , 
85.98, 0.037572, , 
86.01, 0.037600, , 
86.04, 0.037622, , 
86.07, 0.037584, , 
86.10, 0.037562, , 
86.13, 0.037461, , 
86.16, 0.037327, , 
86.19, 0.037200, , 
86.22, 0.037147, , 
86.25, 0.037089, , 
86.28, 0.037083, , 
86.31, 0.037026, , 
86.34, 0.036877, , 
86.37, 0.036766, , 
86.37, 0.036737, 27, 0.583
86.41, 0.036690, , 
86.43, 0.036649, , 
86.46, 0.036480, , 
86.49, 0.036309, , 
86.52, 0.036204, , 
86.55, 0.036112, , 
86.58, 0.036046, , 
86.61, 0.036017, , 
86.64, 0.035998, , 
86.67, 0.035878, , 
86.70, 0.035703, , 
86.73, 0.035589, , 
86.76, 0.035583, , 
86.79, 0.035561, , 
86.82, 0.035526, , 
86.85, 0.035491, , 
86.88, 0.035475, , 
86.91, 0.035446, , 
86.94, 0.035313, , 
86.97, 0.035196, , 
87.00, 0.035107, , 
87.03, 0.035088, , 
87.06, 0.035044, , 
87.09, 0.034999, , 
87.12, 0.034885, , 
87.15, 0.034726, , 
87.18, 0.034622, , 
87.21, 0.034539, , 
87.24, 0.034546, , 
87.27, 0.034546, , 
87.30, 0.034463, , 
87.33, 0.034311, , 
87.36, 0.034219, , 
87.39, 0.034133, , 
87.42, 0.034051, , 
87.45, 0.033997, , 
87.48, 0.033879, , 
87.51, 0.033768, , 
87.54, 0.033648, , 
87.57, 0.033575, , 
87.60, 0.033546, , 
87.63, 0.033505, , 
87.66, 0.033486, , 
87.69, 0.033492, , 
87.72, 0.033458, , 
87.75, 0.033328, , 
87.78, 0.033188, , 
87.81, 0.033131, , 
87.84, 0.033071, , 
87.87, 0.032998, , 
87.90, 0.032956, , 
87.93, 0.032966, , 
87.96, 0.032890, , 
87.99, 0.032728, , 
88.02, 0.032611, , 
88.05, 0.032522, , 
88.08, 0.032474, , 
88.11, 0.032458, , 
88.14, 0.032439, , 
88.17, 0.032439, , 
88.20, 0.032398, , 
88.23, 0.032287, , 
88.26, 0.032154, , 
88.29, 0.032043, , 
88.33, 0.031995, , 
88.35, 0.031948, , 
88.38, 0.031935, , 
88.41, 0.031894, , 
88.44, 0.031748, , 
88.47, 0.031621, , 
88.50, 0.031548, , 
88.53, 0.031526, , 
88.56, 0.031447, , 
88.59, 0.031408, , 
88.62, 0.031396, , 
88.65, 0.031342, , 
88.68, 0.031180, , 
88.71, 0.031069, , 
88.74, 0.030993, , 
88.77, 0.030964, , 
88.80, 0.030936, , 
88.83, 0.030939, , 
88.86, 0.030904, , 
88.89, 0.030914, , 
88.92, 0.030879, , 
88.95, 0.030876, , 
88.98, 0.030914, , 
89.01, 0.030993, , 
89.04, 0.031152, , 
89.07, 0.031218, , 
89.10, 0.031285, , 
89.13, 0.031345, , 
89.16, 0.031355, , 
89.19, 0.031351, , 
89.22, 0.031361, , 
89.25, 0.031370, , 
89.28, 0.031339, , 
89.31, 0.031348, , 
89.34, 0.031374, , 
89.37, 0.031374, , 
89.40, 0.031358, , 
89.43, 0.031320, , 
89.46, 0.031361, , 
89.49, 0.031520, , 
89.52, 0.031653, , 
89.55, 0.031703, , 
89.58, 0.031802, , 
89.61, 0.031840, , 
89.64, 0.031846, , 
89.67, 0.031830, , 
89.70, 0.031843, , 
89.73, 0.031846, , 
89.76, 0.031834, , 
89.79, 0.031840, , 
89.82, 0.031840, , 
89.85, 0.031815, , 
89.88, 0.031872, , 
89.91, 0.031992, , 
89.94, 0.032129, , 
89.97, 0.032230, , 
90.00, 0.032259, , 
90.03, 0.032281, , 
90.06, 0.032309, , 
90.09, 0.032293, , 
90.12, 0.032290, , 
90.15, 0.032338, , 
90.18, 0.032519, , 
90.21, 0.032633, , 
90.24, 0.032703, , 
90.27, 0.032747, , 
90.30, 0.032791, , 
90.33, 0.032826, , 
90.36, 0.032928, , 
90.39, 0.033067, , 
90.42, 0.033185, , 
90.45, 0.033239, , 
90.48, 0.033251, , 
90.51, 0.033277, , 
90.54, 0.033328, , 
90.57, 0.033496, , 
90.60, 0.033619, , 
90.63, 0.033695, , 
90.66, 0.033762, , 
90.69, 0.033810, , 
90.72, 0.033819, , 
90.75, 0.033921, , 
90.78, 0.034054, , 
90.81, 0.034209, , 
90.85, 0.034260, , 
90.87, 0.034276, , 
90.90, 0.034330, , 
90.93, 0.034463, , 
90.96, 0.034625, , 
90.99, 0.034749, , 
91.02, 0.034818, , 
91.05, 0.034837, , 
91.08, 0.034841, , 
91.11, 0.034939, , 
91.14, 0.035066, , 
91.17, 0.035180, , 
91.20, 0.035281, , 
91.23, 0.035313, , 
91.26, 0.035319, , 
91.29, 0.035313, , 
91.32, 0.035364, , 
91.35, 0.035497, , 
91.38, 0.035634, , 
91.41, 0.035726, , 
91.44, 0.035783, , 
91.47, 0.035833, , 
91.50, 0.035846, , 
91.53, 0.035859, , 
91.56, 0.035840, , 
91.59, 0.035906, , 
91.62, 0.036052, , 
91.65, 0.036176, , 
91.68, 0.036255, , 
91.71, 0.036281, , 
91.74, 0.036309, , 
91.77, 0.036350, , 
91.80, 0.036341, , 
91.83, 0.036373, , 
91.86, 0.036379, , 
91.89, 0.036388, , 
91.92, 0.036376, , 
91.95, 0.036401, , 
91.98, 0.036452, , 
92.01, 0.036591, , 
92.04, 0.036693, , 
92.07, 0.036807, , 
92.10, 0.036886, , 
92.13, 0.036890, , 
92.16, 0.036918, , 
92.19, 0.036953, , 
92.22, 0.036966, , 
92.25, 0.037026, , 
92.28, 0.037143, , 
92.31, 0.037286, , 
92.34, 0.037375, , 
92.37, 0.037391, , 
92.40, 0.037426, , 
92.43, 0.037457, , 
92.46, 0.037448, , 
92.49, 0.037445, , 
92.52, 0.037486, , 
92.55, 0.037492, , 
92.58, 0.037499, , 
92.61, 0.037486, , 
92.64, 0.037505, , 
92.67, 0.037470, , 
92.70, 0.037502, , 
92.73, 0.037648, , 
92.76, 0.037800, , 
92.79, 0.037889, , 
92.82, 0.037946, , 
92.85, 0.037990, , 
92.88, 0.038019, , 
92.91, 0.038016, , 
92.94, 0.037974, , 
92.97, 0.037981, , 
93.00, 0.037997, , 
93.03, 0.038000, , 
93.06, 0.037990, , 
93.09, 0.037987, , 
93.12, 0.038003, , 
93.15, 0.037993, , 
93.18, 0.037993, , 
93.21, 0.038000, , 
93.24, 0.038009, , 
93.27, 0.038082, , 
93.30, 0.038177, , 
93.33, 0.038323, , 
93.36, 0.038406, , 
93.39, 0.038447, , 
93.42, 0.038457, , 
93.45, 0.038504, , 
93.48, 0.038555, , 
93.51, 0.038533, , 
93.54, 0.038514, , 
93.57, 0.038542, , 
93.60, 0.038533, , 
93.63, 0.038526, , 
93.66, 0.038504, , 
93.69, 0.038536, , 
93.72, 0.038533, , 
93.75, 0.038539, , 
93.78, 0.038529, , 
93.81, 0.038517, , 
93.84, 0.038507, , 
93.87, 0.038501, , 
93.90, 0.038529, , 
93.93, 0.038542, , 
93.96, 0.038558, , 
93.99, 0.038549, , 
94.02, 0.038523, , 
94.05, 0.038564, , 
94.08, 0.038568, , 
94.11, 0.038533, , 
94.14, 0.038545, , 
94.17, 0.038545, , 
94.20, 0.038533, , 
94.23, 0.038396, , 
94.26, 0.038285, , 
94.29, 0.038193, , 
94.32, 0.038120, , 
94.35, 0.038082, , 
94.38, 0.038054, , 
94.41, 0.038060, , 
94.44, 0.038038, , 
94.47, 0.038028, , 
94.50, 0.038031, , 
94.53, 0.038063, , 
94.56, 0.038051, , 
94.59, 0.037993, , 
94.62, 0.038016, , 
94.65, 0.038041, , 
94.68, 0.038019, , 
94.71, 0.038028, , 
94.74, 0.038054, , 
94.77, 0.038047, , 
94.80, 0.038025, , 
94.83, 0.037993, , 
94.86, 0.037974, , 
94.89, 0.037892, , 
94.92, 0.037733, , 
94.95, 0.037645, , 
94.98, 0.037597, , 
95.01, 0.037572, , 
95.04, 0.037562, , 
95.07, 0.037556, , 
95.10, 0.037518, , 
95.13, 0.037524, , 
95.16, 0.037527, , 
95.19, 0.037508, , 
95.22, 0.037518, , 
95.25, 0.037543, , 
95.28, 0.037511, , 
95.31, 0.037508, , 
95.34, 0.037502, , 
95.37, 0.037505, , 
95.40, 0.037521, , 
95.43, 0.037511, , 
95.46, 0.037521, , 
95.49, 0.037511, , 
95.52, 0.037514, , 
95.55, 0.037508, , 
95.59, 0.037537, , 
95.61, 0.037505, , 
95.64, 0.037381, , 
95.67, 0.037248, , 
95.70, 0.037150, , 
95.73, 0.037070, , 
95.76, 0.037036, , 
95.79, 0.037032, , 
95.82, 0.037036, , 
95.85, 0.037001, , 
95.88, 0.036982, , 
95.91, 0.036972, , 
95.94, 0.036969, , 
95.97, 0.036959, , 
96.00, 0.036953, , 
