Gradient Profiler Text Data File: 20240419_BY4742_30.csv
Date: 2024-04-19
Time: 14:41:31

User: jared
Experiment name: 
UV Unit: EM-1
Rotor Manufacturer: Beckman
Rotor Model: SW28.1
Speed: 28 rpm
Gradient: sucrose 10.0% to 50.0% w/v
Time: 4
w2t:  x 10^0
Sample Volume: 18 ml
Number of Tubes: 6
Volume per mm: 0.183 ml/mm

Absorbance Units Full Scale (AUFS): 2.00
Event Mark-triggered gradient; (with distance; auto start and stop)
Delay: No Delay
UV Wavelength: 254 nm
Samples / sec: 10 Hz
EM1 Speed: 0.30 mm/sec
Distance: 3.20 mm
Number: 30
Dead Volume: 0.000000 ml; Distance due to Dead Volume: 0.00 mm
Total Distance: 96.00 mm

Data Columns:
Distance(mm), Absorbance, Fraction Number, Fraction Volume(ml)
0.00, 0.107735, 0, 0.000
0.04, 0.107738, , 
0.06, 0.107773, , 
0.09, 0.107789, , 
0.12, 0.107766, , 
0.15, 0.107770, , 
0.18, 0.107817, , 
0.21, 0.107754, , 
0.24, 0.107738, , 
0.27, 0.107754, , 
0.30, 0.107833, , 
0.33, 0.107960, , 
0.36, 0.108055, , 
0.39, 0.108125, , 
0.42, 0.108223, , 
0.45, 0.108255, , 
0.48, 0.108217, , 
0.51, 0.108322, , 
0.54, 0.108893, , 
0.57, 0.110399, , 
0.60, 0.114802, , 
0.63, 0.129523, , 
0.66, 0.151638, , 
0.69, 0.203083, , 
0.72, 0.263096, , 
0.75, 0.332939, , 
0.78, 0.421439, , 
0.81, 0.500528, , 
0.84, 0.594871, , 
0.87, 0.663125, , 
0.90, 0.745541, , 
0.93, 0.842215, , 
0.96, 0.925399, , 
0.99, 1.023082, , 
1.02, 1.106809, , 
1.05, 1.190551, , 
1.08, 1.274055, , 
1.11, 1.356246, , 
1.14, 1.447160, , 
1.17, 1.514824, , 
1.20, 1.567132, , 
1.23, 1.607413, , 
1.26, 1.628211, , 
1.29, 1.640896, , 
1.32, 1.648800, , 
1.35, 1.654186, , 
1.38, 1.658579, , 
1.41, 1.661304, , 
1.44, 1.663956, , 
1.47, 1.666033, , 
1.50, 1.667743, , 
1.53, 1.670103, , 
1.56, 1.672377, , 
1.59, 1.675061, , 
1.62, 1.677373, , 
1.65, 1.679562, , 
1.68, 1.682413, , 
1.71, 1.684599, , 
1.74, 1.687568, , 
1.77, 1.690121, , 
1.80, 1.692728, , 
1.83, 1.695463, , 
1.86, 1.697439, , 
1.89, 1.699431, , 
1.92, 1.700852, , 
1.95, 1.702609, , 
1.98, 1.704100, , 
2.01, 1.704791, , 
2.04, 1.705153, , 
2.07, 1.705403, , 
2.10, 1.705581, , 
2.13, 1.705841, , 
2.16, 1.706276, , 
2.19, 1.706640, , 
2.22, 1.706682, , 
2.25, 1.706501, , 
2.28, 1.706437, , 
2.31, 1.706507, , 
2.34, 1.706621, , 
2.37, 1.706986, , 
2.40, 1.707516, , 
2.43, 1.708109, , 
2.46, 1.708493, , 
2.49, 1.709061, , 
2.52, 1.710237, , 
2.55, 1.711395, , 
2.58, 1.712927, , 
2.61, 1.713844, , 
2.64, 1.714551, , 
2.67, 1.715005, , 
2.70, 1.715335, , 
2.73, 1.715763, , 
2.76, 1.716058, , 
2.79, 1.716096, , 
2.82, 1.715772, , 
2.85, 1.715157, , 
2.88, 1.714291, , 
2.91, 1.713444, , 
2.94, 1.712350, , 
2.97, 1.711129, , 
3.00, 1.709869, , 
3.03, 1.708284, , 
3.06, 1.706615, , 
3.09, 1.704836, , 
3.12, 1.703009, , 
3.15, 1.700703, , 
3.18, 1.698378, , 
3.19, 1.697981, 1, 0.583
3.21, 1.695589, , 
3.24, 1.693277, , 
3.27, 1.691196, , 
3.30, 1.687948, , 
3.33, 1.684865, , 
3.36, 1.681595, , 
3.39, 1.677589, , 
3.42, 1.674036, , 
3.45, 1.669630, , 
3.48, 1.665719, , 
3.52, 1.661497, , 
3.54, 1.656838, , 
3.57, 1.651902, , 
3.60, 1.646142, , 
3.63, 1.641013, , 
3.66, 1.635494, , 
3.69, 1.628716, , 
3.72, 1.623580, , 
3.75, 1.615993, , 
3.78, 1.609186, , 
3.81, 1.602243, , 
3.84, 1.593961, , 
3.87, 1.586516, , 
3.90, 1.577330, , 
3.93, 1.570409, , 
3.96, 1.562013, , 
3.99, 1.552170, , 
4.02, 1.543438, , 
4.05, 1.533113, , 
4.08, 1.524219, , 
4.11, 1.514907, , 
4.14, 1.505134, , 
4.17, 1.495225, , 
4.20, 1.483397, , 
4.23, 1.472907, , 
4.27, 1.460416, , 
4.29, 1.451274, , 
4.32, 1.438298, , 
4.35, 1.426977, , 
4.38, 1.413531, , 
4.41, 1.401986, , 
4.44, 1.390392, , 
4.47, 1.378615, , 
4.50, 1.366749, , 
4.53, 1.354863, , 
4.56, 1.340869, , 
4.59, 1.328574, , 
4.62, 1.313974, , 
4.65, 1.301499, , 
4.68, 1.291117, , 
4.71, 1.276501, , 
4.74, 1.264067, , 
4.77, 1.249641, , 
4.80, 1.237327, , 
4.83, 1.224839, , 
4.86, 1.211111, , 
4.89, 1.197995, , 
4.92, 1.188273, , 
4.95, 1.173537, , 
4.98, 1.161245, , 
5.01, 1.147089, , 
5.04, 1.135029, , 
5.07, 1.125317, , 
5.10, 1.110570, , 
5.13, 1.096205, , 
5.16, 1.083888, , 
5.19, 1.071258, , 
5.22, 1.056346, , 
5.25, 1.046139, , 
5.28, 1.030463, , 
5.31, 1.017385, , 
5.34, 1.002090, , 
5.38, 0.989082, , 
5.40, 0.976068, , 
5.43, 0.965559, , 
5.46, 0.949671, , 
5.49, 0.934135, , 
5.52, 0.920692, , 
5.55, 0.907145, , 
5.58, 0.891472, , 
5.61, 0.881075, , 
5.64, 0.865602, , 
5.67, 0.852984, , 
5.70, 0.840807, , 
5.73, 0.827314, , 
5.76, 0.818400, , 
5.79, 0.805202, , 
5.82, 0.792771, , 
5.85, 0.782399, , 
5.88, 0.772214, , 
5.91, 0.764233, , 
5.94, 0.752465, , 
5.97, 0.741621, , 
6.00, 0.732577, , 
6.03, 0.721993, , 
6.07, 0.714748, , 
6.09, 0.705717, , 
6.12, 0.694784, , 
6.15, 0.685493, , 
6.19, 0.674686, , 
6.21, 0.669253, , 
6.24, 0.656289, , 
6.27, 0.646675, , 
6.30, 0.635624, , 
6.33, 0.626130, , 
6.36, 0.616773, , 
6.38, 0.611235, 2, 0.585
6.39, 0.609408, , 
6.42, 0.598338, , 
6.45, 0.587731, , 
6.48, 0.578726, , 
6.51, 0.569600, , 
6.54, 0.560782, , 
6.57, 0.550797, , 
6.61, 0.541262, , 
6.63, 0.534703, , 
6.66, 0.527137, , 
6.69, 0.521485, , 
6.72, 0.512118, , 
6.75, 0.505403, , 
6.78, 0.497883, , 
6.81, 0.491828, , 
6.84, 0.485858, , 
6.87, 0.479013, , 
6.90, 0.474290, , 
6.93, 0.468073, , 
6.96, 0.462811, , 
6.99, 0.458500, , 
7.02, 0.451170, , 
7.05, 0.445917, , 
7.08, 0.439668, , 
7.11, 0.435116, , 
7.14, 0.430815, , 
7.17, 0.423520, , 
7.20, 0.418175, , 
7.23, 0.411860, , 
7.26, 0.406363, , 
7.29, 0.402157, , 
7.32, 0.395911, , 
7.35, 0.390744, , 
7.38, 0.384978, , 
7.41, 0.380137, , 
7.44, 0.376245, , 
7.47, 0.369432, , 
7.50, 0.364490, , 
7.53, 0.359777, , 
7.56, 0.355158, , 
7.59, 0.351574, , 
7.62, 0.345700, , 
7.65, 0.341643, , 
7.68, 0.336755, , 
7.71, 0.332622, , 
7.74, 0.330322, , 
7.77, 0.325250, , 
7.80, 0.321780, , 
7.83, 0.317657, , 
7.86, 0.314301, , 
7.89, 0.311062, , 
7.92, 0.307649, , 
7.95, 0.303557, , 
7.98, 0.300132, , 
8.02, 0.296271, , 
8.04, 0.293404, , 
8.07, 0.290740, , 
8.10, 0.286223, , 
8.13, 0.283067, , 
8.16, 0.279235, , 
8.19, 0.276060, , 
8.22, 0.274233, , 
8.25, 0.269871, , 
8.28, 0.266864, , 
8.31, 0.263391, , 
8.34, 0.260457, , 
8.37, 0.257428, , 
8.40, 0.254805, , 
8.43, 0.250278, , 
8.46, 0.247294, , 
8.49, 0.244131, , 
8.52, 0.241942, , 
8.55, 0.239912, , 
8.58, 0.236766, , 
8.61, 0.234580, , 
8.64, 0.232411, , 
8.67, 0.230029, , 
8.70, 0.228532, , 
8.73, 0.226305, , 
8.76, 0.224465, , 
8.79, 0.222483, , 
8.82, 0.220960, , 
8.85, 0.219301, , 
8.88, 0.218143, , 
8.91, 0.216700, , 
8.94, 0.215016, , 
8.97, 0.213484, , 
9.00, 0.211454, , 
9.03, 0.210147, , 
9.06, 0.208320, , 
9.09, 0.206594, , 
9.12, 0.205113, , 
9.15, 0.203064, , 
9.18, 0.201811, , 
9.21, 0.199933, , 
9.24, 0.198110, , 
9.27, 0.196489, , 
9.30, 0.194922, , 
9.33, 0.193266, , 
9.36, 0.191134, , 
9.39, 0.189466, , 
9.42, 0.187842, , 
9.45, 0.186335, , 
9.48, 0.184930, , 
9.51, 0.183668, , 
9.54, 0.182304, , 
9.57, 0.180781, , 
9.58, 0.180347, 3, 0.586
9.60, 0.179512, , 
9.63, 0.178526, , 
9.66, 0.177520, , 
9.69, 0.176315, , 
9.72, 0.174796, , 
9.75, 0.173657, , 
9.78, 0.172817, , 
9.81, 0.172112, , 
9.84, 0.170850, , 
9.87, 0.169752, , 
9.90, 0.168690, , 
9.93, 0.167519, , 
9.96, 0.166431, , 
9.99, 0.164655, , 
10.02, 0.163409, , 
10.05, 0.161934, , 
10.08, 0.160509, , 
10.11, 0.159726, , 
10.14, 0.157959, , 
10.17, 0.156630, , 
10.20, 0.155104, , 
10.23, 0.153982, , 
10.26, 0.153147, , 
10.29, 0.151577, , 
10.32, 0.150470, , 
10.35, 0.148957, , 
10.38, 0.147784, , 
10.41, 0.146689, , 
10.44, 0.145436, , 
10.47, 0.144504, , 
10.50, 0.143685, , 
10.53, 0.142820, , 
10.56, 0.141763, , 
10.59, 0.141161, , 
10.62, 0.140247, , 
10.65, 0.139324, , 
10.68, 0.138591, , 
10.71, 0.137884, , 
10.74, 0.137297, , 
10.77, 0.136330, , 
10.80, 0.135394, , 
10.83, 0.134725, , 
10.86, 0.133935, , 
10.89, 0.133186, , 
10.92, 0.132692, , 
10.95, 0.131616, , 
10.98, 0.130922, , 
11.01, 0.130087, , 
11.04, 0.129250, , 
11.07, 0.128505, , 
11.10, 0.127816, , 
11.13, 0.127014, , 
11.16, 0.126094, , 
11.19, 0.125491, , 
11.22, 0.124863, , 
11.25, 0.124048, , 
11.28, 0.122951, , 
11.31, 0.122161, , 
11.34, 0.121288, , 
11.37, 0.120749, , 
11.40, 0.120166, , 
11.43, 0.119569, , 
11.46, 0.119144, , 
11.49, 0.118580, , 
11.52, 0.118025, , 
11.55, 0.117704, , 
11.58, 0.117387, , 
11.61, 0.116987, , 
11.64, 0.116521, , 
11.67, 0.116248, , 
11.70, 0.115928, , 
11.73, 0.115516, , 
11.76, 0.115211, , 
11.79, 0.115090, , 
11.82, 0.114843, , 
11.85, 0.114434, , 
11.88, 0.114145, , 
11.91, 0.113904, , 
11.94, 0.113596, , 
11.97, 0.113171, , 
12.00, 0.112861, , 
12.03, 0.112417, , 
12.06, 0.112153, , 
12.09, 0.111741, , 
12.12, 0.111395, , 
12.15, 0.111199, , 
12.18, 0.110961, , 
12.21, 0.110526, , 
12.24, 0.110130, , 
12.27, 0.109850, , 
12.30, 0.109606, , 
12.33, 0.109416, , 
12.36, 0.109197, , 
12.39, 0.109115, , 
12.42, 0.109054, , 
12.45, 0.108886, , 
12.48, 0.108848, , 
12.51, 0.108820, , 
12.54, 0.108693, , 
12.57, 0.108506, , 
12.60, 0.108410, , 
12.63, 0.108531, , 
12.66, 0.108651, , 
12.69, 0.108715, , 
12.72, 0.108759, , 
12.75, 0.108886, , 
12.78, 0.108908, 4, 0.585
12.78, 0.108912, , 
12.81, 0.108762, , 
12.84, 0.108699, , 
12.87, 0.108794, , 
12.90, 0.108794, , 
12.93, 0.108794, , 
12.96, 0.108889, , 
12.99, 0.108956, , 
13.02, 0.108896, , 
13.05, 0.108842, , 
13.08, 0.108826, , 
13.11, 0.108927, , 
13.14, 0.108893, , 
13.17, 0.108816, , 
13.20, 0.108842, , 
13.23, 0.108943, , 
13.26, 0.108985, , 
13.29, 0.109089, , 
13.32, 0.109184, , 
13.35, 0.109463, , 
13.38, 0.109641, , 
13.41, 0.109739, , 
13.44, 0.109949, , 
13.47, 0.110206, , 
13.50, 0.110263, , 
13.53, 0.110361, , 
13.56, 0.110561, , 
13.59, 0.110783, , 
13.62, 0.110888, , 
13.65, 0.111005, , 
13.68, 0.111126, , 
13.71, 0.111287, , 
13.74, 0.111291, , 
13.77, 0.111176, , 
13.80, 0.111252, , 
13.83, 0.111405, , 
13.87, 0.111332, , 
13.89, 0.111208, , 
13.92, 0.111164, , 
13.95, 0.111059, , 
13.98, 0.110881, , 
14.01, 0.110751, , 
14.04, 0.110523, , 
14.07, 0.110377, , 
14.10, 0.110120, , 
14.13, 0.109812, , 
14.16, 0.109673, , 
14.19, 0.109346, , 
14.22, 0.108975, , 
14.25, 0.108702, , 
14.28, 0.108566, , 
14.31, 0.108391, , 
14.34, 0.108087, , 
14.37, 0.107811, , 
14.40, 0.107633, , 
14.43, 0.107414, , 
14.46, 0.107129, , 
14.49, 0.106942, , 
14.52, 0.106729, , 
14.55, 0.106564, , 
14.58, 0.106184, , 
14.61, 0.105803, , 
14.64, 0.105622, , 
14.67, 0.105321, , 
14.70, 0.104982, , 
14.73, 0.104487, , 
14.76, 0.104268, , 
14.79, 0.103970, , 
14.82, 0.103573, , 
14.85, 0.103158, , 
14.88, 0.102733, , 
14.91, 0.102453, , 
14.94, 0.101952, , 
14.97, 0.101445, , 
15.00, 0.101143, , 
15.03, 0.100585, , 
15.06, 0.100087, , 
15.09, 0.099640, , 
15.12, 0.099272, , 
15.15, 0.098860, , 
15.18, 0.098241, , 
15.21, 0.097794, , 
15.24, 0.097474, , 
15.27, 0.096928, , 
15.30, 0.096465, , 
15.33, 0.096068, , 
15.36, 0.095640, , 
15.39, 0.095183, , 
15.42, 0.094701, , 
15.45, 0.094451, , 
15.48, 0.094184, , 
15.51, 0.093737, , 
15.54, 0.093344, , 
15.57, 0.092884, , 
15.60, 0.092519, , 
15.63, 0.092094, , 
15.66, 0.091647, , 
15.69, 0.091358, , 
15.72, 0.091069, , 
15.75, 0.090537, , 
15.78, 0.090108, , 
15.81, 0.089709, , 
15.84, 0.089401, , 
15.87, 0.088944, , 
15.90, 0.088342, , 
15.93, 0.088037, , 
15.96, 0.087729, , 
15.99, 0.087396, 5, 0.587
15.99, 0.087327, , 
16.02, 0.086943, , 
16.05, 0.086645, , 
16.08, 0.086270, , 
16.11, 0.085842, , 
16.14, 0.085503, , 
16.17, 0.085258, , 
16.20, 0.084916, , 
16.23, 0.084592, , 
16.26, 0.084285, , 
16.29, 0.083971, , 
16.32, 0.083768, , 
16.35, 0.083346, , 
16.38, 0.083029, , 
16.41, 0.082778, , 
16.44, 0.082540, , 
16.47, 0.082334, , 
16.50, 0.082029, , 
16.53, 0.081826, , 
16.56, 0.081639, , 
16.59, 0.081398, , 
16.62, 0.081116, , 
16.65, 0.080992, , 
16.68, 0.080681, , 
16.71, 0.080304, , 
16.74, 0.079952, , 
16.77, 0.079882, , 
16.80, 0.079755, , 
16.83, 0.079435, , 
16.86, 0.079095, , 
16.89, 0.078962, , 
16.92, 0.078804, , 
16.95, 0.078540, , 
16.98, 0.078413, , 
17.01, 0.078340, , 
17.04, 0.078134, , 
17.07, 0.077846, , 
17.10, 0.077633, , 
17.13, 0.077452, , 
17.16, 0.077383, , 
17.19, 0.077164, , 
17.22, 0.076986, , 
17.25, 0.076932, , 
17.28, 0.076780, , 
17.32, 0.076456, , 
17.34, 0.076387, , 
17.37, 0.076317, , 
17.40, 0.076272, , 
17.43, 0.076066, , 
17.46, 0.075889, , 
17.49, 0.075860, , 
17.52, 0.075822, , 
17.55, 0.075581, , 
17.58, 0.075448, , 
17.61, 0.075337, , 
17.64, 0.075229, , 
17.67, 0.075108, , 
17.70, 0.074918, , 
17.73, 0.074908, , 
17.76, 0.074785, , 
17.79, 0.074515, , 
17.82, 0.074410, , 
17.85, 0.074261, , 
17.88, 0.074046, , 
17.91, 0.073881, , 
17.94, 0.073709, , 
17.97, 0.073659, , 
18.00, 0.073475, , 
18.03, 0.073199, , 
18.06, 0.073037, , 
18.09, 0.072954, , 
18.12, 0.072818, , 
18.15, 0.072710, , 
18.18, 0.072606, , 
18.21, 0.072491, , 
18.24, 0.072358, , 
18.27, 0.072155, , 
18.30, 0.072092, , 
18.33, 0.072038, , 
18.36, 0.071787, , 
18.39, 0.071606, , 
18.42, 0.071581, , 
18.45, 0.071540, , 
18.48, 0.071340, , 
18.51, 0.071194, , 
18.54, 0.071067, , 
18.57, 0.070969, , 
18.60, 0.070820, , 
18.64, 0.070639, , 
18.66, 0.070531, , 
18.69, 0.070407, , 
18.72, 0.070211, , 
18.75, 0.069957, , 
18.78, 0.069811, , 
18.81, 0.069668, , 
18.84, 0.069450, , 
18.87, 0.069243, , 
18.90, 0.069256, , 
18.93, 0.069215, , 
18.96, 0.068990, , 
18.99, 0.068850, , 
19.02, 0.068799, , 
19.06, 0.068723, , 
19.08, 0.068580, , 
19.11, 0.068346, , 
19.14, 0.068330, , 
19.17, 0.068323, , 
19.19, 0.068279, 6, 0.586
19.20, 0.068228, , 
19.23, 0.068206, , 
19.27, 0.068216, , 
19.29, 0.068257, , 
19.32, 0.068079, , 
19.35, 0.067908, , 
19.38, 0.067930, , 
19.41, 0.067879, , 
19.44, 0.067753, , 
19.47, 0.067737, , 
19.50, 0.067740, , 
19.53, 0.067746, , 
19.56, 0.067686, , 
19.59, 0.067664, , 
19.62, 0.067737, , 
19.65, 0.067749, , 
19.68, 0.067622, , 
19.71, 0.067661, , 
19.74, 0.067778, , 
19.77, 0.067781, , 
19.80, 0.067603, , 
19.83, 0.067718, , 
19.86, 0.067959, , 
19.89, 0.068054, , 
19.92, 0.068130, , 
19.95, 0.068263, , 
19.98, 0.068561, , 
20.01, 0.068774, , 
20.04, 0.068961, , 
20.08, 0.069202, , 
20.10, 0.069503, , 
20.13, 0.069852, , 
20.16, 0.070119, , 
20.20, 0.070420, , 
20.22, 0.070734, , 
20.25, 0.071143, , 
20.28, 0.071613, , 
20.31, 0.072120, , 
20.34, 0.072720, , 
20.37, 0.073332, , 
20.40, 0.073678, , 
20.43, 0.074426, , 
20.46, 0.075051, , 
20.49, 0.075606, , 
20.52, 0.076250, , 
20.55, 0.077034, , 
20.58, 0.077769, , 
20.61, 0.078550, , 
20.64, 0.079292, , 
20.67, 0.080215, , 
20.70, 0.081059, , 
20.73, 0.081630, , 
20.76, 0.082426, , 
20.79, 0.083247, , 
20.82, 0.084301, , 
20.85, 0.085138, , 
20.88, 0.086112, , 
20.91, 0.086851, , 
20.94, 0.087755, , 
20.97, 0.088729, , 
21.00, 0.089588, , 
21.03, 0.090609, , 
21.06, 0.091257, , 
21.09, 0.092005, , 
21.12, 0.092884, , 
21.15, 0.093572, , 
21.18, 0.094362, , 
21.21, 0.094863, , 
21.24, 0.095555, , 
21.27, 0.096300, , 
21.30, 0.096874, , 
21.33, 0.097344, , 
21.36, 0.097600, , 
21.39, 0.098209, , 
21.42, 0.098714, , 
21.45, 0.098961, , 
21.48, 0.099332, , 
21.51, 0.099618, , 
21.54, 0.099843, , 
21.57, 0.100052, , 
21.60, 0.100208, , 
21.63, 0.100442, , 
21.66, 0.100611, , 
21.69, 0.100684, , 
21.72, 0.100772, , 
21.75, 0.100880, , 
21.78, 0.100890, , 
21.81, 0.100836, , 
21.84, 0.100785, , 
21.87, 0.100715, , 
21.90, 0.100538, , 
21.93, 0.100408, , 
21.96, 0.100350, , 
21.99, 0.100290, , 
22.02, 0.100144, , 
22.05, 0.099979, , 
22.08, 0.099843, , 
22.11, 0.099776, , 
22.14, 0.099466, , 
22.17, 0.099212, , 
22.20, 0.099025, , 
22.23, 0.098730, , 
22.26, 0.098416, , 
22.29, 0.097987, , 
22.32, 0.097800, , 
22.35, 0.097661, , 
22.38, 0.097340, , 
22.39, 0.097261, 7, 0.586
22.41, 0.096979, , 
22.44, 0.096677, , 
22.47, 0.096522, , 
22.50, 0.096160, , 
22.53, 0.095862, , 
22.56, 0.095586, , 
22.59, 0.095253, , 
22.62, 0.094787, , 
22.65, 0.094352, , 
22.68, 0.094124, , 
22.71, 0.093915, , 
22.74, 0.093467, , 
22.77, 0.093039, , 
22.80, 0.092760, , 
22.83, 0.092424, , 
22.86, 0.092097, , 
22.89, 0.091590, , 
22.92, 0.091399, , 
22.95, 0.091120, , 
22.98, 0.090714, , 
23.01, 0.090394, , 
23.04, 0.089905, , 
23.07, 0.089547, , 
23.10, 0.089030, , 
23.13, 0.088751, , 
23.16, 0.088554, , 
23.19, 0.088196, , 
23.22, 0.087701, , 
23.25, 0.087165, , 
23.28, 0.086886, , 
23.31, 0.086553, , 
23.34, 0.085963, , 
23.37, 0.085519, , 
23.40, 0.085002, , 
23.43, 0.084605, , 
23.46, 0.084243, , 
23.49, 0.083590, , 
23.52, 0.083228, , 
23.55, 0.082765, , 
23.58, 0.082270, , 
23.61, 0.081966, , 
23.64, 0.081506, , 
23.67, 0.081230, , 
23.70, 0.080761, , 
23.73, 0.080424, , 
23.76, 0.080202, , 
23.79, 0.079644, , 
23.82, 0.079203, , 
23.85, 0.078908, , 
23.88, 0.078613, , 
23.91, 0.078172, , 
23.95, 0.077763, , 
23.97, 0.077475, , 
24.00, 0.077224, , 
24.03, 0.076869, , 
24.06, 0.076475, , 
24.09, 0.076266, , 
24.12, 0.076038, , 
24.16, 0.075670, , 
24.18, 0.075416, , 
24.21, 0.075165, , 
24.24, 0.074905, , 
24.27, 0.074585, , 
24.30, 0.074274, , 
24.33, 0.074188, , 
24.36, 0.074087, , 
24.39, 0.073871, , 
24.42, 0.073506, , 
24.45, 0.073414, , 
24.48, 0.073313, , 
24.51, 0.073094, , 
24.54, 0.072834, , 
24.57, 0.072790, , 
24.60, 0.072628, , 
24.63, 0.072406, , 
24.66, 0.072222, , 
24.69, 0.072247, , 
24.72, 0.072165, , 
24.75, 0.072073, , 
24.78, 0.071997, , 
24.81, 0.071997, , 
24.84, 0.071857, , 
24.87, 0.071733, , 
24.90, 0.071594, , 
24.93, 0.071603, , 
24.96, 0.071559, , 
24.99, 0.071435, , 
25.02, 0.071464, , 
25.05, 0.071587, , 
25.08, 0.071568, , 
25.11, 0.071524, , 
25.14, 0.071537, , 
25.17, 0.071644, , 
25.20, 0.071714, , 
25.23, 0.071724, , 
25.26, 0.071784, , 
25.29, 0.072000, , 
25.32, 0.072127, , 
25.35, 0.072200, , 
25.38, 0.072352, , 
25.41, 0.072602, , 
25.44, 0.072786, , 
25.47, 0.072866, , 
25.50, 0.073132, , 
25.53, 0.073405, , 
25.56, 0.073671, , 
25.59, 0.073871, 8, 0.586
25.59, 0.073925, , 
25.62, 0.074423, , 
25.65, 0.074782, , 
25.68, 0.075343, , 
25.72, 0.075736, , 
25.74, 0.076107, , 
25.77, 0.076694, , 
25.80, 0.077081, , 
25.83, 0.077735, , 
25.86, 0.078718, , 
25.89, 0.079600, , 
25.93, 0.080472, , 
25.95, 0.080986, , 
25.98, 0.082245, , 
26.01, 0.083634, , 
26.04, 0.084922, , 
26.07, 0.086381, , 
26.10, 0.088354, , 
26.13, 0.089820, , 
26.16, 0.092002, , 
26.19, 0.094070, , 
26.22, 0.096459, , 
26.25, 0.099402, , 
26.28, 0.101556, , 
26.31, 0.105568, , 
26.34, 0.108905, , 
26.37, 0.111865, , 
26.40, 0.116185, , 
26.43, 0.119414, , 
26.46, 0.125488, , 
26.49, 0.130224, , 
26.52, 0.135045, , 
26.55, 0.141091, , 
26.58, 0.144431, , 
26.61, 0.152484, , 
26.64, 0.158346, , 
26.67, 0.164525, , 
26.70, 0.172119, , 
26.73, 0.177470, , 
26.76, 0.186900, , 
26.79, 0.192809, , 
26.82, 0.200006, , 
26.85, 0.208586, , 
26.88, 0.214435, , 
26.91, 0.224732, , 
26.94, 0.232249, , 
26.97, 0.239706, , 
27.00, 0.247059, , 
27.03, 0.254427, , 
27.06, 0.261726, , 
27.09, 0.270106, , 
27.12, 0.277011, , 
27.15, 0.284865, , 
27.18, 0.291383, , 
27.21, 0.296328, , 
27.24, 0.303453, , 
27.27, 0.309184, , 
27.30, 0.315496, , 
27.33, 0.320521, , 
27.36, 0.325881, , 
27.39, 0.329307, , 
27.42, 0.333351, , 
27.45, 0.337614, , 
27.48, 0.340732, , 
27.51, 0.344060, , 
27.54, 0.346137, , 
27.57, 0.348948, , 
27.60, 0.351314, , 
27.63, 0.352786, , 
27.66, 0.354400, , 
27.69, 0.355244, , 
27.72, 0.356303, , 
27.75, 0.357027, , 
27.78, 0.357271, , 
27.81, 0.357233, , 
27.84, 0.357134, , 
27.87, 0.356852, , 
27.90, 0.356329, , 
27.93, 0.355558, , 
27.96, 0.354400, , 
27.99, 0.353465, , 
28.02, 0.352561, , 
28.05, 0.350997, , 
28.08, 0.349547, , 
28.11, 0.347723, , 
28.14, 0.346020, , 
28.17, 0.344491, , 
28.20, 0.342204, , 
28.23, 0.339898, , 
28.26, 0.337849, , 
28.29, 0.335568, , 
28.32, 0.332764, , 
28.35, 0.330871, , 
28.38, 0.327864, , 
28.41, 0.325253, , 
28.44, 0.322652, , 
28.47, 0.319655, , 
28.50, 0.317539, , 
28.53, 0.313698, , 
28.56, 0.310827, , 
28.59, 0.308401, , 
28.62, 0.305045, , 
28.65, 0.302768, , 
28.68, 0.298765, , 
28.71, 0.295789, , 
28.74, 0.292773, , 
28.77, 0.289188, , 
28.79, 0.288602, 9, 0.587
28.80, 0.287419, , 
28.83, 0.283225, , 
28.86, 0.280085, , 
28.89, 0.276878, , 
28.92, 0.273202, , 
28.95, 0.270068, , 
28.99, 0.266953, , 
29.01, 0.263870, , 
29.04, 0.260790, , 
29.07, 0.257177, , 
29.10, 0.253961, , 
29.13, 0.250707, , 
29.16, 0.247072, , 
29.19, 0.244033, , 
29.22, 0.240924, , 
29.25, 0.237848, , 
29.28, 0.234945, , 
29.31, 0.231592, , 
29.34, 0.228671, , 
29.37, 0.225334, , 
29.40, 0.222565, , 
29.43, 0.220418, , 
29.46, 0.217116, , 
29.49, 0.214315, , 
29.52, 0.211184, , 
29.55, 0.208631, , 
29.58, 0.205633, , 
29.61, 0.204104, , 
29.64, 0.201056, , 
29.67, 0.198119, , 
29.70, 0.195556, , 
29.73, 0.192705, , 
29.76, 0.190843, , 
29.79, 0.188032, , 
29.82, 0.185612, , 
29.85, 0.183157, , 
29.88, 0.180458, , 
29.91, 0.178634, , 
29.94, 0.175849, , 
29.97, 0.173498, , 
30.00, 0.170859, , 
30.03, 0.168550, , 
30.06, 0.165908, , 
30.09, 0.164160, , 
30.12, 0.162051, , 
30.15, 0.159567, , 
30.18, 0.157436, , 
30.21, 0.154933, , 
30.24, 0.153116, , 
30.27, 0.151599, , 
30.31, 0.148945, , 
30.33, 0.147435, , 
30.36, 0.145465, , 
30.39, 0.143733, , 
30.42, 0.142268, , 
30.45, 0.139962, , 
30.48, 0.138442, , 
30.52, 0.136571, , 
30.54, 0.135147, , 
30.57, 0.133925, , 
30.60, 0.131940, , 
30.63, 0.130322, , 
30.66, 0.128800, , 
30.69, 0.127375, , 
30.72, 0.125802, , 
30.75, 0.124727, , 
30.78, 0.123103, , 
30.81, 0.121805, , 
30.84, 0.120283, , 
30.87, 0.118925, , 
30.90, 0.117339, , 
30.93, 0.116362, , 
30.96, 0.115163, , 
30.99, 0.113638, , 
31.02, 0.112404, , 
31.05, 0.111002, , 
31.08, 0.110050, , 
31.11, 0.108598, , 
31.14, 0.107221, , 
31.17, 0.106444, , 
31.20, 0.105242, , 
31.23, 0.104328, , 
31.26, 0.103113, , 
31.29, 0.102111, , 
31.32, 0.101274, , 
31.35, 0.100147, , 
31.38, 0.099599, , 
31.41, 0.098593, , 
31.44, 0.097632, , 
31.47, 0.096744, , 
31.50, 0.095767, , 
31.53, 0.095038, , 
31.56, 0.094451, , 
31.59, 0.093436, , 
31.62, 0.092703, , 
31.65, 0.092027, , 
31.68, 0.091349, , 
31.71, 0.090701, , 
31.74, 0.089683, , 
31.77, 0.089020, , 
31.80, 0.088338, , 
31.83, 0.087682, , 
31.86, 0.087111, , 
31.89, 0.086270, , 
31.92, 0.085649, , 
31.95, 0.084929, , 
31.98, 0.084291, , 
31.98, 0.084170, 10, 0.584
32.01, 0.083720, , 
32.04, 0.082921, , 
32.07, 0.081988, , 
32.10, 0.081376, , 
32.13, 0.080897, , 
32.16, 0.080120, , 
32.19, 0.079663, , 
32.22, 0.078861, , 
32.25, 0.078299, , 
32.28, 0.077690, , 
32.31, 0.077018, , 
32.34, 0.076735, , 
32.37, 0.076158, , 
32.40, 0.075692, , 
32.43, 0.075162, , 
32.46, 0.074759, , 
32.49, 0.074439, , 
32.52, 0.074036, , 
32.55, 0.073357, , 
32.58, 0.073059, , 
32.61, 0.072812, , 
32.64, 0.072374, , 
32.67, 0.072054, , 
32.70, 0.071594, , 
32.73, 0.071204, , 
32.76, 0.070785, , 
32.79, 0.070338, , 
32.82, 0.070097, , 
32.85, 0.069827, , 
32.88, 0.069411, , 
32.91, 0.068952, , 
32.94, 0.068555, , 
32.97, 0.068143, , 
33.00, 0.067673, , 
33.03, 0.067274, , 
33.06, 0.067029, , 
33.09, 0.066706, , 
33.12, 0.066331, , 
33.15, 0.066062, , 
33.18, 0.065853, , 
33.21, 0.065589, , 
33.24, 0.065164, , 
33.27, 0.064834, , 
33.30, 0.064628, , 
33.33, 0.064438, , 
33.36, 0.064035, , 
33.39, 0.063737, , 
33.42, 0.063566, , 
33.45, 0.063391, , 
33.48, 0.063220, , 
33.51, 0.062966, , 
33.54, 0.062735, , 
33.57, 0.062528, , 
33.60, 0.062195, , 
33.63, 0.062024, , 
33.66, 0.061869, , 
33.69, 0.061605, , 
33.72, 0.061326, , 
33.75, 0.061066, , 
33.78, 0.060949, , 
33.81, 0.060787, , 
33.84, 0.060397, , 
33.87, 0.060238, , 
33.90, 0.060143, , 
33.93, 0.059959, , 
33.96, 0.059772, , 
33.99, 0.059458, , 
34.02, 0.059331, , 
34.05, 0.059195, , 
34.08, 0.058909, , 
34.11, 0.058887, , 
34.14, 0.058763, , 
34.17, 0.058490, , 
34.20, 0.058202, , 
34.23, 0.058126, , 
34.26, 0.058119, , 
34.29, 0.057945, , 
34.32, 0.057739, , 
34.35, 0.057612, , 
34.38, 0.057520, , 
34.41, 0.057352, , 
34.44, 0.057212, , 
34.47, 0.057136, , 
34.50, 0.057184, , 
34.53, 0.057044, , 
34.56, 0.056844, , 
34.59, 0.056825, , 
34.62, 0.056816, , 
34.65, 0.056651, , 
34.68, 0.056521, , 
34.71, 0.056432, , 
34.74, 0.056362, , 
34.77, 0.056270, , 
34.80, 0.056112, , 
34.83, 0.055950, , 
34.86, 0.055883, , 
34.89, 0.055810, , 
34.92, 0.055702, , 
34.96, 0.055633, , 
34.98, 0.055598, , 
35.01, 0.055338, , 
35.04, 0.055227, , 
35.07, 0.055220, , 
35.10, 0.055198, , 
35.13, 0.055055, , 
35.17, 0.055058, , 
35.19, 0.055125, 11, 0.586
35.19, 0.055141, , 
35.22, 0.055208, , 
35.25, 0.055109, , 
35.28, 0.055100, , 
35.31, 0.055166, , 
35.34, 0.055233, , 
35.37, 0.055220, , 
35.40, 0.055125, , 
35.43, 0.055160, , 
35.46, 0.055208, , 
35.49, 0.055074, , 
35.52, 0.055131, , 
35.55, 0.055398, , 
35.58, 0.055515, , 
35.61, 0.055487, , 
35.64, 0.055550, , 
35.67, 0.055604, , 
35.70, 0.055620, , 
35.73, 0.055569, , 
35.76, 0.055690, , 
35.79, 0.055962, , 
35.82, 0.056061, , 
35.85, 0.056035, , 
35.88, 0.056165, , 
35.91, 0.056416, , 
35.94, 0.056479, , 
35.97, 0.056524, , 
36.00, 0.056619, , 
36.03, 0.057016, , 
36.06, 0.057165, , 
36.09, 0.057228, , 
36.12, 0.057479, , 
36.15, 0.057599, , 
36.18, 0.057786, , 
36.21, 0.057869, , 
36.24, 0.058215, , 
36.27, 0.058617, , 
36.30, 0.058754, , 
36.33, 0.059061, , 
36.36, 0.059375, , 
36.39, 0.059670, , 
36.42, 0.059781, , 
36.45, 0.060061, , 
36.48, 0.060321, , 
36.51, 0.060679, , 
36.54, 0.060879, , 
36.57, 0.061114, , 
36.60, 0.061405, , 
36.63, 0.061602, , 
36.66, 0.061786, , 
36.69, 0.062021, , 
36.72, 0.062497, , 
36.75, 0.062754, , 
36.78, 0.062899, , 
36.81, 0.063102, , 
36.84, 0.063455, , 
36.87, 0.063781, , 
36.90, 0.064035, , 
36.93, 0.064327, , 
36.96, 0.064568, , 
36.99, 0.064961, , 
37.02, 0.065107, , 
37.05, 0.065278, , 
37.08, 0.065545, , 
37.11, 0.065789, , 
37.14, 0.065945, , 
37.18, 0.066148, , 
37.20, 0.066455, , 
37.23, 0.066741, , 
37.26, 0.066861, , 
37.29, 0.067036, , 
37.32, 0.067188, , 
37.35, 0.067397, , 
37.38, 0.067435, , 
37.41, 0.067569, , 
37.44, 0.067829, , 
37.47, 0.067914, , 
37.50, 0.067984, , 
37.53, 0.068032, , 
37.56, 0.068165, , 
37.59, 0.068260, , 
37.62, 0.068266, , 
37.65, 0.068365, , 
37.68, 0.068504, , 
37.71, 0.068517, , 
37.74, 0.068400, , 
37.77, 0.068403, , 
37.80, 0.068381, , 
37.83, 0.068225, , 
37.86, 0.068101, , 
37.89, 0.068013, , 
37.92, 0.068073, , 
37.95, 0.067975, , 
37.98, 0.067768, , 
38.01, 0.067607, , 
38.04, 0.067524, , 
38.07, 0.067350, , 
38.10, 0.067191, , 
38.13, 0.067086, , 
38.16, 0.067001, , 
38.19, 0.066636, , 
38.22, 0.066423, , 
38.26, 0.066341, , 
38.28, 0.066192, , 
38.31, 0.065824, , 
38.34, 0.065554, , 
38.37, 0.065408, , 
38.39, 0.065386, 12, 0.586
38.40, 0.065272, , 
38.43, 0.064945, , 
38.46, 0.064628, , 
38.49, 0.064457, , 
38.52, 0.064149, , 
38.55, 0.063829, , 
38.58, 0.063378, , 
38.61, 0.063163, , 
38.64, 0.062890, , 
38.68, 0.062389, , 
38.70, 0.062246, , 
38.73, 0.062008, , 
38.76, 0.061700, , 
38.79, 0.061336, , 
38.82, 0.060987, , 
38.85, 0.060781, , 
38.88, 0.060498, , 
38.91, 0.060153, , 
38.94, 0.059854, , 
38.97, 0.059588, , 
39.00, 0.059328, , 
39.03, 0.058954, , 
39.06, 0.058735, , 
39.09, 0.058595, , 
39.12, 0.058322, , 
39.15, 0.057973, , 
39.18, 0.057710, , 
39.21, 0.057469, , 
39.24, 0.057187, , 
39.27, 0.056927, , 
39.30, 0.056702, , 
39.33, 0.056464, , 
39.36, 0.056295, , 
39.39, 0.055966, , 
39.42, 0.055880, , 
39.45, 0.055782, , 
39.48, 0.055499, , 
39.51, 0.055223, , 
39.54, 0.055052, , 
39.57, 0.054935, , 
39.60, 0.054710, , 
39.63, 0.054481, , 
39.66, 0.054440, , 
39.69, 0.054262, , 
39.72, 0.053961, , 
39.75, 0.053806, , 
39.78, 0.053714, , 
39.81, 0.053571, , 
39.84, 0.053387, , 
39.87, 0.053254, , 
39.90, 0.053158, , 
39.93, 0.053089, , 
39.96, 0.052895, , 
39.99, 0.052759, , 
40.02, 0.052746, , 
40.05, 0.052676, , 
40.08, 0.052416, , 
40.11, 0.052315, , 
40.14, 0.052315, , 
40.17, 0.052232, , 
40.20, 0.051940, , 
40.23, 0.051817, , 
40.26, 0.051766, , 
40.29, 0.051712, , 
40.32, 0.051649, , 
40.35, 0.051534, , 
40.38, 0.051477, , 
40.41, 0.051357, , 
40.44, 0.051192, , 
40.47, 0.051138, , 
40.50, 0.051097, , 
40.53, 0.051014, , 
40.56, 0.050792, , 
40.59, 0.050691, , 
40.62, 0.050748, , 
40.65, 0.050646, , 
40.68, 0.050478, , 
40.71, 0.050396, , 
40.74, 0.050320, , 
40.77, 0.050190, , 
40.80, 0.050082, , 
40.83, 0.050069, , 
40.86, 0.050075, , 
40.89, 0.049920, , 
40.92, 0.049730, , 
40.95, 0.049682, , 
40.98, 0.049688, , 
41.01, 0.049612, , 
41.04, 0.049619, , 
41.07, 0.049726, , 
41.10, 0.049742, , 
41.13, 0.049565, , 
41.16, 0.049393, , 
41.19, 0.049409, , 
41.22, 0.049419, , 
41.25, 0.049305, , 
41.28, 0.049178, , 
41.31, 0.049140, , 
41.34, 0.049260, , 
41.37, 0.049276, , 
41.40, 0.049251, , 
41.43, 0.049279, , 
41.46, 0.049251, , 
41.49, 0.049168, , 
41.52, 0.049171, , 
41.55, 0.049270, , 
41.58, 0.049317, 13, 0.585
41.59, 0.049311, , 
41.61, 0.049254, , 
41.64, 0.049232, , 
41.67, 0.049289, , 
41.70, 0.049311, , 
41.73, 0.049263, , 
41.76, 0.049219, , 
41.79, 0.049222, , 
41.82, 0.049206, , 
41.85, 0.049225, , 
41.88, 0.049244, , 
41.91, 0.049343, , 
41.94, 0.049374, , 
41.97, 0.049374, , 
42.00, 0.049485, , 
42.03, 0.049669, , 
42.06, 0.049711, , 
42.09, 0.049625, , 
42.12, 0.049647, , 
42.15, 0.049879, , 
42.18, 0.050018, , 
42.21, 0.050044, , 
42.24, 0.050126, , 
42.27, 0.050354, , 
42.30, 0.050462, , 
42.33, 0.050494, , 
42.36, 0.050615, , 
42.39, 0.050754, , 
42.42, 0.050906, , 
42.45, 0.050948, , 
42.48, 0.051100, , 
42.51, 0.051271, , 
42.54, 0.051496, , 
42.57, 0.051668, , 
42.60, 0.052010, , 
42.63, 0.052201, , 
42.66, 0.052226, , 
42.69, 0.052375, , 
42.72, 0.052610, , 
42.75, 0.052889, , 
42.78, 0.053082, , 
42.81, 0.053327, , 
42.84, 0.053514, , 
42.87, 0.053847, , 
42.90, 0.054043, , 
42.93, 0.054284, , 
42.96, 0.054573, , 
42.99, 0.054878, , 
43.02, 0.055058, , 
43.05, 0.055328, , 
43.08, 0.055715, , 
43.11, 0.056118, , 
43.14, 0.056324, , 
43.17, 0.056584, , 
43.20, 0.057063, , 
43.23, 0.057425, , 
43.26, 0.057789, , 
43.29, 0.058107, , 
43.32, 0.058322, , 
43.35, 0.058725, , 
43.38, 0.059001, , 
43.41, 0.059464, , 
43.44, 0.059791, , 
43.47, 0.060083, , 
43.50, 0.060349, , 
43.53, 0.060704, , 
43.56, 0.061206, , 
43.59, 0.061469, , 
43.62, 0.061802, , 
43.65, 0.062122, , 
43.68, 0.062525, , 
43.72, 0.062880, , 
43.74, 0.063096, , 
43.77, 0.063420, , 
43.80, 0.063775, , 
43.83, 0.064168, , 
43.86, 0.064447, , 
43.89, 0.064701, , 
43.92, 0.065006, , 
43.95, 0.065152, , 
43.98, 0.065450, , 
44.01, 0.065859, , 
44.04, 0.066151, , 
44.07, 0.066389, , 
44.10, 0.066639, , 
44.14, 0.066804, , 
44.16, 0.067004, , 
44.19, 0.067112, , 
44.22, 0.067191, , 
44.25, 0.067343, , 
44.28, 0.067524, , 
44.31, 0.067695, , 
44.35, 0.067822, , 
44.37, 0.067949, , 
44.40, 0.068041, , 
44.43, 0.068000, , 
44.46, 0.068009, , 
44.49, 0.068228, , 
44.52, 0.068352, , 
44.56, 0.068311, , 
44.58, 0.068247, , 
44.61, 0.068171, , 
44.64, 0.068190, , 
44.67, 0.068016, , 
44.70, 0.067984, , 
44.73, 0.068003, , 
44.76, 0.067892, , 
44.79, 0.067724, 14, 0.588
44.80, 0.067702, , 
44.82, 0.067616, , 
44.85, 0.067464, , 
44.88, 0.067347, , 
44.91, 0.067153, , 
44.94, 0.066988, , 
44.97, 0.066960, , 
45.00, 0.066712, , 
45.03, 0.066379, , 
45.06, 0.066163, , 
45.09, 0.066024, , 
45.12, 0.065799, , 
45.15, 0.065389, , 
45.18, 0.065231, , 
45.21, 0.065079, , 
45.24, 0.064758, , 
45.27, 0.064416, , 
45.30, 0.064165, , 
45.33, 0.063949, , 
45.36, 0.063613, , 
45.39, 0.063302, , 
45.42, 0.063026, , 
45.45, 0.062722, , 
45.48, 0.062379, , 
45.51, 0.062062, , 
45.54, 0.061729, , 
45.57, 0.061440, , 
45.61, 0.061145, , 
45.63, 0.060895, , 
45.66, 0.060730, , 
45.69, 0.060511, , 
45.72, 0.060311, , 
45.75, 0.059927, , 
45.78, 0.059712, , 
45.81, 0.059582, , 
45.84, 0.059207, , 
45.87, 0.058827, , 
45.90, 0.058601, , 
45.93, 0.058557, , 
45.96, 0.058272, , 
45.99, 0.057996, , 
46.03, 0.057872, , 
46.05, 0.057796, , 
46.08, 0.057491, , 
46.11, 0.057291, , 
46.14, 0.057022, , 
46.17, 0.056825, , 
46.20, 0.056486, , 
46.23, 0.056365, , 
46.26, 0.056308, , 
46.29, 0.056143, , 
46.32, 0.055902, , 
46.35, 0.055652, , 
46.38, 0.055461, , 
46.41, 0.055344, , 
46.44, 0.055160, , 
46.47, 0.054932, , 
46.50, 0.054843, , 
46.53, 0.054665, , 
46.56, 0.054510, , 
46.59, 0.054348, , 
46.62, 0.054193, , 
46.65, 0.054081, , 
46.68, 0.053923, , 
46.71, 0.053825, , 
46.74, 0.053698, , 
46.77, 0.053634, , 
46.80, 0.053393, , 
46.83, 0.053228, , 
46.86, 0.053235, , 
46.89, 0.053263, , 
46.92, 0.053136, , 
46.95, 0.053044, , 
46.98, 0.053006, , 
47.01, 0.052873, , 
47.04, 0.052724, , 
47.07, 0.052660, , 
47.10, 0.052673, , 
47.13, 0.052667, , 
47.16, 0.052543, , 
47.19, 0.052423, , 
47.22, 0.052378, , 
47.25, 0.052273, , 
47.28, 0.052213, , 
47.31, 0.052235, , 
47.34, 0.052283, , 
47.37, 0.052229, , 
47.40, 0.052109, , 
47.43, 0.052026, , 
47.46, 0.052029, , 
47.49, 0.051950, , 
47.52, 0.051706, , 
47.55, 0.051642, , 
47.58, 0.051747, , 
47.61, 0.051725, , 
47.64, 0.051630, , 
47.67, 0.051706, , 
47.70, 0.051737, , 
47.73, 0.051864, , 
47.76, 0.051937, , 
47.79, 0.052058, , 
47.82, 0.052166, , 
47.85, 0.052270, , 
47.88, 0.052169, , 
47.91, 0.052153, , 
47.94, 0.052359, , 
47.97, 0.052467, , 
47.98, 0.052473, 15, 0.584
48.00, 0.052464, , 
48.03, 0.052581, , 
48.06, 0.052749, , 
48.09, 0.052775, , 
48.12, 0.052771, , 
48.15, 0.052895, , 
48.18, 0.053038, , 
48.21, 0.053120, , 
48.24, 0.053171, , 
48.27, 0.053295, , 
48.30, 0.053438, , 
48.33, 0.053574, , 
48.36, 0.053637, , 
48.39, 0.053891, , 
48.42, 0.054066, , 
48.45, 0.054072, , 
48.48, 0.054139, , 
48.51, 0.054345, , 
48.54, 0.054541, , 
48.57, 0.054690, , 
48.60, 0.054821, , 
48.63, 0.055049, , 
48.66, 0.055261, , 
48.69, 0.055458, , 
48.72, 0.055629, , 
48.75, 0.055924, , 
48.78, 0.056134, , 
48.81, 0.056470, , 
48.84, 0.056711, , 
48.87, 0.057035, , 
48.91, 0.057453, , 
48.93, 0.057564, , 
48.96, 0.057866, , 
48.99, 0.058256, , 
49.02, 0.058624, , 
49.05, 0.058982, , 
49.08, 0.059271, , 
49.11, 0.059531, , 
49.14, 0.059984, , 
49.17, 0.060260, , 
49.20, 0.060673, , 
49.23, 0.061171, , 
49.26, 0.061482, , 
49.29, 0.061697, , 
49.32, 0.062119, , 
49.35, 0.062624, , 
49.38, 0.062995, , 
49.41, 0.063207, , 
49.44, 0.063470, , 
49.47, 0.063959, , 
49.50, 0.064374, , 
49.53, 0.064730, , 
49.56, 0.065101, , 
49.59, 0.065402, , 
49.62, 0.065783, , 
49.65, 0.066011, , 
49.68, 0.066316, , 
49.71, 0.066668, , 
49.74, 0.066880, , 
49.77, 0.067185, , 
49.80, 0.067537, , 
49.83, 0.067927, , 
49.86, 0.068152, , 
49.89, 0.068282, , 
49.92, 0.068495, , 
49.95, 0.068837, , 
49.98, 0.068993, , 
50.01, 0.069015, , 
50.04, 0.069078, , 
50.07, 0.069250, , 
50.10, 0.069370, , 
50.13, 0.069418, , 
50.16, 0.069522, , 
50.19, 0.069659, , 
50.22, 0.069653, , 
50.25, 0.069583, , 
50.28, 0.069583, , 
50.31, 0.069662, , 
50.34, 0.069614, , 
50.37, 0.069450, , 
50.40, 0.069323, , 
50.43, 0.069345, , 
50.46, 0.069177, , 
50.49, 0.068888, , 
50.52, 0.068815, , 
50.55, 0.068812, , 
50.58, 0.068679, , 
50.61, 0.068381, , 
50.64, 0.068216, , 
50.67, 0.068127, , 
50.70, 0.067746, , 
50.73, 0.067442, , 
50.76, 0.067236, , 
50.79, 0.067067, , 
50.82, 0.066868, , 
50.85, 0.066439, , 
50.88, 0.066201, , 
50.91, 0.065932, , 
50.94, 0.065567, , 
50.97, 0.065336, , 
51.00, 0.064958, , 
51.03, 0.064714, , 
51.06, 0.064378, , 
51.09, 0.064114, , 
51.12, 0.063921, , 
51.15, 0.063654, , 
51.18, 0.063299, , 
51.19, 0.063236, 16, 0.586
51.21, 0.062887, , 
51.24, 0.062677, , 
51.27, 0.062417, , 
51.30, 0.062094, , 
51.33, 0.061786, , 
51.36, 0.061653, , 
51.39, 0.061402, , 
51.42, 0.061047, , 
51.45, 0.060733, , 
51.48, 0.060505, , 
51.51, 0.060175, , 
51.54, 0.059854, , 
51.57, 0.059617, , 
51.60, 0.059531, , 
51.63, 0.059375, , 
51.66, 0.059144, , 
51.69, 0.058950, , 
51.72, 0.058773, , 
51.75, 0.058598, , 
51.78, 0.058383, , 
51.81, 0.058065, , 
51.84, 0.058002, , 
51.87, 0.057853, , 
51.90, 0.057510, , 
51.93, 0.057406, , 
51.96, 0.057250, , 
51.99, 0.057130, , 
52.02, 0.056981, , 
52.05, 0.056749, , 
52.08, 0.056682, , 
52.11, 0.056518, , 
52.14, 0.056289, , 
52.17, 0.056207, , 
52.20, 0.056251, , 
52.23, 0.056232, , 
52.26, 0.056115, , 
52.29, 0.055921, , 
52.32, 0.055972, , 
52.35, 0.055893, , 
52.38, 0.055734, , 
52.41, 0.055709, , 
52.44, 0.055721, , 
52.47, 0.055686, , 
52.50, 0.055680, , 
52.53, 0.055721, , 
52.56, 0.055766, , 
52.59, 0.055778, , 
52.62, 0.055661, , 
52.65, 0.055737, , 
52.68, 0.055861, , 
52.71, 0.055943, , 
52.74, 0.055988, , 
52.77, 0.056077, , 
52.80, 0.056108, , 
52.83, 0.056137, , 
52.86, 0.056188, , 
52.89, 0.056324, , 
52.92, 0.056483, , 
52.95, 0.056578, , 
52.98, 0.056711, , 
53.01, 0.056911, , 
53.04, 0.057066, , 
53.07, 0.057241, , 
53.10, 0.057342, , 
53.13, 0.057466, , 
53.16, 0.057764, , 
53.19, 0.057920, , 
53.22, 0.058008, , 
53.25, 0.058195, , 
53.28, 0.058503, , 
53.31, 0.058725, , 
53.34, 0.058954, , 
53.37, 0.059099, , 
53.40, 0.059433, , 
53.43, 0.059636, , 
53.46, 0.059813, , 
53.49, 0.060061, , 
53.52, 0.060308, , 
53.55, 0.060685, , 
53.58, 0.060888, , 
53.61, 0.061215, , 
53.64, 0.061691, , 
53.67, 0.061802, , 
53.70, 0.062049, , 
53.73, 0.062436, , 
53.76, 0.062827, , 
53.79, 0.063099, , 
53.82, 0.063315, , 
53.85, 0.063651, , 
53.88, 0.063975, , 
53.91, 0.064184, , 
53.94, 0.064371, , 
53.97, 0.064758, , 
54.00, 0.065113, , 
54.03, 0.065326, , 
54.06, 0.065507, , 
54.09, 0.065811, , 
54.12, 0.066106, , 
54.15, 0.066262, , 
54.18, 0.066427, , 
54.21, 0.066699, , 
54.24, 0.067071, , 
54.27, 0.067210, , 
54.30, 0.067308, , 
54.33, 0.067499, , 
54.36, 0.067692, , 
54.39, 0.067819, 17, 0.586
54.39, 0.067860, , 
54.42, 0.067905, , 
54.45, 0.068041, , 
54.48, 0.068143, , 
54.51, 0.068285, , 
54.54, 0.068362, , 
54.57, 0.068492, , 
54.60, 0.068501, , 
54.63, 0.068479, , 
54.66, 0.068419, , 
54.69, 0.068574, , 
54.72, 0.068596, , 
54.75, 0.068460, , 
54.78, 0.068476, , 
54.81, 0.068574, , 
54.84, 0.068574, , 
54.87, 0.068431, , 
54.90, 0.068247, , 
54.93, 0.068212, , 
54.96, 0.068155, , 
54.99, 0.067956, , 
55.02, 0.067794, , 
55.05, 0.067772, , 
55.08, 0.067676, , 
55.11, 0.067603, , 
55.14, 0.067426, , 
55.17, 0.067359, , 
55.20, 0.067251, , 
55.23, 0.067039, , 
55.26, 0.066785, , 
55.29, 0.066703, , 
55.32, 0.066477, , 
55.35, 0.066205, , 
55.38, 0.065989, , 
55.41, 0.065894, , 
55.44, 0.065761, , 
55.47, 0.065497, , 
55.50, 0.065266, , 
55.53, 0.065155, , 
55.56, 0.064933, , 
55.59, 0.064663, , 
55.62, 0.064438, , 
55.65, 0.064260, , 
55.68, 0.064054, , 
55.71, 0.063769, , 
55.74, 0.063623, , 
55.77, 0.063410, , 
55.80, 0.063163, , 
55.83, 0.062887, , 
55.86, 0.062636, , 
55.89, 0.062525, , 
55.92, 0.062294, , 
55.95, 0.061875, , 
55.98, 0.061764, , 
56.01, 0.061723, , 
56.04, 0.061548, , 
56.07, 0.061260, , 
56.10, 0.061139, , 
56.13, 0.061072, , 
56.16, 0.060857, , 
56.19, 0.060762, , 
56.22, 0.060743, , 
56.25, 0.060762, , 
56.28, 0.060628, , 
56.31, 0.060403, , 
56.34, 0.060365, , 
56.37, 0.060352, , 
56.40, 0.060191, , 
56.43, 0.060080, , 
56.46, 0.060165, , 
56.49, 0.060187, , 
56.52, 0.060092, , 
56.55, 0.060067, , 
56.58, 0.060140, , 
56.61, 0.060184, , 
56.64, 0.060121, , 
56.67, 0.060076, , 
56.70, 0.060124, , 
56.73, 0.060162, , 
56.76, 0.060165, , 
56.79, 0.060134, , 
56.82, 0.060181, , 
56.85, 0.060349, , 
56.88, 0.060416, , 
56.91, 0.060454, , 
56.94, 0.060536, , 
56.97, 0.060625, , 
57.00, 0.060695, , 
57.03, 0.060790, , 
57.06, 0.060990, , 
57.09, 0.061079, , 
57.12, 0.061180, , 
57.15, 0.061326, , 
57.18, 0.061491, , 
57.21, 0.061726, , 
57.24, 0.061780, , 
57.27, 0.061884, , 
57.30, 0.062205, , 
57.33, 0.062430, , 
57.36, 0.062541, , 
57.39, 0.062668, , 
57.42, 0.062925, , 
57.45, 0.063252, , 
57.48, 0.063391, , 
57.52, 0.063559, , 
57.54, 0.063829, , 
57.57, 0.064162, , 
57.59, 0.064209, 18, 0.586
57.60, 0.064308, , 
57.63, 0.064533, , 
57.66, 0.064806, , 
57.69, 0.065028, , 
57.72, 0.065174, , 
57.75, 0.065380, , 
57.78, 0.065608, , 
57.81, 0.065903, , 
57.84, 0.066106, , 
57.87, 0.066259, , 
57.90, 0.066569, , 
57.93, 0.066665, , 
57.96, 0.066728, , 
57.99, 0.066960, , 
58.02, 0.067178, , 
58.05, 0.067327, , 
58.08, 0.067353, , 
58.11, 0.067581, , 
58.14, 0.067822, , 
58.17, 0.067902, , 
58.20, 0.067959, , 
58.23, 0.068111, , 
58.26, 0.068314, , 
58.29, 0.068320, , 
58.32, 0.068333, , 
58.35, 0.068393, , 
58.38, 0.068504, , 
58.41, 0.068542, , 
58.44, 0.068450, , 
58.47, 0.068641, , 
58.50, 0.068847, , 
58.53, 0.068809, , 
58.56, 0.068834, , 
58.59, 0.068885, , 
58.62, 0.068834, , 
58.65, 0.068615, , 
58.68, 0.068473, , 
58.71, 0.068492, , 
58.74, 0.068546, , 
58.77, 0.068466, , 
58.80, 0.068365, , 
58.83, 0.068311, , 
58.86, 0.068203, , 
58.89, 0.068082, , 
58.92, 0.068003, , 
58.95, 0.067959, , 
58.98, 0.067981, , 
59.01, 0.067772, , 
59.04, 0.067607, , 
59.07, 0.067515, , 
59.10, 0.067502, , 
59.13, 0.067362, , 
59.16, 0.067172, , 
59.19, 0.067128, , 
59.22, 0.067052, , 
59.25, 0.066753, , 
59.28, 0.066544, , 
59.31, 0.066541, , 
59.34, 0.066474, , 
59.37, 0.066278, , 
59.40, 0.066084, , 
59.43, 0.066052, , 
59.46, 0.066049, , 
59.49, 0.065941, , 
59.52, 0.065776, , 
59.55, 0.065754, , 
59.58, 0.065643, , 
59.61, 0.065494, , 
59.64, 0.065469, , 
59.67, 0.065516, , 
59.70, 0.065345, , 
59.73, 0.065117, , 
59.76, 0.064996, , 
59.79, 0.065047, , 
59.82, 0.065044, , 
59.85, 0.064907, , 
59.88, 0.064933, , 
59.91, 0.064971, , 
59.94, 0.064831, , 
59.97, 0.064704, , 
60.00, 0.064539, , 
60.04, 0.064590, , 
60.06, 0.064543, , 
60.09, 0.064511, , 
60.12, 0.064571, , 
60.15, 0.064669, , 
60.18, 0.064803, , 
60.21, 0.064844, , 
60.24, 0.064926, , 
60.27, 0.065053, , 
60.30, 0.065186, , 
60.33, 0.065288, , 
60.36, 0.065456, , 
60.39, 0.065573, , 
60.42, 0.065665, , 
60.45, 0.065773, , 
60.48, 0.065929, , 
60.51, 0.066128, , 
60.54, 0.066243, , 
60.57, 0.066325, , 
60.60, 0.066509, , 
60.63, 0.066785, , 
60.66, 0.066925, , 
60.69, 0.066972, , 
60.72, 0.067067, , 
60.75, 0.067353, , 
60.78, 0.067435, 19, 0.584
60.79, 0.067448, , 
60.81, 0.067410, , 
60.84, 0.067546, , 
60.87, 0.067702, , 
60.90, 0.067832, , 
60.93, 0.067829, , 
60.96, 0.068044, , 
60.99, 0.068260, , 
61.02, 0.068314, , 
61.05, 0.068447, , 
61.08, 0.068679, , 
61.11, 0.068856, , 
61.14, 0.068929, , 
61.17, 0.069002, , 
61.20, 0.069167, , 
61.23, 0.069402, , 
61.26, 0.069573, , 
61.29, 0.069630, , 
61.32, 0.069735, , 
61.35, 0.069967, , 
61.38, 0.069948, , 
61.41, 0.069900, , 
61.44, 0.070049, , 
61.47, 0.070141, , 
61.50, 0.070233, , 
61.53, 0.070334, , 
61.56, 0.070465, , 
61.59, 0.070541, , 
61.62, 0.070515, , 
61.65, 0.070452, , 
61.68, 0.070487, , 
61.71, 0.070503, , 
61.74, 0.070423, , 
61.77, 0.070376, , 
61.80, 0.070312, , 
61.83, 0.070217, , 
61.86, 0.069982, , 
61.89, 0.069957, , 
61.92, 0.070030, , 
61.95, 0.070052, , 
61.98, 0.069941, , 
62.01, 0.069871, , 
62.04, 0.069881, , 
62.07, 0.069795, , 
62.10, 0.069611, , 
62.13, 0.069459, , 
62.16, 0.069541, , 
62.19, 0.069567, , 
62.22, 0.069500, , 
62.25, 0.069421, , 
62.28, 0.069526, , 
62.31, 0.069580, , 
62.35, 0.069386, , 
62.37, 0.069304, , 
62.41, 0.069259, , 
62.43, 0.069177, , 
62.46, 0.069028, , 
62.49, 0.068974, , 
62.52, 0.069066, , 
62.55, 0.069040, , 
62.58, 0.068971, , 
62.61, 0.069002, , 
62.64, 0.069078, , 
62.67, 0.069075, , 
62.70, 0.068955, , 
62.73, 0.068964, , 
62.76, 0.069009, , 
62.79, 0.068990, , 
62.82, 0.068990, , 
62.85, 0.068971, , 
62.88, 0.068986, , 
62.91, 0.068977, , 
62.94, 0.068885, , 
62.97, 0.068983, , 
63.00, 0.069107, , 
63.03, 0.069113, , 
63.06, 0.069132, , 
63.09, 0.069335, , 
63.12, 0.069434, , 
63.15, 0.069411, , 
63.18, 0.069472, , 
63.21, 0.069694, , 
63.24, 0.069852, , 
63.27, 0.069859, , 
63.30, 0.069941, , 
63.33, 0.070128, , 
63.36, 0.070277, , 
63.39, 0.070277, , 
63.42, 0.070334, , 
63.45, 0.070547, , 
63.48, 0.070721, , 
63.51, 0.070839, , 
63.54, 0.070817, , 
63.57, 0.070905, , 
63.60, 0.070985, , 
63.63, 0.070988, , 
63.66, 0.071035, , 
63.69, 0.071292, , 
63.72, 0.071451, , 
63.75, 0.071365, , 
63.78, 0.071410, , 
63.81, 0.071521, , 
63.84, 0.071546, , 
63.87, 0.071543, , 
63.91, 0.071692, , 
63.93, 0.071844, , 
63.96, 0.071914, , 
63.98, 0.071879, 20, 0.585
63.99, 0.071847, , 
64.02, 0.071949, , 
64.05, 0.072035, , 
64.08, 0.072038, , 
64.11, 0.071914, , 
64.14, 0.071905, , 
64.17, 0.072016, , 
64.21, 0.072012, , 
64.23, 0.071917, , 
64.26, 0.071927, , 
64.29, 0.072066, , 
64.32, 0.072044, , 
64.35, 0.071895, , 
64.38, 0.071800, , 
64.41, 0.071759, , 
64.44, 0.071664, , 
64.48, 0.071530, , 
64.50, 0.071489, , 
64.53, 0.071518, , 
64.56, 0.071502, , 
64.59, 0.071226, , 
64.62, 0.071146, , 
64.65, 0.071150, , 
64.68, 0.071080, , 
64.71, 0.070985, , 
64.74, 0.070969, , 
64.77, 0.071074, , 
64.80, 0.071086, , 
64.83, 0.070972, , 
64.86, 0.071013, , 
64.89, 0.071004, , 
64.92, 0.070956, , 
64.95, 0.070921, , 
64.98, 0.070918, , 
65.01, 0.071023, , 
65.04, 0.070947, , 
65.07, 0.070874, , 
65.10, 0.070956, , 
65.13, 0.070947, , 
65.16, 0.070937, , 
65.19, 0.070912, , 
65.22, 0.070924, , 
65.25, 0.070988, , 
65.28, 0.070931, , 
65.31, 0.070991, , 
65.34, 0.071210, , 
65.37, 0.071330, , 
65.40, 0.071330, , 
65.43, 0.071296, , 
65.46, 0.071381, , 
65.49, 0.071489, , 
65.52, 0.071470, , 
65.55, 0.071394, , 
65.58, 0.071426, , 
65.61, 0.071470, , 
65.64, 0.071426, , 
65.67, 0.071397, , 
65.70, 0.071422, , 
65.73, 0.071689, , 
65.76, 0.071730, , 
65.79, 0.071787, , 
65.82, 0.071908, , 
65.85, 0.071987, , 
65.88, 0.071870, , 
65.91, 0.071813, , 
65.94, 0.072047, , 
65.97, 0.072231, , 
66.00, 0.072260, , 
66.03, 0.072333, , 
66.06, 0.072377, , 
66.09, 0.072418, , 
66.12, 0.072415, , 
66.15, 0.072409, , 
66.18, 0.072425, , 
66.21, 0.072415, , 
66.24, 0.072428, , 
66.27, 0.072393, , 
66.30, 0.072434, , 
66.33, 0.072374, , 
66.36, 0.072196, , 
66.39, 0.072085, , 
66.42, 0.072095, , 
66.45, 0.072038, , 
66.48, 0.071847, , 
66.51, 0.071854, , 
66.54, 0.071952, , 
66.57, 0.071933, , 
66.60, 0.071908, , 
66.63, 0.071936, , 
66.66, 0.071889, , 
66.69, 0.071762, , 
66.72, 0.071486, , 
66.75, 0.071533, , 
66.78, 0.071524, , 
66.81, 0.071461, , 
66.84, 0.071432, , 
66.87, 0.071429, , 
66.90, 0.071505, , 
66.93, 0.071432, , 
66.96, 0.071362, , 
66.99, 0.071378, , 
67.02, 0.071410, , 
67.05, 0.071388, , 
67.08, 0.071308, , 
67.11, 0.071264, , 
67.14, 0.071150, , 
67.17, 0.071029, , 
67.19, 0.071010, 21, 0.587
67.20, 0.070982, , 
67.23, 0.070991, , 
67.26, 0.070985, , 
67.29, 0.070940, , 
67.32, 0.070924, , 
67.35, 0.071020, , 
67.38, 0.070997, , 
67.41, 0.070931, , 
67.44, 0.070905, , 
67.47, 0.070934, , 
67.50, 0.070947, , 
67.53, 0.070934, , 
67.57, 0.070928, , 
67.59, 0.071013, , 
67.62, 0.071007, , 
67.65, 0.070896, , 
67.68, 0.070985, , 
67.71, 0.071207, , 
67.74, 0.071324, , 
67.77, 0.071372, , 
67.80, 0.071381, , 
67.83, 0.071464, , 
67.86, 0.071438, , 
67.89, 0.071413, , 
67.92, 0.071473, , 
67.95, 0.071467, , 
67.98, 0.071451, , 
68.01, 0.071388, , 
68.04, 0.071388, , 
68.07, 0.071511, , 
68.10, 0.071441, , 
68.13, 0.071365, , 
68.16, 0.071349, , 
68.19, 0.071273, , 
68.22, 0.071197, , 
68.25, 0.071007, , 
68.28, 0.071001, , 
68.31, 0.071048, , 
68.34, 0.070985, , 
68.37, 0.070886, , 
68.40, 0.070966, , 
68.43, 0.071032, , 
68.46, 0.070985, , 
68.49, 0.070953, , 
68.52, 0.070924, , 
68.55, 0.070798, , 
68.58, 0.070639, , 
68.61, 0.070537, , 
68.64, 0.070566, , 
68.67, 0.070582, , 
68.70, 0.070490, , 
68.73, 0.070430, , 
68.76, 0.070477, , 
68.79, 0.070560, , 
68.82, 0.070369, , 
68.85, 0.070214, , 
68.88, 0.070166, , 
68.91, 0.070125, , 
68.94, 0.070043, , 
68.97, 0.069982, , 
69.00, 0.070001, , 
69.03, 0.069963, , 
69.06, 0.069986, , 
69.09, 0.069916, , 
69.12, 0.069776, , 
69.15, 0.069697, , 
69.18, 0.069484, , 
69.21, 0.069478, , 
69.24, 0.069602, , 
69.27, 0.069592, , 
69.30, 0.069510, , 
69.33, 0.069503, , 
69.36, 0.069580, , 
69.39, 0.069586, , 
69.42, 0.069491, , 
69.45, 0.069507, , 
69.48, 0.069488, , 
69.51, 0.069545, , 
69.54, 0.069450, , 
69.57, 0.069453, , 
69.60, 0.069602, , 
69.63, 0.069529, , 
69.66, 0.069392, , 
69.69, 0.069430, , 
69.72, 0.069611, , 
69.75, 0.069541, , 
69.78, 0.069497, , 
69.81, 0.069522, , 
69.84, 0.069529, , 
69.87, 0.069513, , 
69.90, 0.069396, , 
69.93, 0.069446, , 
69.96, 0.069411, , 
69.99, 0.069234, , 
70.02, 0.069050, , 
70.05, 0.069082, , 
70.08, 0.069142, , 
70.11, 0.069056, , 
70.14, 0.068910, , 
70.17, 0.068815, , 
70.20, 0.068796, , 
70.23, 0.068669, , 
70.26, 0.068552, , 
70.29, 0.068520, , 
70.32, 0.068425, , 
70.35, 0.068241, , 
70.38, 0.068136, 22, 0.585
70.39, 0.068127, , 
70.41, 0.068130, , 
70.44, 0.068143, , 
70.47, 0.068057, , 
70.50, 0.067981, , 
70.53, 0.068076, , 
70.56, 0.068114, , 
70.59, 0.067851, , 
70.62, 0.067692, , 
70.65, 0.067711, , 
70.68, 0.067642, , 
70.71, 0.067626, , 
70.74, 0.067550, , 
70.77, 0.067607, , 
70.80, 0.067635, , 
70.83, 0.067499, , 
70.86, 0.067521, , 
70.89, 0.067613, , 
70.92, 0.067508, , 
70.95, 0.067388, , 
70.98, 0.067210, , 
71.01, 0.067210, , 
71.04, 0.067128, , 
71.07, 0.067029, , 
71.10, 0.067083, , 
71.13, 0.067096, , 
71.16, 0.067064, , 
71.19, 0.066950, , 
71.22, 0.066899, , 
71.25, 0.066829, , 
71.28, 0.066747, , 
71.31, 0.066598, , 
71.34, 0.066573, , 
71.37, 0.066614, , 
71.40, 0.066560, , 
71.43, 0.066474, , 
71.46, 0.066446, , 
71.49, 0.066389, , 
71.52, 0.066227, , 
71.55, 0.066128, , 
71.58, 0.066122, , 
71.61, 0.066151, , 
71.64, 0.066056, , 
71.67, 0.066014, , 
71.70, 0.066049, , 
71.73, 0.066043, , 
71.76, 0.065954, , 
71.79, 0.065802, , 
71.82, 0.065726, , 
71.85, 0.065694, , 
71.88, 0.065611, , 
71.91, 0.065513, , 
71.94, 0.065535, , 
71.97, 0.065583, , 
72.01, 0.065478, , 
72.03, 0.065383, , 
72.06, 0.065209, , 
72.09, 0.065177, , 
72.12, 0.065098, , 
72.15, 0.064901, , 
72.18, 0.064888, , 
72.21, 0.064838, , 
72.24, 0.064647, , 
72.27, 0.064568, , 
72.30, 0.064571, , 
72.33, 0.064530, , 
72.36, 0.064349, , 
72.39, 0.064222, , 
72.42, 0.064175, , 
72.45, 0.064181, , 
72.48, 0.064140, , 
72.51, 0.064070, , 
72.54, 0.063908, , 
72.57, 0.063803, , 
72.60, 0.063629, , 
72.63, 0.063578, , 
72.66, 0.063658, , 
72.69, 0.063635, , 
72.72, 0.063550, , 
72.75, 0.063461, , 
72.78, 0.063420, , 
72.81, 0.063293, , 
72.84, 0.063122, , 
72.87, 0.063036, , 
72.90, 0.063115, , 
72.93, 0.063137, , 
72.96, 0.063036, , 
72.99, 0.062906, , 
73.02, 0.062836, , 
73.05, 0.062769, , 
73.08, 0.062592, , 
73.11, 0.062582, , 
73.14, 0.062646, , 
73.17, 0.062535, , 
73.20, 0.062348, , 
73.23, 0.062249, , 
73.26, 0.062217, , 
73.29, 0.062192, , 
73.32, 0.062110, , 
73.35, 0.062068, , 
73.38, 0.062103, , 
73.41, 0.062103, , 
73.44, 0.061951, , 
73.47, 0.061761, , 
73.50, 0.061761, , 
73.53, 0.061713, , 
73.56, 0.061574, , 
73.58, 0.061526, 23, 0.586
73.59, 0.061532, , 
73.62, 0.061605, , 
73.65, 0.061621, , 
73.68, 0.061555, , 
73.71, 0.061548, , 
73.74, 0.061555, , 
73.77, 0.061399, , 
73.80, 0.061209, , 
73.83, 0.061079, , 
73.86, 0.061088, , 
73.89, 0.061079, , 
73.92, 0.061031, , 
73.95, 0.061076, , 
73.98, 0.061133, , 
74.01, 0.061009, , 
74.04, 0.060739, , 
74.07, 0.060635, , 
74.10, 0.060638, , 
74.13, 0.060597, , 
74.16, 0.060552, , 
74.19, 0.060593, , 
74.22, 0.060616, , 
74.25, 0.060540, , 
74.28, 0.060314, , 
74.31, 0.060206, , 
74.34, 0.060200, , 
74.37, 0.060143, , 
74.40, 0.060083, , 
74.43, 0.060140, , 
74.46, 0.060137, , 
74.49, 0.060010, , 
74.52, 0.059810, , 
74.55, 0.059740, , 
74.58, 0.059699, , 
74.61, 0.059632, , 
74.64, 0.059620, , 
74.67, 0.059604, , 
74.70, 0.059661, , 
74.73, 0.059578, , 
74.76, 0.059452, , 
74.79, 0.059388, , 
74.82, 0.059239, , 
74.85, 0.059150, , 
74.88, 0.059109, , 
74.91, 0.059141, , 
74.94, 0.059138, , 
74.97, 0.059093, , 
75.00, 0.059033, , 
75.03, 0.058966, , 
75.06, 0.058820, , 
75.09, 0.058722, , 
75.12, 0.058605, , 
75.15, 0.058636, , 
75.18, 0.058681, , 
75.21, 0.058611, , 
75.24, 0.058589, , 
75.27, 0.058557, , 
75.30, 0.058494, , 
75.33, 0.058268, , 
75.36, 0.058189, , 
75.39, 0.058173, , 
75.42, 0.058173, , 
75.45, 0.058138, , 
75.48, 0.058113, , 
75.51, 0.058183, , 
75.54, 0.058176, , 
75.57, 0.058126, , 
75.60, 0.058081, , 
75.63, 0.057977, , 
75.66, 0.057878, , 
75.69, 0.057767, , 
75.72, 0.057723, , 
75.75, 0.057666, , 
75.78, 0.057669, , 
75.81, 0.057634, , 
75.84, 0.057602, , 
75.87, 0.057542, , 
75.90, 0.057428, , 
75.93, 0.057253, , 
75.96, 0.057199, , 
75.99, 0.057206, , 
76.02, 0.057152, , 
76.05, 0.057101, , 
76.08, 0.057006, , 
76.11, 0.056914, , 
76.14, 0.056822, , 
76.17, 0.056657, , 
76.20, 0.056660, , 
76.23, 0.056736, , 
76.27, 0.056676, , 
76.29, 0.056590, , 
76.32, 0.056575, , 
76.35, 0.056518, , 
76.38, 0.056359, , 
76.41, 0.056175, , 
76.44, 0.056175, , 
76.48, 0.056232, , 
76.50, 0.056156, , 
76.53, 0.056070, , 
76.56, 0.056165, , 
76.59, 0.056226, , 
76.62, 0.056150, , 
76.65, 0.056102, , 
76.68, 0.056150, , 
76.71, 0.056216, , 
76.74, 0.056108, , 
76.77, 0.055934, , 
76.78, 0.055905, 24, 0.585
76.80, 0.055870, , 
76.83, 0.055791, , 
76.86, 0.055693, , 
76.89, 0.055629, , 
76.92, 0.055648, , 
76.95, 0.055658, , 
76.98, 0.055566, , 
77.01, 0.055379, , 
77.04, 0.055261, , 
77.07, 0.055255, , 
77.10, 0.055173, , 
77.13, 0.055147, , 
77.16, 0.055176, , 
77.19, 0.055211, , 
77.22, 0.055097, , 
77.25, 0.055074, , 
77.28, 0.055125, , 
77.31, 0.055157, , 
77.34, 0.055112, , 
77.37, 0.055058, , 
77.40, 0.055144, , 
77.43, 0.055160, , 
77.46, 0.055065, , 
77.49, 0.055055, , 
77.52, 0.055087, , 
77.55, 0.054995, , 
77.58, 0.054843, , 
77.61, 0.054741, , 
77.64, 0.054627, , 
77.67, 0.054595, , 
77.70, 0.054503, , 
77.73, 0.054389, , 
77.76, 0.054348, , 
77.79, 0.054259, , 
77.82, 0.054104, , 
77.85, 0.054043, , 
77.88, 0.053983, , 
77.91, 0.053840, , 
77.94, 0.053679, , 
77.97, 0.053622, , 
78.00, 0.053637, , 
78.03, 0.053603, , 
78.06, 0.053425, , 
78.09, 0.053330, , 
78.12, 0.053279, , 
78.15, 0.053177, , 
78.18, 0.053098, , 
78.21, 0.053092, , 
78.24, 0.053114, , 
78.27, 0.053098, , 
78.30, 0.053035, , 
78.33, 0.052917, , 
78.37, 0.052870, , 
78.39, 0.052800, , 
78.42, 0.052572, , 
78.45, 0.052556, , 
78.48, 0.052632, , 
78.51, 0.052635, , 
78.54, 0.052568, , 
78.58, 0.052559, , 
78.60, 0.052540, , 
78.63, 0.052308, , 
78.66, 0.052096, , 
78.69, 0.052140, , 
78.72, 0.052201, , 
78.75, 0.052181, , 
78.78, 0.052086, , 
78.81, 0.052109, , 
78.84, 0.052181, , 
78.87, 0.052099, , 
78.90, 0.052023, , 
78.93, 0.052109, , 
78.96, 0.052143, , 
78.99, 0.051928, , 
79.02, 0.051791, , 
79.05, 0.051763, , 
79.09, 0.051744, , 
79.11, 0.051664, , 
79.14, 0.051563, , 
79.17, 0.051601, , 
79.20, 0.051626, , 
79.23, 0.051550, , 
79.26, 0.051395, , 
79.29, 0.051319, , 
79.32, 0.051246, , 
79.35, 0.051189, , 
79.38, 0.051125, , 
79.41, 0.051021, , 
79.44, 0.050948, , 
79.47, 0.050732, , 
79.50, 0.050668, , 
79.53, 0.050710, , 
79.56, 0.050672, , 
79.59, 0.050624, , 
79.62, 0.050589, , 
79.65, 0.050621, , 
79.68, 0.050494, , 
79.71, 0.050335, , 
79.74, 0.050224, , 
79.77, 0.050253, , 
79.80, 0.050228, , 
79.83, 0.050110, , 
79.86, 0.050098, , 
79.89, 0.050139, , 
79.92, 0.049996, , 
79.95, 0.049774, , 
79.98, 0.049685, 25, 0.585
79.98, 0.049688, , 
80.01, 0.049698, , 
80.04, 0.049660, , 
80.07, 0.049587, , 
80.10, 0.049641, , 
80.13, 0.049717, , 
80.16, 0.049628, , 
80.19, 0.049495, , 
80.22, 0.049406, , 
80.25, 0.049368, , 
80.28, 0.049228, , 
80.31, 0.049108, , 
80.34, 0.049136, , 
80.37, 0.049140, , 
80.40, 0.049127, , 
80.43, 0.049130, , 
80.46, 0.049114, , 
80.49, 0.049162, , 
80.52, 0.049127, , 
80.55, 0.049000, , 
80.58, 0.048924, , 
80.62, 0.048845, , 
80.64, 0.048711, , 
80.67, 0.048623, , 
80.70, 0.048632, , 
80.73, 0.048699, , 
80.76, 0.048619, , 
80.79, 0.048537, , 
80.82, 0.048512, , 
80.85, 0.048461, , 
80.88, 0.048274, , 
80.91, 0.048194, , 
80.94, 0.048182, , 
80.97, 0.048217, , 
81.00, 0.048102, , 
81.03, 0.047941, , 
81.06, 0.047826, , 
81.09, 0.047757, , 
81.12, 0.047585, , 
81.15, 0.047563, , 
81.18, 0.047649, , 
81.21, 0.047671, , 
81.24, 0.047636, , 
81.27, 0.047535, , 
81.30, 0.047389, , 
81.33, 0.047316, , 
81.36, 0.047205, , 
81.39, 0.047154, , 
81.42, 0.047198, , 
81.45, 0.047179, , 
81.48, 0.047040, , 
81.51, 0.046992, , 
81.54, 0.046989, , 
81.57, 0.046913, , 
81.60, 0.046723, , 
81.63, 0.046631, , 
81.66, 0.046691, , 
81.69, 0.046656, , 
81.72, 0.046596, , 
81.75, 0.046561, , 
81.78, 0.046608, , 
81.81, 0.046624, , 
81.84, 0.046596, , 
81.88, 0.046596, , 
81.90, 0.046634, , 
81.93, 0.046539, , 
81.96, 0.046329, , 
81.99, 0.046225, , 
82.02, 0.046250, , 
82.05, 0.046164, , 
82.09, 0.046041, , 
82.11, 0.046022, , 
82.14, 0.046120, , 
82.17, 0.046031, , 
82.20, 0.045863, , 
82.23, 0.045755, , 
82.26, 0.045676, , 
82.29, 0.045631, , 
82.32, 0.045593, , 
82.35, 0.045514, , 
82.38, 0.045565, , 
82.41, 0.045562, , 
82.44, 0.045447, , 
82.47, 0.045473, , 
82.50, 0.045530, , 
82.53, 0.045562, , 
82.56, 0.045489, , 
82.59, 0.045425, , 
82.62, 0.045365, , 
82.65, 0.045197, , 
82.68, 0.045038, , 
82.71, 0.045041, , 
82.74, 0.045067, , 
82.77, 0.045067, , 
82.80, 0.044981, , 
82.83, 0.044981, , 
82.86, 0.045086, , 
82.89, 0.045019, , 
82.92, 0.045010, , 
82.95, 0.045051, , 
82.98, 0.045064, , 
83.01, 0.045016, , 
83.04, 0.045003, , 
83.07, 0.044962, , 
83.10, 0.044851, , 
83.13, 0.044689, , 
83.16, 0.044550, , 
83.18, 0.044540, 26, 0.585
83.19, 0.044547, , 
83.22, 0.044550, , 
83.25, 0.044543, , 
83.28, 0.044540, , 
83.31, 0.044588, , 
83.34, 0.044594, , 
83.37, 0.044528, , 
83.40, 0.044512, , 
83.43, 0.044528, , 
83.47, 0.044569, , 
83.49, 0.044547, , 
83.52, 0.044537, , 
83.55, 0.044597, , 
83.58, 0.044613, , 
83.61, 0.044512, , 
83.64, 0.044521, , 
83.67, 0.044553, , 
83.70, 0.044550, , 
83.73, 0.044486, , 
83.76, 0.044509, , 
83.79, 0.044572, , 
83.82, 0.044572, , 
83.85, 0.044559, , 
83.88, 0.044534, , 
83.91, 0.044613, , 
83.94, 0.044591, , 
83.97, 0.044553, , 
84.00, 0.044547, , 
84.03, 0.044499, , 
84.06, 0.044331, , 
84.09, 0.044147, , 
84.12, 0.044096, , 
84.15, 0.044131, , 
84.18, 0.044096, , 
84.21, 0.044045, , 
84.24, 0.044065, , 
84.27, 0.044125, , 
84.30, 0.044055, , 
84.33, 0.044061, , 
84.36, 0.044096, , 
84.39, 0.044147, , 
84.42, 0.044131, , 
84.45, 0.044026, , 
84.48, 0.044020, , 
84.51, 0.043973, , 
84.54, 0.043804, , 
84.57, 0.043643, , 
84.60, 0.043636, , 
84.63, 0.043659, , 
84.66, 0.043544, , 
84.69, 0.043487, , 
84.72, 0.043532, , 
84.75, 0.043598, , 
84.78, 0.043547, , 
84.81, 0.043541, , 
84.84, 0.043567, , 
84.87, 0.043582, , 
84.90, 0.043532, , 
84.93, 0.043506, , 
84.96, 0.043598, , 
84.99, 0.043639, , 
85.02, 0.043494, , 
85.05, 0.043547, , 
85.08, 0.043576, , 
85.11, 0.043630, , 
85.14, 0.043601, , 
85.17, 0.043535, , 
85.20, 0.043541, , 
85.23, 0.043601, , 
85.26, 0.043598, , 
85.29, 0.043573, , 
85.32, 0.043598, , 
85.35, 0.043630, , 
85.38, 0.043586, , 
85.41, 0.043573, , 
85.44, 0.043538, , 
85.47, 0.043589, , 
85.50, 0.043528, , 
85.53, 0.043475, , 
85.56, 0.043567, , 
85.59, 0.043579, , 
85.62, 0.043532, , 
85.65, 0.043519, , 
85.68, 0.043557, , 
85.71, 0.043595, , 
85.74, 0.043487, , 
85.77, 0.043398, , 
85.80, 0.043341, , 
85.83, 0.043218, , 
85.86, 0.043056, , 
85.89, 0.043056, , 
85.92, 0.043107, , 
85.95, 0.043049, , 
85.98, 0.043034, , 
86.02, 0.043040, , 
86.04, 0.043065, , 
86.07, 0.043107, , 
86.10, 0.043021, , 
86.13, 0.042983, , 
86.16, 0.043081, , 
86.19, 0.043094, , 
86.22, 0.043021, , 
86.25, 0.043011, , 
86.28, 0.043037, , 
86.31, 0.043018, , 
86.34, 0.042980, , 
86.37, 0.043021, , 
86.38, 0.043053, 27, 0.586
86.40, 0.043030, , 
86.43, 0.042980, , 
86.46, 0.042919, , 
86.49, 0.042954, , 
86.52, 0.043024, , 
86.55, 0.043015, , 
86.58, 0.042869, , 
86.61, 0.042780, , 
86.64, 0.042713, , 
86.67, 0.042590, , 
86.70, 0.042552, , 
86.73, 0.042555, , 
86.76, 0.042574, , 
86.79, 0.042463, , 
86.82, 0.042453, , 
86.85, 0.042520, , 
86.88, 0.042552, , 
86.91, 0.042494, , 
86.94, 0.042425, , 
86.97, 0.042517, , 
87.00, 0.042567, , 
87.03, 0.042460, , 
87.06, 0.042437, , 
87.09, 0.042491, , 
87.12, 0.042494, , 
87.15, 0.042453, , 
87.18, 0.042425, , 
87.21, 0.042507, , 
87.24, 0.042510, , 
87.27, 0.042421, , 
87.30, 0.042279, , 
87.33, 0.042263, , 
87.36, 0.042152, , 
87.39, 0.042012, , 
87.42, 0.041981, , 
87.45, 0.042034, , 
87.48, 0.042019, , 
87.51, 0.041955, , 
87.54, 0.041936, , 
87.57, 0.042041, , 
87.60, 0.042000, , 
87.63, 0.041962, , 
87.66, 0.042009, , 
87.70, 0.042063, , 
87.72, 0.042041, , 
87.75, 0.041946, , 
87.78, 0.041936, , 
87.81, 0.042019, , 
87.84, 0.042088, , 
87.87, 0.041990, , 
87.91, 0.041990, , 
87.93, 0.042057, , 
87.96, 0.042171, , 
87.99, 0.042260, , 
88.02, 0.042349, , 
88.05, 0.042510, , 
88.08, 0.042475, , 
88.11, 0.042437, , 
88.14, 0.042498, , 
88.17, 0.042491, , 
88.20, 0.042479, , 
88.23, 0.042517, , 
88.26, 0.042529, , 
88.29, 0.042571, , 
88.32, 0.042552, , 
88.35, 0.042456, , 
88.38, 0.042526, , 
88.41, 0.042596, , 
88.44, 0.042552, , 
88.47, 0.042491, , 
88.50, 0.042491, , 
88.53, 0.042536, , 
88.56, 0.042545, , 
88.59, 0.042488, , 
88.62, 0.042504, , 
88.65, 0.042596, , 
88.68, 0.042545, , 
88.71, 0.042498, , 
88.74, 0.042564, , 
88.77, 0.042659, , 
88.80, 0.042552, , 
88.83, 0.042475, , 
88.86, 0.042520, , 
88.89, 0.042590, , 
88.92, 0.042564, , 
88.95, 0.042523, , 
88.98, 0.042621, , 
89.01, 0.042815, , 
89.04, 0.042900, , 
89.07, 0.042961, , 
89.10, 0.043015, , 
89.13, 0.043053, , 
89.16, 0.043056, , 
89.19, 0.043008, , 
89.22, 0.043088, , 
89.25, 0.043151, , 
89.28, 0.043084, , 
89.31, 0.043075, , 
89.34, 0.043126, , 
89.37, 0.043161, , 
89.40, 0.043053, , 
89.43, 0.043046, , 
89.46, 0.043135, , 
89.49, 0.043116, , 
89.52, 0.043053, , 
89.55, 0.043062, , 
89.58, 0.043100, , 
89.61, 0.043107, , 
89.64, 0.043081, , 
89.67, 0.043097, , 
89.70, 0.043113, , 
89.73, 0.043129, , 
89.76, 0.043084, , 
89.79, 0.043046, , 
89.83, 0.043161, , 
89.85, 0.043167, , 
89.88, 0.043119, , 
89.91, 0.043135, , 
89.94, 0.043107, , 
89.97, 0.043135, , 
90.00, 0.043081, , 
90.04, 0.043043, , 
90.06, 0.043021, , 
90.09, 0.043056, , 
90.12, 0.043062, , 
90.15, 0.043018, , 
90.18, 0.043084, , 
90.21, 0.043097, , 
90.25, 0.043062, , 
90.27, 0.043069, , 
90.30, 0.043122, , 
90.33, 0.043173, , 
90.36, 0.043034, , 
90.39, 0.043056, , 
90.42, 0.043145, , 
90.45, 0.043116, , 
90.48, 0.043030, , 
90.51, 0.043037, , 
90.54, 0.043065, , 
90.57, 0.043145, , 
90.60, 0.043246, , 
90.63, 0.043354, , 
90.66, 0.043535, , 
90.69, 0.043557, , 
90.72, 0.043484, , 
90.75, 0.043497, , 
90.78, 0.043627, , 
90.81, 0.043665, , 
90.84, 0.043579, , 
90.87, 0.043547, , 
90.90, 0.043601, , 
90.93, 0.043579, , 
90.96, 0.043506, , 
90.99, 0.043551, , 
91.02, 0.043678, , 
91.05, 0.043649, , 
91.08, 0.043592, , 
91.11, 0.043601, , 
91.14, 0.043620, , 
91.17, 0.043611, , 
91.20, 0.043506, , 
91.23, 0.043538, , 
91.26, 0.043617, , 
91.29, 0.043541, , 
91.32, 0.043519, , 
91.35, 0.043576, , 
91.38, 0.043605, , 
91.41, 0.043551, , 
91.44, 0.043516, , 
91.47, 0.043557, , 
91.50, 0.043624, , 
91.53, 0.043579, , 
91.56, 0.043547, , 
91.59, 0.043563, , 
91.62, 0.043624, , 
91.65, 0.043541, , 
91.68, 0.043563, , 
91.71, 0.043646, , 
91.74, 0.043659, , 
91.77, 0.043528, , 
91.80, 0.043449, , 
91.83, 0.043547, , 
91.86, 0.043535, , 
91.89, 0.043490, , 
91.92, 0.043478, , 
91.95, 0.043544, , 
91.98, 0.043620, , 
92.01, 0.043582, , 
92.04, 0.043551, , 
92.07, 0.043646, , 
92.10, 0.043662, , 
92.13, 0.043567, , 
92.16, 0.043484, , 
92.19, 0.043611, , 
92.22, 0.043709, , 
92.25, 0.043655, , 
92.28, 0.043547, , 
92.31, 0.043652, , 
92.34, 0.043690, , 
92.37, 0.043547, , 
92.40, 0.043557, , 
92.43, 0.043655, , 
92.46, 0.043643, , 
92.49, 0.043611, , 
92.52, 0.043579, , 
92.55, 0.043649, , 
92.58, 0.043706, , 
92.61, 0.043703, , 
92.64, 0.043674, , 
92.67, 0.043741, , 
92.70, 0.043747, , 
92.73, 0.043690, , 
92.76, 0.043614, , 
92.79, 0.043741, , 
92.82, 0.043836, , 
92.85, 0.043668, , 
92.88, 0.043643, , 
92.91, 0.043693, , 
92.94, 0.043722, , 
92.97, 0.043678, , 
93.00, 0.043611, , 
93.04, 0.043678, , 
93.06, 0.043750, , 
93.09, 0.043659, , 
93.12, 0.043659, , 
93.15, 0.043738, , 
93.18, 0.043700, , 
93.21, 0.043646, , 
93.24, 0.043652, , 
93.27, 0.043747, , 
93.30, 0.043744, , 
93.33, 0.043627, , 
93.36, 0.043611, , 
93.39, 0.043757, , 
93.42, 0.043738, , 
93.45, 0.043684, , 
93.48, 0.043649, , 
93.51, 0.043735, , 
93.54, 0.043744, , 
93.57, 0.043605, , 
93.60, 0.043665, , 
93.63, 0.043671, , 
93.66, 0.043646, , 
93.69, 0.043506, , 
93.72, 0.043509, , 
93.75, 0.043630, , 
93.78, 0.043668, , 
93.82, 0.043614, , 
93.84, 0.043639, , 
93.87, 0.043627, , 
93.90, 0.043497, , 
93.93, 0.043316, , 
93.96, 0.043227, , 
93.99, 0.043224, , 
94.02, 0.043167, , 
94.05, 0.043062, , 
94.09, 0.043075, , 
94.11, 0.043180, , 
94.14, 0.043214, , 
94.17, 0.043145, , 
94.20, 0.043094, , 
94.23, 0.043230, , 
94.26, 0.043107, , 
94.30, 0.042992, , 
94.32, 0.043027, , 
94.35, 0.043135, , 
94.38, 0.043132, , 
94.41, 0.042970, , 
94.44, 0.043116, , 
94.47, 0.043221, , 
94.50, 0.043126, , 
94.53, 0.043084, , 
94.56, 0.043122, , 
94.59, 0.043173, , 
94.62, 0.043110, , 
94.65, 0.043081, , 
94.68, 0.043091, , 
94.71, 0.043135, , 
94.74, 0.043119, , 
94.77, 0.043053, , 
94.80, 0.043062, , 
94.83, 0.043100, , 
94.86, 0.043069, , 
94.89, 0.043021, , 
94.92, 0.043062, , 
94.95, 0.043122, , 
94.98, 0.043059, , 
95.01, 0.042954, , 
95.04, 0.043078, , 
95.07, 0.043157, , 
95.10, 0.043069, , 
95.13, 0.043008, , 
95.16, 0.043043, , 
95.19, 0.043107, , 
95.22, 0.043107, , 
95.25, 0.043078, , 
95.28, 0.043065, , 
95.31, 0.043081, , 
95.34, 0.043049, , 
95.37, 0.042967, , 
95.40, 0.043100, , 
95.43, 0.043065, , 
95.46, 0.043043, , 
95.49, 0.043002, , 
95.52, 0.043062, , 
95.55, 0.043069, , 
95.58, 0.042986, , 
95.61, 0.042942, , 
95.64, 0.043084, , 
95.67, 0.043148, , 
95.70, 0.043141, , 
95.73, 0.043094, , 
95.76, 0.043053, , 
95.79, 0.043122, , 
95.82, 0.043049, , 
95.85, 0.043037, , 
95.88, 0.043100, , 
95.91, 0.043126, , 
95.94, 0.043053, , 
95.97, 0.043053, , 
96.00, 0.043126, , 
