Gradient Profiler Text Data File: 20240419_MV_I_30.csv
Date: 2024-04-19
Time: 14:59:39

User: jared
Experiment name: 
UV Unit: EM-1
Rotor Manufacturer: Beckman
Rotor Model: SW28.1
Speed: 28 rpm
Gradient: sucrose 10.0% to 50.0% w/v
Time: 4
w2t:  x 10^0
Sample Volume: 18 ml
Number of Tubes: 6
Volume per mm: 0.183 ml/mm

Absorbance Units Full Scale (AUFS): 2.00
Event Mark-triggered gradient; (with distance; auto start and stop)
Delay: No Delay
UV Wavelength: 254 nm
Samples / sec: 10 Hz
EM1 Speed: 0.30 mm/sec
Distance: 3.20 mm
Number: 30
Dead Volume: 0.000000 ml; Distance due to Dead Volume: 0.00 mm
Total Distance: 96.00 mm

Data Columns:
Distance(mm), Absorbance, Fraction Number, Fraction Volume(ml)
0.00, 0.096773, 0, 0.000
0.03, 0.096852, , 
0.06, 0.096763, , 
0.09, 0.096750, , 
0.12, 0.096890, , 
0.15, 0.096915, , 
0.18, 0.096836, , 
0.21, 0.096795, , 
0.24, 0.096865, , 
0.27, 0.096896, , 
0.30, 0.096798, , 
0.33, 0.096937, , 
0.36, 0.097191, , 
0.39, 0.097274, , 
0.42, 0.097226, , 
0.45, 0.097388, , 
0.48, 0.097708, , 
0.51, 0.097829, , 
0.54, 0.097981, , 
0.57, 0.098841, , 
0.60, 0.102495, , 
0.63, 0.115167, , 
0.66, 0.139885, , 
0.69, 0.188965, , 
0.72, 0.240769, , 
0.75, 0.298717, , 
0.78, 0.378244, , 
0.81, 0.449967, , 
0.84, 0.535464, , 
0.87, 0.603936, , 
0.90, 0.683904, , 
0.93, 0.771338, , 
0.96, 0.833845, , 
0.99, 0.921444, , 
1.02, 0.990985, , 
1.05, 1.072244, , 
1.08, 1.160151, , 
1.11, 1.234162, , 
1.14, 1.315316, , 
1.17, 1.360100, , 
1.20, 1.413941, , 
1.23, 1.449993, , 
1.26, 1.468434, , 
1.29, 1.480805, , 
1.32, 1.487041, , 
1.35, 1.490768, , 
1.38, 1.494555, , 
1.41, 1.496703, , 
1.44, 1.498999, , 
1.47, 1.501172, , 
1.50, 1.503605, , 
1.53, 1.506012, , 
1.56, 1.508474, , 
1.59, 1.510764, , 
1.62, 1.513723, , 
1.65, 1.516080, , 
1.68, 1.518732, , 
1.71, 1.522386, , 
1.74, 1.525428, , 
1.77, 1.528987, , 
1.80, 1.532136, , 
1.83, 1.534626, , 
1.86, 1.538280, , 
1.89, 1.541113, , 
1.92, 1.543908, , 
1.95, 1.545899, , 
1.98, 1.547644, , 
2.01, 1.549807, , 
2.04, 1.551298, , 
2.07, 1.552522, , 
2.10, 1.553626, , 
2.13, 1.554695, , 
2.16, 1.555961, , 
2.19, 1.556871, , 
2.22, 1.557940, , 
2.25, 1.558676, , 
2.28, 1.558981, , 
2.31, 1.559161, , 
2.34, 1.559117, , 
2.37, 1.559000, , 
2.40, 1.559082, , 
2.43, 1.559793, , 
2.46, 1.561353, , 
2.49, 1.564509, , 
2.52, 1.567602, , 
2.55, 1.570878, , 
2.58, 1.574253, , 
2.61, 1.577248, , 
2.64, 1.580997, , 
2.67, 1.583560, , 
2.70, 1.586018, , 
2.73, 1.588962, , 
2.76, 1.591264, , 
2.79, 1.593986, , 
2.82, 1.596730, , 
2.85, 1.599651, , 
2.88, 1.603245, , 
2.91, 1.606157, , 
2.94, 1.609868, , 
2.97, 1.612304, , 
3.00, 1.613681, , 
3.03, 1.615076, , 
3.06, 1.616085, , 
3.09, 1.617154, , 
3.12, 1.618042, , 
3.15, 1.619047, , 
3.18, 1.620402, , 
3.19, 1.620618, 1, 0.584
3.21, 1.621220, , 
3.24, 1.622330, , 
3.27, 1.623161, , 
3.30, 1.623967, , 
3.33, 1.624782, , 
3.36, 1.625436, , 
3.39, 1.626061, , 
3.42, 1.626476, , 
3.45, 1.626787, , 
3.48, 1.626787, , 
3.51, 1.626613, , 
3.54, 1.626352, , 
3.57, 1.626004, , 
3.60, 1.625404, , 
3.63, 1.624744, , 
3.66, 1.624154, , 
3.69, 1.623409, , 
3.72, 1.622445, , 
3.75, 1.621464, , 
3.78, 1.620174, , 
3.81, 1.618810, , 
3.84, 1.617528, , 
3.87, 1.616018, , 
3.90, 1.614778, , 
3.93, 1.613221, , 
3.96, 1.611660, , 
3.99, 1.609773, , 
4.02, 1.608307, , 
4.05, 1.606265, , 
4.08, 1.603584, , 
4.11, 1.601383, , 
4.14, 1.598772, , 
4.17, 1.596492, , 
4.20, 1.593513, , 
4.23, 1.590091, , 
4.26, 1.587509, , 
4.29, 1.583642, , 
4.32, 1.580388, , 
4.35, 1.576464, , 
4.38, 1.571840, , 
4.41, 1.567370, , 
4.44, 1.561826, , 
4.47, 1.558111, , 
4.50, 1.552383, , 
4.53, 1.545995, , 
4.56, 1.540142, , 
4.59, 1.533120, , 
4.62, 1.526563, , 
4.65, 1.520042, , 
4.68, 1.512137, , 
4.71, 1.504503, , 
4.74, 1.495171, , 
4.77, 1.486648, , 
4.80, 1.478331, , 
4.83, 1.466665, , 
4.86, 1.456730, , 
4.89, 1.446329, , 
4.92, 1.435573, , 
4.95, 1.425379, , 
4.98, 1.411149, , 
5.01, 1.399017, , 
5.04, 1.384572, , 
5.08, 1.371982, , 
5.10, 1.362384, , 
5.13, 1.345557, , 
5.16, 1.332054, , 
5.19, 1.316058, , 
5.22, 1.302016, , 
5.25, 1.287660, , 
5.28, 1.274230, , 
5.31, 1.258544, , 
5.34, 1.241381, , 
5.37, 1.226502, , 
5.40, 1.211689, , 
5.43, 1.195210, , 
5.46, 1.179370, , 
5.49, 1.164236, , 
5.52, 1.149125, , 
5.55, 1.134224, , 
5.58, 1.117704, , 
5.61, 1.101962, , 
5.64, 1.084827, , 
5.67, 1.070255, , 
5.70, 1.058078, , 
5.73, 1.043624, , 
5.76, 1.026755, , 
5.79, 1.010144, , 
5.82, 0.995689, , 
5.85, 0.981317, , 
5.88, 0.965600, , 
5.91, 0.952963, , 
5.94, 0.936469, , 
5.97, 0.922560, , 
6.00, 0.908858, , 
6.03, 0.893756, , 
6.06, 0.879378, , 
6.09, 0.863727, , 
6.12, 0.852619, , 
6.15, 0.839478, , 
6.18, 0.824858, , 
6.21, 0.810953, , 
6.24, 0.796019, , 
6.27, 0.783452, , 
6.30, 0.771050, , 
6.33, 0.759888, , 
6.36, 0.747286, , 
6.39, 0.735971, 2, 0.585
6.40, 0.734106, , 
6.42, 0.722925, , 
6.45, 0.712147, , 
6.48, 0.701594, , 
6.51, 0.690115, , 
6.54, 0.679229, , 
6.57, 0.667775, , 
6.60, 0.659877, , 
6.63, 0.650605, , 
6.66, 0.640426, , 
6.69, 0.630853, , 
6.72, 0.620399, , 
6.75, 0.611371, , 
6.78, 0.602347, , 
6.81, 0.593510, , 
6.84, 0.584737, , 
6.87, 0.574669, , 
6.90, 0.566225, , 
6.93, 0.557893, , 
6.96, 0.550293, , 
6.99, 0.540165, , 
7.02, 0.532083, , 
7.05, 0.523001, , 
7.08, 0.515316, , 
7.12, 0.507989, , 
7.14, 0.499446, , 
7.17, 0.491799, , 
7.20, 0.483244, , 
7.23, 0.476215, , 
7.26, 0.469345, , 
7.29, 0.462918, , 
7.32, 0.456660, , 
7.35, 0.449473, , 
7.38, 0.443443, , 
7.41, 0.437546, , 
7.44, 0.431063, , 
7.47, 0.424849, , 
7.50, 0.418251, , 
7.53, 0.413757, , 
7.56, 0.408418, , 
7.59, 0.402649, , 
7.62, 0.397282, , 
7.65, 0.391559, , 
7.68, 0.386580, , 
7.71, 0.381451, , 
7.74, 0.376309, , 
7.77, 0.371649, , 
7.80, 0.365451, , 
7.83, 0.360398, , 
7.86, 0.355536, , 
7.89, 0.350023, , 
7.92, 0.345627, , 
7.95, 0.340469, , 
7.98, 0.335829, , 
8.01, 0.331420, , 
8.04, 0.326272, , 
8.07, 0.322814, , 
8.10, 0.316860, , 
8.13, 0.312597, , 
8.16, 0.309073, , 
8.19, 0.304214, , 
8.22, 0.300607, , 
8.25, 0.296195, , 
8.28, 0.292646, , 
8.31, 0.289116, , 
8.34, 0.285132, , 
8.37, 0.282708, , 
8.40, 0.278540, , 
8.43, 0.275346, , 
8.46, 0.272396, , 
8.49, 0.268936, , 
8.52, 0.265929, , 
8.55, 0.263588, , 
8.58, 0.260191, , 
8.61, 0.257504, , 
8.64, 0.254291, , 
8.67, 0.251639, , 
8.70, 0.248740, , 
8.73, 0.245999, , 
8.76, 0.243300, , 
8.79, 0.240655, , 
8.82, 0.238073, , 
8.85, 0.235618, , 
8.88, 0.232214, , 
8.91, 0.229543, , 
8.94, 0.226584, , 
8.97, 0.224031, , 
9.00, 0.222134, , 
9.03, 0.218990, , 
9.06, 0.216615, , 
9.09, 0.213833, , 
9.12, 0.211343, , 
9.15, 0.209027, , 
9.19, 0.206502, , 
9.21, 0.204549, , 
9.24, 0.202052, , 
9.27, 0.199959, , 
9.30, 0.198037, , 
9.33, 0.195899, , 
9.36, 0.193837, , 
9.40, 0.191826, , 
9.42, 0.190535, , 
9.45, 0.188955, , 
9.48, 0.187087, , 
9.51, 0.185431, , 
9.54, 0.183804, , 
9.57, 0.182351, , 
9.59, 0.181590, 3, 0.585
9.60, 0.181076, , 
9.63, 0.179512, , 
9.66, 0.178072, , 
9.69, 0.176458, , 
9.72, 0.175034, , 
9.75, 0.173730, , 
9.78, 0.172280, , 
9.81, 0.170936, , 
9.84, 0.169727, , 
9.87, 0.168541, , 
9.90, 0.167326, , 
9.93, 0.166016, , 
9.96, 0.164769, , 
9.99, 0.163370, , 
10.02, 0.162146, , 
10.05, 0.161014, , 
10.08, 0.159672, , 
10.11, 0.158460, , 
10.14, 0.157188, , 
10.17, 0.155989, , 
10.20, 0.154838, , 
10.23, 0.153775, , 
10.26, 0.152922, , 
10.29, 0.151663, , 
10.32, 0.150734, , 
10.35, 0.149925, , 
10.38, 0.148957, , 
10.41, 0.148142, , 
10.44, 0.147238, , 
10.47, 0.146531, , 
10.50, 0.145868, , 
10.53, 0.145005, , 
10.56, 0.144222, , 
10.59, 0.143419, , 
10.62, 0.142750, , 
10.66, 0.141998, , 
10.68, 0.141357, , 
10.71, 0.140682, , 
10.74, 0.139917, , 
10.77, 0.139159, , 
10.80, 0.138493, , 
10.83, 0.137614, , 
10.87, 0.136834, , 
10.89, 0.136032, , 
10.92, 0.135337, , 
10.95, 0.134519, , 
10.98, 0.133586, , 
11.01, 0.132844, , 
11.04, 0.132054, , 
11.07, 0.131585, , 
11.10, 0.130868, , 
11.13, 0.130018, , 
11.16, 0.129418, , 
11.19, 0.128651, , 
11.22, 0.127927, , 
11.25, 0.127249, , 
11.28, 0.126678, , 
11.31, 0.126078, , 
11.34, 0.125406, , 
11.37, 0.124641, , 
11.40, 0.123978, , 
11.43, 0.123372, , 
11.46, 0.122909, , 
11.49, 0.122284, , 
11.52, 0.121872, , 
11.55, 0.121298, , 
11.58, 0.120648, , 
11.61, 0.120013, , 
11.64, 0.119610, , 
11.67, 0.119166, , 
11.70, 0.118548, , 
11.73, 0.117917, , 
11.76, 0.117384, , 
11.79, 0.116851, , 
11.82, 0.116264, , 
11.85, 0.115531, , 
11.88, 0.115163, , 
11.91, 0.114456, , 
11.94, 0.113742, , 
11.97, 0.113219, , 
12.00, 0.112673, , 
12.03, 0.112106, , 
12.06, 0.111697, , 
12.09, 0.111173, , 
12.12, 0.110713, , 
12.15, 0.110301, , 
12.18, 0.109708, , 
12.21, 0.109359, , 
12.24, 0.108810, , 
12.27, 0.108366, , 
12.30, 0.107966, , 
12.33, 0.107548, , 
12.36, 0.107335, , 
12.39, 0.106853, , 
12.42, 0.106415, , 
12.45, 0.106200, , 
12.48, 0.106028, , 
12.51, 0.105733, , 
12.54, 0.105432, , 
12.57, 0.105219, , 
12.60, 0.105061, , 
12.63, 0.104728, , 
12.66, 0.104477, , 
12.69, 0.104373, , 
12.72, 0.104179, , 
12.75, 0.103836, , 
12.78, 0.103583, 4, 0.585
12.79, 0.103554, , 
12.81, 0.103434, , 
12.84, 0.103291, , 
12.87, 0.102917, , 
12.90, 0.102539, , 
12.93, 0.102346, , 
12.96, 0.102193, , 
12.99, 0.102057, , 
13.02, 0.101841, , 
13.05, 0.101768, , 
13.08, 0.101686, , 
13.11, 0.101565, , 
13.14, 0.101508, , 
13.17, 0.101502, , 
13.20, 0.101461, , 
13.23, 0.101270, , 
13.26, 0.101140, , 
13.29, 0.101223, , 
13.32, 0.101270, , 
13.35, 0.101280, , 
13.38, 0.101340, , 
13.41, 0.101407, , 
13.44, 0.101458, , 
13.47, 0.101581, , 
13.51, 0.101737, , 
13.53, 0.101797, , 
13.56, 0.101892, , 
13.59, 0.101867, , 
13.62, 0.101978, , 
13.65, 0.102231, , 
13.68, 0.102292, , 
13.71, 0.102273, , 
13.74, 0.102381, , 
13.77, 0.102580, , 
13.80, 0.102720, , 
13.83, 0.102774, , 
13.86, 0.102894, , 
13.89, 0.102891, , 
13.92, 0.102913, , 
13.95, 0.103009, , 
13.98, 0.103170, , 
14.01, 0.103316, , 
14.04, 0.103323, , 
14.07, 0.103304, , 
14.10, 0.103500, , 
14.13, 0.103732, , 
14.16, 0.103827, , 
14.19, 0.103805, , 
14.22, 0.103852, , 
14.25, 0.103900, , 
14.28, 0.103875, , 
14.31, 0.103992, , 
14.34, 0.104157, , 
14.37, 0.104271, , 
14.40, 0.104293, , 
14.43, 0.104303, , 
14.46, 0.104382, , 
14.49, 0.104461, , 
14.52, 0.104407, , 
14.55, 0.104328, , 
14.58, 0.104366, , 
14.61, 0.104423, , 
14.64, 0.104357, , 
14.67, 0.104312, , 
14.70, 0.104398, , 
14.73, 0.104347, , 
14.76, 0.104157, , 
14.79, 0.103986, , 
14.82, 0.103957, , 
14.85, 0.103744, , 
14.88, 0.103586, , 
14.91, 0.103357, , 
14.94, 0.103291, , 
14.97, 0.103177, , 
15.00, 0.102885, , 
15.03, 0.102698, , 
15.06, 0.102466, , 
15.09, 0.102231, , 
15.12, 0.102000, , 
15.15, 0.101724, , 
15.18, 0.101489, , 
15.21, 0.101255, , 
15.24, 0.100906, , 
15.27, 0.100655, , 
15.30, 0.100481, , 
15.33, 0.100214, , 
15.36, 0.099929, , 
15.39, 0.099662, , 
15.42, 0.099446, , 
15.45, 0.099231, , 
15.48, 0.098841, , 
15.51, 0.098470, , 
15.54, 0.098194, , 
15.57, 0.097861, , 
15.60, 0.097426, , 
15.63, 0.096934, , 
15.66, 0.096769, , 
15.69, 0.096306, , 
15.72, 0.095697, , 
15.75, 0.095279, , 
15.78, 0.094822, , 
15.81, 0.094540, , 
15.84, 0.094080, , 
15.87, 0.093747, , 
15.90, 0.093388, , 
15.93, 0.092954, , 
15.96, 0.092560, , 
15.99, 0.092303, 5, 0.587
15.99, 0.092237, , 
16.02, 0.092005, , 
16.05, 0.091590, , 
16.08, 0.091171, , 
16.11, 0.090676, , 
16.14, 0.090464, , 
16.17, 0.090023, , 
16.20, 0.089553, , 
16.23, 0.089306, , 
16.26, 0.088998, , 
16.29, 0.088583, , 
16.32, 0.088139, , 
16.35, 0.087660, , 
16.38, 0.087419, , 
16.41, 0.087022, , 
16.44, 0.086619, , 
16.47, 0.086356, , 
16.50, 0.085867, , 
16.53, 0.085423, , 
16.56, 0.085033, , 
16.59, 0.084719, , 
16.62, 0.084500, , 
16.65, 0.084006, , 
16.68, 0.083596, , 
16.71, 0.083330, , 
16.74, 0.083089, , 
16.77, 0.082822, , 
16.80, 0.082410, , 
16.83, 0.082153, , 
16.86, 0.082010, , 
16.89, 0.081655, , 
16.92, 0.081265, , 
16.95, 0.081033, , 
16.98, 0.080764, , 
17.02, 0.080513, , 
17.04, 0.080266, , 
17.07, 0.080041, , 
17.10, 0.079828, , 
17.13, 0.079543, , 
17.16, 0.079292, , 
17.19, 0.079111, , 
17.23, 0.078930, , 
17.25, 0.078702, , 
17.28, 0.078439, , 
17.31, 0.078407, , 
17.34, 0.078239, , 
17.37, 0.077909, , 
17.40, 0.077636, , 
17.43, 0.077544, , 
17.46, 0.077284, , 
17.49, 0.077072, , 
17.52, 0.076812, , 
17.55, 0.076545, , 
17.58, 0.076377, , 
17.61, 0.076177, , 
17.64, 0.075984, , 
17.67, 0.075876, , 
17.70, 0.075736, , 
17.73, 0.075530, , 
17.76, 0.075257, , 
17.79, 0.075051, , 
17.82, 0.074845, , 
17.85, 0.074671, , 
17.88, 0.074632, , 
17.91, 0.074534, , 
17.94, 0.074376, , 
17.97, 0.074150, , 
18.00, 0.074055, , 
18.03, 0.074065, , 
18.06, 0.073938, , 
18.09, 0.073786, , 
18.12, 0.073706, , 
18.15, 0.073665, , 
18.18, 0.073636, , 
18.21, 0.073472, , 
18.24, 0.073383, , 
18.27, 0.073332, , 
18.30, 0.073205, , 
18.33, 0.073046, , 
18.36, 0.072863, , 
18.39, 0.072837, , 
18.42, 0.072694, , 
18.45, 0.072384, , 
18.48, 0.072333, , 
18.51, 0.072276, , 
18.54, 0.072025, , 
18.57, 0.071771, , 
18.60, 0.071676, , 
18.63, 0.071581, , 
18.66, 0.071407, , 
18.69, 0.071232, , 
18.72, 0.071207, , 
18.75, 0.071178, , 
18.78, 0.070985, , 
18.81, 0.070731, , 
18.84, 0.070645, , 
18.87, 0.070595, , 
18.90, 0.070357, , 
18.93, 0.070201, , 
18.96, 0.070170, , 
18.99, 0.070097, , 
19.02, 0.069922, , 
19.05, 0.069700, , 
19.08, 0.069627, , 
19.11, 0.069561, , 
19.14, 0.069326, , 
19.17, 0.069126, , 
19.19, 0.068999, 6, 0.586
19.20, 0.068929, , 
19.23, 0.068872, , 
19.26, 0.068710, , 
19.29, 0.068526, , 
19.32, 0.068428, , 
19.35, 0.068295, , 
19.38, 0.068127, , 
19.41, 0.067956, , 
19.44, 0.067879, , 
19.47, 0.067791, , 
19.51, 0.067683, , 
19.53, 0.067594, , 
19.56, 0.067521, , 
19.59, 0.067378, , 
19.62, 0.067207, , 
19.65, 0.067153, , 
19.68, 0.067188, , 
19.72, 0.067163, , 
19.74, 0.067042, , 
19.77, 0.066893, , 
19.80, 0.066776, , 
19.83, 0.066750, , 
19.86, 0.066639, , 
19.89, 0.066576, , 
19.93, 0.066636, , 
19.95, 0.066661, , 
19.98, 0.066563, , 
20.01, 0.066338, , 
20.04, 0.066274, , 
20.07, 0.066240, , 
20.10, 0.066170, , 
20.13, 0.066144, , 
20.16, 0.066160, , 
20.19, 0.066214, , 
20.22, 0.066163, , 
20.25, 0.066157, , 
20.28, 0.066192, , 
20.31, 0.066189, , 
20.34, 0.066198, , 
20.37, 0.066173, , 
20.40, 0.066214, , 
20.43, 0.066214, , 
20.46, 0.066113, , 
20.49, 0.066113, , 
20.52, 0.066198, , 
20.55, 0.066227, , 
20.58, 0.066287, , 
20.61, 0.066439, , 
20.64, 0.066601, , 
20.67, 0.066750, , 
20.70, 0.066855, , 
20.73, 0.066956, , 
20.76, 0.067201, , 
20.79, 0.067375, , 
20.82, 0.067432, , 
20.85, 0.067781, , 
20.88, 0.068270, , 
20.91, 0.068637, , 
20.94, 0.068850, , 
20.97, 0.069120, , 
21.00, 0.069576, , 
21.03, 0.069928, , 
21.06, 0.070392, , 
21.10, 0.070737, , 
21.12, 0.071166, , 
21.15, 0.071784, , 
21.18, 0.072263, , 
21.21, 0.072929, , 
21.24, 0.073513, , 
21.27, 0.074027, , 
21.30, 0.074506, , 
21.33, 0.075118, , 
21.36, 0.075920, , 
21.39, 0.076577, , 
21.42, 0.077103, , 
21.45, 0.077890, , 
21.48, 0.078762, , 
21.51, 0.079311, , 
21.54, 0.080259, , 
21.57, 0.081011, , 
21.60, 0.081715, , 
21.63, 0.082581, , 
21.66, 0.083146, , 
21.69, 0.084012, , 
21.72, 0.084795, , 
21.75, 0.085496, , 
21.78, 0.086204, , 
21.81, 0.086940, , 
21.84, 0.087802, , 
21.87, 0.088592, , 
21.90, 0.089322, , 
21.93, 0.090029, , 
21.96, 0.090641, , 
21.99, 0.091253, , 
22.02, 0.091783, , 
22.05, 0.092535, , 
22.08, 0.093160, , 
22.11, 0.093553, , 
22.14, 0.093962, , 
22.17, 0.094413, , 
22.20, 0.095034, , 
22.23, 0.095434, , 
22.26, 0.095729, , 
22.29, 0.096141, , 
22.32, 0.096538, , 
22.35, 0.096868, , 
22.38, 0.097017, , 
22.39, 0.097112, 7, 0.586
22.41, 0.097264, , 
22.44, 0.097572, , 
22.47, 0.097711, , 
22.50, 0.097832, , 
22.53, 0.098054, , 
22.56, 0.098222, , 
22.59, 0.098244, , 
22.62, 0.098282, , 
22.65, 0.098533, , 
22.68, 0.098676, , 
22.71, 0.098704, , 
22.74, 0.098768, , 
22.77, 0.098869, , 
22.80, 0.098920, , 
22.83, 0.098733, , 
22.86, 0.098498, , 
22.89, 0.098438, , 
22.92, 0.098390, , 
22.95, 0.098273, , 
22.98, 0.098184, , 
23.01, 0.098200, , 
23.04, 0.098057, , 
23.07, 0.097899, , 
23.10, 0.097654, , 
23.13, 0.097616, , 
23.16, 0.097394, , 
23.19, 0.097049, , 
23.22, 0.096912, , 
23.25, 0.096788, , 
23.28, 0.096687, , 
23.31, 0.096376, , 
23.34, 0.096157, , 
23.37, 0.096014, , 
23.41, 0.095751, , 
23.43, 0.095548, , 
23.46, 0.095336, , 
23.49, 0.095091, , 
23.52, 0.094854, , 
23.55, 0.094587, , 
23.58, 0.094337, , 
23.61, 0.094200, , 
23.64, 0.093969, , 
23.67, 0.093727, , 
23.70, 0.093496, , 
23.73, 0.093296, , 
23.76, 0.093115, , 
23.79, 0.092725, , 
23.82, 0.092446, , 
23.85, 0.092227, , 
23.88, 0.091970, , 
23.91, 0.091602, , 
23.94, 0.091301, , 
23.97, 0.091082, , 
24.00, 0.090746, , 
24.03, 0.090318, , 
24.06, 0.089899, , 
24.09, 0.089737, , 
24.12, 0.089379, , 
24.15, 0.088928, , 
24.19, 0.088608, , 
24.21, 0.088265, , 
24.24, 0.087951, , 
24.27, 0.087590, , 
24.30, 0.087235, , 
24.33, 0.086901, , 
24.36, 0.086299, , 
24.40, 0.085931, , 
24.42, 0.085703, , 
24.45, 0.085401, , 
24.48, 0.085084, , 
24.51, 0.084504, , 
24.54, 0.084205, , 
24.57, 0.083986, , 
24.60, 0.083660, , 
24.63, 0.083263, , 
24.66, 0.082902, , 
24.69, 0.082680, , 
24.72, 0.082321, , 
24.75, 0.081909, , 
24.78, 0.081674, , 
24.81, 0.081455, , 
24.84, 0.081144, , 
24.87, 0.080776, , 
24.90, 0.080507, , 
24.93, 0.080294, , 
24.96, 0.079958, , 
24.99, 0.079638, , 
25.02, 0.079451, , 
25.05, 0.079248, , 
25.08, 0.079029, , 
25.11, 0.078562, , 
25.14, 0.078369, , 
25.17, 0.078214, , 
25.20, 0.077928, , 
25.23, 0.077481, , 
25.26, 0.077344, , 
25.29, 0.077160, , 
25.32, 0.076929, , 
25.36, 0.076739, , 
25.38, 0.076577, , 
25.41, 0.076399, , 
25.44, 0.076177, , 
25.47, 0.075930, , 
25.50, 0.075860, , 
25.53, 0.075787, , 
25.56, 0.075654, , 
25.59, 0.075521, 8, 0.585
25.60, 0.075492, , 
25.62, 0.075406, , 
25.65, 0.075340, , 
25.68, 0.075143, , 
25.71, 0.075032, , 
25.74, 0.074972, , 
25.77, 0.075023, , 
25.80, 0.074997, , 
25.83, 0.074924, , 
25.86, 0.075038, , 
25.89, 0.075089, , 
25.92, 0.074940, , 
25.95, 0.074927, , 
25.98, 0.074966, , 
26.01, 0.075023, , 
26.04, 0.074946, , 
26.07, 0.074956, , 
26.10, 0.075115, , 
26.13, 0.075248, , 
26.16, 0.075241, , 
26.19, 0.075330, , 
26.22, 0.075448, , 
26.25, 0.075625, , 
26.28, 0.075749, , 
26.31, 0.075911, , 
26.34, 0.076111, , 
26.37, 0.076272, , 
26.40, 0.076479, , 
26.43, 0.076742, , 
26.46, 0.077100, , 
26.49, 0.077468, , 
26.52, 0.077693, , 
26.55, 0.077969, , 
26.58, 0.078432, , 
26.61, 0.079035, , 
26.64, 0.079492, , 
26.67, 0.079942, , 
26.70, 0.080729, , 
26.73, 0.081274, , 
26.76, 0.082033, , 
26.79, 0.082791, , 
26.82, 0.083733, , 
26.85, 0.084932, , 
26.88, 0.085969, , 
26.91, 0.087120, , 
26.94, 0.088735, , 
26.97, 0.090137, , 
27.00, 0.091913, , 
27.03, 0.093607, , 
27.06, 0.095792, , 
27.09, 0.098165, , 
27.12, 0.100043, , 
27.15, 0.103043, , 
27.18, 0.105584, , 
27.21, 0.108810, , 
27.24, 0.112537, , 
27.27, 0.116118, , 
27.30, 0.120626, , 
27.33, 0.123645, , 
27.36, 0.128279, , 
27.39, 0.133615, , 
27.42, 0.138490, , 
27.45, 0.144472, , 
27.48, 0.149830, , 
27.51, 0.155139, , 
27.54, 0.161639, , 
27.57, 0.167799, , 
27.60, 0.175164, , 
27.63, 0.181761, , 
27.66, 0.188166, , 
27.69, 0.196714, , 
27.72, 0.203724, , 
27.75, 0.210915, , 
27.78, 0.218312, , 
27.81, 0.225182, , 
27.84, 0.234365, , 
27.87, 0.241895, , 
27.90, 0.249482, , 
27.93, 0.258208, , 
27.96, 0.265053, , 
27.99, 0.274163, , 
28.02, 0.280199, , 
28.05, 0.287190, , 
28.08, 0.295152, , 
28.11, 0.301454, , 
28.14, 0.309498, , 
28.17, 0.315646, , 
28.20, 0.321644, , 
28.23, 0.327461, , 
28.26, 0.331848, , 
28.29, 0.339007, , 
28.32, 0.343873, , 
28.35, 0.348526, , 
28.38, 0.352846, , 
28.41, 0.357525, , 
28.44, 0.360966, , 
28.47, 0.364649, , 
28.50, 0.368303, , 
28.54, 0.370939, , 
28.56, 0.373432, , 
28.59, 0.375570, , 
28.62, 0.377784, , 
28.65, 0.379617, , 
28.68, 0.381006, , 
28.71, 0.382494, , 
28.74, 0.383233, , 
28.77, 0.383820, , 
28.79, 0.384296, 9, 0.585
28.80, 0.384569, , 
28.83, 0.384984, , 
28.86, 0.385146, , 
28.89, 0.385025, , 
28.92, 0.384772, , 
28.96, 0.384312, , 
28.98, 0.383868, , 
29.01, 0.382894, , 
29.04, 0.382050, , 
29.07, 0.381225, , 
29.10, 0.379893, , 
29.13, 0.378612, , 
29.16, 0.377260, , 
29.19, 0.375941, , 
29.22, 0.374625, , 
29.25, 0.372683, , 
29.28, 0.371075, , 
29.31, 0.369280, , 
29.34, 0.367596, , 
29.37, 0.366194, , 
29.40, 0.363786, , 
29.43, 0.361918, , 
29.46, 0.359501, , 
29.49, 0.357385, , 
29.52, 0.355526, , 
29.55, 0.352948, , 
29.58, 0.351108, , 
29.61, 0.348412, , 
29.64, 0.346118, , 
29.67, 0.344133, , 
29.70, 0.341367, , 
29.73, 0.338801, , 
29.76, 0.335892, , 
29.79, 0.333875, , 
29.82, 0.331483, , 
29.85, 0.328187, , 
29.88, 0.325599, , 
29.91, 0.322525, , 
29.94, 0.319737, , 
29.97, 0.316921, , 
30.00, 0.314412, , 
30.03, 0.311509, , 
30.06, 0.308172, , 
30.09, 0.305235, , 
30.12, 0.302314, , 
30.15, 0.299082, , 
30.18, 0.296395, , 
30.21, 0.293144, , 
30.24, 0.290191, , 
30.27, 0.287200, , 
30.30, 0.283663, , 
30.33, 0.280827, , 
30.36, 0.277744, , 
30.39, 0.274870, , 
30.42, 0.271340, , 
30.45, 0.268184, , 
30.48, 0.264828, , 
30.51, 0.262138, , 
30.54, 0.259467, , 
30.57, 0.256124, , 
30.60, 0.253298, , 
30.63, 0.250021, , 
30.66, 0.248299, , 
30.69, 0.244309, , 
30.72, 0.241562, , 
30.75, 0.238377, , 
30.78, 0.235497, , 
30.81, 0.232655, , 
30.84, 0.230175, , 
30.87, 0.227390, , 
30.90, 0.224402, , 
30.93, 0.221788, , 
30.96, 0.218955, , 
30.99, 0.216703, , 
31.02, 0.214010, , 
31.05, 0.211574, , 
31.08, 0.209265, , 
31.11, 0.207032, , 
31.14, 0.204181, , 
31.17, 0.201982, , 
31.20, 0.199239, , 
31.23, 0.197018, , 
31.26, 0.195118, , 
31.29, 0.192533, , 
31.32, 0.190538, , 
31.35, 0.187924, , 
31.38, 0.185698, , 
31.41, 0.183554, , 
31.44, 0.181270, , 
31.47, 0.180064, , 
31.50, 0.177206, , 
31.53, 0.175180, , 
31.56, 0.173235, , 
31.59, 0.170980, , 
31.62, 0.169020, , 
31.65, 0.166904, , 
31.68, 0.165366, , 
31.71, 0.163605, , 
31.74, 0.161521, , 
31.77, 0.159761, , 
31.80, 0.157775, , 
31.83, 0.156186, , 
31.86, 0.154435, , 
31.89, 0.152798, , 
31.92, 0.151203, , 
31.95, 0.149382, , 
31.98, 0.147822, , 
31.99, 0.147530, 10, 0.585
32.01, 0.146147, , 
32.04, 0.144612, , 
32.07, 0.143153, , 
32.10, 0.141500, , 
32.13, 0.140187, , 
32.16, 0.138759, , 
32.19, 0.137110, , 
32.22, 0.135546, , 
32.25, 0.133875, , 
32.28, 0.132647, , 
32.31, 0.131442, , 
32.34, 0.129802, , 
32.37, 0.128473, , 
32.40, 0.127157, , 
32.43, 0.126043, , 
32.46, 0.124686, , 
32.49, 0.123315, , 
32.52, 0.122475, , 
32.55, 0.121136, , 
32.58, 0.120099, , 
32.61, 0.118878, , 
32.64, 0.117660, , 
32.67, 0.116584, , 
32.70, 0.115392, , 
32.73, 0.114380, , 
32.76, 0.113333, , 
32.79, 0.112122, , 
32.82, 0.111049, , 
32.85, 0.109892, , 
32.88, 0.108988, , 
32.92, 0.107900, , 
32.94, 0.106916, , 
32.97, 0.106035, , 
33.00, 0.105096, , 
33.03, 0.104290, , 
33.06, 0.103272, , 
33.09, 0.102235, , 
33.12, 0.101645, , 
33.15, 0.100693, , 
33.18, 0.099951, , 
33.21, 0.099148, , 
33.24, 0.098359, , 
33.27, 0.097623, , 
33.30, 0.096646, , 
33.33, 0.096106, , 
33.36, 0.095459, , 
33.39, 0.094606, , 
33.42, 0.093829, , 
33.45, 0.093233, , 
33.48, 0.092554, , 
33.51, 0.091913, , 
33.54, 0.091025, , 
33.57, 0.090454, , 
33.60, 0.089912, , 
33.63, 0.089144, , 
33.66, 0.088411, , 
33.69, 0.087568, , 
33.72, 0.087016, , 
33.75, 0.086410, , 
33.78, 0.085617, , 
33.81, 0.085230, , 
33.84, 0.084592, , 
33.87, 0.084002, , 
33.90, 0.083425, , 
33.93, 0.082800, , 
33.96, 0.082277, , 
33.99, 0.081750, , 
34.02, 0.081106, , 
34.05, 0.080656, , 
34.08, 0.080234, , 
34.11, 0.079800, , 
34.14, 0.079413, , 
34.17, 0.078899, , 
34.20, 0.078398, , 
34.23, 0.077960, , 
34.26, 0.077471, , 
34.29, 0.077008, , 
34.32, 0.076596, , 
34.35, 0.076069, , 
34.38, 0.075635, , 
34.41, 0.075260, , 
34.44, 0.075010, , 
34.47, 0.074731, , 
34.50, 0.074157, , 
34.53, 0.073849, , 
34.56, 0.073567, , 
34.59, 0.073202, , 
34.62, 0.072964, , 
34.65, 0.072679, , 
34.68, 0.072460, , 
34.71, 0.072089, , 
34.74, 0.071730, , 
34.77, 0.071499, , 
34.80, 0.071232, , 
34.83, 0.070839, , 
34.86, 0.070525, , 
34.89, 0.070338, , 
34.92, 0.070024, , 
34.95, 0.069611, , 
34.98, 0.069231, , 
35.01, 0.068993, , 
35.04, 0.068733, , 
35.07, 0.068393, , 
35.10, 0.068108, , 
35.13, 0.067803, , 
35.16, 0.067537, , 
35.19, 0.067264, 11, 0.585
35.19, 0.067204, , 
35.22, 0.066944, , 
35.25, 0.066823, , 
35.28, 0.066566, , 
35.31, 0.066220, , 
35.34, 0.065957, , 
35.37, 0.065853, , 
35.40, 0.065637, , 
35.43, 0.065313, , 
35.46, 0.065091, , 
35.49, 0.064964, , 
35.52, 0.064726, , 
35.55, 0.064498, , 
35.58, 0.064298, , 
35.61, 0.064171, , 
35.64, 0.063972, , 
35.67, 0.063673, , 
35.70, 0.063493, , 
35.73, 0.063293, , 
35.76, 0.063068, , 
35.79, 0.062804, , 
35.82, 0.062646, , 
35.85, 0.062636, , 
35.88, 0.062541, , 
35.91, 0.062309, , 
35.94, 0.062198, , 
35.97, 0.062294, , 
36.00, 0.062240, , 
36.04, 0.062075, , 
36.06, 0.061951, , 
36.09, 0.061891, , 
36.12, 0.061713, , 
36.15, 0.061659, , 
36.18, 0.061643, , 
36.21, 0.061526, , 
36.24, 0.061421, , 
36.27, 0.061237, , 
36.30, 0.061177, , 
36.33, 0.061247, , 
36.36, 0.061222, , 
36.39, 0.061171, , 
36.42, 0.061098, , 
36.45, 0.061012, , 
36.48, 0.060819, , 
36.51, 0.060660, , 
36.54, 0.060641, , 
36.57, 0.060676, , 
36.60, 0.060651, , 
36.63, 0.060609, , 
36.66, 0.060641, , 
36.69, 0.060689, , 
36.72, 0.060641, , 
36.75, 0.060644, , 
36.78, 0.060708, , 
36.81, 0.060743, , 
36.84, 0.060647, , 
36.87, 0.060568, , 
36.90, 0.060749, , 
36.93, 0.060857, , 
36.96, 0.060939, , 
36.99, 0.060999, , 
37.02, 0.061095, , 
37.05, 0.061190, , 
37.08, 0.061149, , 
37.11, 0.061174, , 
37.14, 0.061447, , 
37.17, 0.061558, , 
37.20, 0.061596, , 
37.23, 0.061640, , 
37.26, 0.061840, , 
37.29, 0.062011, , 
37.33, 0.062116, , 
37.35, 0.062205, , 
37.38, 0.062395, , 
37.41, 0.062589, , 
37.44, 0.062677, , 
37.47, 0.062804, , 
37.50, 0.062976, , 
37.53, 0.063172, , 
37.56, 0.063296, , 
37.59, 0.063394, , 
37.62, 0.063556, , 
37.65, 0.063822, , 
37.68, 0.063889, , 
37.71, 0.064022, , 
37.74, 0.064387, , 
37.77, 0.064549, , 
37.80, 0.064654, , 
37.83, 0.064752, , 
37.86, 0.064971, , 
37.89, 0.065250, , 
37.92, 0.065339, , 
37.95, 0.065491, , 
37.98, 0.065780, , 
38.01, 0.065979, , 
38.04, 0.066103, , 
38.07, 0.066240, , 
38.10, 0.066481, , 
38.13, 0.066626, , 
38.16, 0.066734, , 
38.19, 0.066975, , 
38.22, 0.067197, , 
38.25, 0.067416, , 
38.28, 0.067515, , 
38.31, 0.067689, , 
38.34, 0.067917, , 
38.37, 0.068041, , 
38.39, 0.068073, 12, 0.586
38.40, 0.068120, , 
38.43, 0.068244, , 
38.46, 0.068542, , 
38.49, 0.068691, , 
38.52, 0.068742, , 
38.55, 0.068888, , 
38.58, 0.069037, , 
38.61, 0.069161, , 
38.64, 0.069266, , 
38.67, 0.069411, , 
38.70, 0.069510, , 
38.73, 0.069500, , 
38.76, 0.069453, , 
38.79, 0.069567, , 
38.82, 0.069694, , 
38.85, 0.069757, , 
38.88, 0.069751, , 
38.91, 0.069932, , 
38.94, 0.070093, , 
38.97, 0.070125, , 
39.00, 0.070084, , 
39.03, 0.070059, , 
39.06, 0.070125, , 
39.09, 0.070163, , 
39.12, 0.070059, , 
39.15, 0.070147, , 
39.18, 0.070068, , 
39.21, 0.069868, , 
39.24, 0.069716, , 
39.27, 0.069672, , 
39.30, 0.069649, , 
39.33, 0.069570, , 
39.36, 0.069408, , 
39.39, 0.069294, , 
39.42, 0.069243, , 
39.45, 0.069104, , 
39.48, 0.068999, , 
39.51, 0.068939, , 
39.54, 0.068802, , 
39.57, 0.068555, , 
39.60, 0.068327, , 
39.63, 0.068225, , 
39.66, 0.068019, , 
39.69, 0.067832, , 
39.72, 0.067642, , 
39.75, 0.067537, , 
39.78, 0.067404, , 
39.81, 0.067128, , 
39.84, 0.066950, , 
39.87, 0.066791, , 
39.90, 0.066636, , 
39.93, 0.066398, , 
39.96, 0.066100, , 
39.99, 0.065935, , 
40.02, 0.065656, , 
40.05, 0.065304, , 
40.08, 0.065053, , 
40.11, 0.064895, , 
40.14, 0.064615, , 
40.17, 0.064308, , 
40.20, 0.064111, , 
40.23, 0.064013, , 
40.26, 0.063750, , 
40.29, 0.063436, , 
40.32, 0.063245, , 
40.35, 0.063023, , 
40.38, 0.062785, , 
40.41, 0.062544, , 
40.44, 0.062300, , 
40.47, 0.062151, , 
40.50, 0.061967, , 
40.53, 0.061745, , 
40.56, 0.061624, , 
40.59, 0.061352, , 
40.62, 0.061206, , 
40.65, 0.061009, , 
40.68, 0.060787, , 
40.71, 0.060622, , 
40.74, 0.060384, , 
40.77, 0.060187, , 
40.80, 0.060067, , 
40.83, 0.059981, , 
40.86, 0.059804, , 
40.89, 0.059572, , 
40.92, 0.059461, , 
40.95, 0.059290, , 
40.98, 0.059084, , 
41.01, 0.058871, , 
41.04, 0.058665, , 
41.07, 0.058573, , 
41.10, 0.058386, , 
41.13, 0.058218, , 
41.16, 0.058192, , 
41.19, 0.058186, , 
41.22, 0.057961, , 
41.25, 0.057767, , 
41.28, 0.057678, , 
41.31, 0.057529, , 
41.34, 0.057307, , 
41.37, 0.057238, , 
41.40, 0.057171, , 
41.43, 0.057088, , 
41.46, 0.056866, , 
41.49, 0.056698, , 
41.52, 0.056730, , 
41.55, 0.056600, , 
41.58, 0.056454, , 
41.59, 0.056391, 13, 0.586
41.61, 0.056273, , 
41.64, 0.056308, , 
41.67, 0.056343, , 
41.70, 0.056188, , 
41.73, 0.056080, , 
41.76, 0.055988, , 
41.79, 0.055921, , 
41.82, 0.055813, , 
41.85, 0.055759, , 
41.88, 0.055772, , 
41.91, 0.055763, , 
41.94, 0.055629, , 
41.97, 0.055525, , 
42.00, 0.055496, , 
42.03, 0.055369, , 
42.06, 0.055233, , 
42.09, 0.055208, , 
42.12, 0.055303, , 
42.15, 0.055277, , 
42.18, 0.055163, , 
42.21, 0.055179, , 
42.24, 0.055147, , 
42.27, 0.054985, , 
42.30, 0.054824, , 
42.34, 0.054773, , 
42.36, 0.054830, , 
42.39, 0.054821, , 
42.42, 0.054744, , 
42.45, 0.054792, , 
42.48, 0.054843, , 
42.51, 0.054710, , 
42.54, 0.054605, , 
42.57, 0.054434, , 
42.60, 0.054380, , 
42.63, 0.054300, , 
42.66, 0.054154, , 
42.69, 0.054196, , 
42.72, 0.054215, , 
42.75, 0.054231, , 
42.78, 0.054269, , 
42.81, 0.054405, , 
42.84, 0.054592, , 
42.87, 0.054700, , 
42.90, 0.054729, , 
42.93, 0.054757, , 
42.96, 0.054760, , 
42.99, 0.054697, , 
43.02, 0.054703, , 
43.05, 0.054767, , 
43.08, 0.054767, , 
43.11, 0.054706, , 
43.14, 0.054652, , 
43.17, 0.054741, , 
43.20, 0.054748, , 
43.23, 0.054719, , 
43.26, 0.054776, , 
43.29, 0.054947, , 
43.33, 0.055138, , 
43.35, 0.055106, , 
43.38, 0.055109, , 
43.41, 0.055255, , 
43.44, 0.055414, , 
43.47, 0.055398, , 
43.50, 0.055503, , 
43.53, 0.055620, , 
43.56, 0.055794, , 
43.59, 0.055836, , 
43.62, 0.055959, , 
43.65, 0.056172, , 
43.68, 0.056353, , 
43.71, 0.056476, , 
43.75, 0.056606, , 
43.77, 0.056844, , 
43.80, 0.056977, , 
43.83, 0.057073, , 
43.86, 0.057212, , 
43.89, 0.057399, , 
43.92, 0.057542, , 
43.96, 0.057618, , 
43.98, 0.057802, , 
44.01, 0.058002, , 
44.04, 0.058230, , 
44.07, 0.058437, , 
44.10, 0.058703, , 
44.13, 0.058982, , 
44.16, 0.059138, , 
44.19, 0.059299, , 
44.22, 0.059585, , 
44.25, 0.059918, , 
44.28, 0.060102, , 
44.31, 0.060235, , 
44.34, 0.060498, , 
44.37, 0.060793, , 
44.40, 0.060999, , 
44.43, 0.061110, , 
44.46, 0.061320, , 
44.49, 0.061640, , 
44.52, 0.061865, , 
44.55, 0.062005, , 
44.58, 0.062370, , 
44.61, 0.062715, , 
44.64, 0.062909, , 
44.67, 0.063175, , 
44.70, 0.063521, , 
44.73, 0.063873, , 
44.76, 0.064152, , 
44.79, 0.064359, 14, 0.587
44.80, 0.064390, , 
44.82, 0.064523, , 
44.85, 0.065009, , 
44.88, 0.065266, , 
44.91, 0.065481, , 
44.94, 0.065751, , 
44.98, 0.066014, , 
45.00, 0.066179, , 
45.03, 0.066503, , 
45.06, 0.066880, , 
45.09, 0.067121, , 
45.12, 0.067315, , 
45.15, 0.067559, , 
45.18, 0.067749, , 
45.21, 0.067997, , 
45.24, 0.068124, , 
45.27, 0.068349, , 
45.30, 0.068663, , 
45.33, 0.068888, , 
45.36, 0.069126, , 
45.39, 0.069291, , 
45.42, 0.069456, , 
45.45, 0.069561, , 
45.48, 0.069745, , 
45.51, 0.069928, , 
45.54, 0.070211, , 
45.57, 0.070395, , 
45.60, 0.070465, , 
45.63, 0.070629, , 
45.66, 0.070858, , 
45.70, 0.070928, , 
45.72, 0.070880, , 
45.75, 0.070972, , 
45.78, 0.071238, , 
45.81, 0.071311, , 
45.84, 0.071296, , 
45.87, 0.071391, , 
45.90, 0.071524, , 
45.93, 0.071514, , 
45.96, 0.071429, , 
45.99, 0.071467, , 
46.02, 0.071584, , 
46.05, 0.071489, , 
46.08, 0.071362, , 
46.11, 0.071508, , 
46.14, 0.071603, , 
46.17, 0.071476, , 
46.20, 0.071296, , 
46.23, 0.071216, , 
46.26, 0.071156, , 
46.29, 0.071007, , 
46.32, 0.070921, , 
46.35, 0.070794, , 
46.38, 0.070677, , 
46.41, 0.070496, , 
46.44, 0.070268, , 
46.47, 0.070160, , 
46.50, 0.070097, , 
46.53, 0.069881, , 
46.56, 0.069665, , 
46.59, 0.069538, , 
46.62, 0.069370, , 
46.65, 0.069170, , 
46.68, 0.068983, , 
46.71, 0.068850, , 
46.74, 0.068666, , 
46.77, 0.068295, , 
46.80, 0.068133, , 
46.83, 0.067975, , 
46.86, 0.067762, , 
46.89, 0.067480, , 
46.92, 0.067251, , 
46.95, 0.067178, , 
46.98, 0.066991, , 
47.01, 0.066772, , 
47.04, 0.066535, , 
47.07, 0.066458, , 
47.10, 0.066224, , 
47.13, 0.065875, , 
47.16, 0.065751, , 
47.19, 0.065662, , 
47.22, 0.065418, , 
47.25, 0.065237, , 
47.28, 0.065047, , 
47.31, 0.064891, , 
47.34, 0.064638, , 
47.37, 0.064308, , 
47.40, 0.064219, , 
47.43, 0.064111, , 
47.46, 0.063870, , 
47.49, 0.063677, , 
47.52, 0.063642, , 
47.55, 0.063543, , 
47.58, 0.063340, , 
47.61, 0.063087, , 
47.64, 0.062842, , 
47.67, 0.062728, , 
47.70, 0.062617, , 
47.73, 0.062544, , 
47.76, 0.062408, , 
47.79, 0.062338, , 
47.82, 0.062072, , 
47.85, 0.061989, , 
47.88, 0.061983, , 
47.91, 0.061808, , 
47.94, 0.061681, , 
47.97, 0.061602, , 
47.99, 0.061577, 15, 0.585
48.00, 0.061545, , 
48.03, 0.061459, , 
48.06, 0.061209, , 
48.09, 0.061183, , 
48.12, 0.061237, , 
48.15, 0.061149, , 
48.18, 0.060879, , 
48.21, 0.060641, , 
48.24, 0.060698, , 
48.27, 0.060733, , 
48.30, 0.060593, , 
48.33, 0.060546, , 
48.36, 0.060663, , 
48.39, 0.060555, , 
48.42, 0.060283, , 
48.45, 0.060184, , 
48.48, 0.060187, , 
48.51, 0.060178, , 
48.54, 0.060134, , 
48.57, 0.060140, , 
48.60, 0.060099, , 
48.63, 0.060105, , 
48.66, 0.060051, , 
48.69, 0.060067, , 
48.72, 0.060124, , 
48.75, 0.060276, , 
48.78, 0.060311, , 
48.81, 0.060429, , 
48.84, 0.060606, , 
48.87, 0.060590, , 
48.90, 0.060584, , 
48.93, 0.060613, , 
48.96, 0.060701, , 
48.99, 0.060781, , 
49.02, 0.060838, , 
49.05, 0.061006, , 
49.08, 0.061107, , 
49.11, 0.061095, , 
49.14, 0.061095, , 
49.17, 0.061206, , 
49.20, 0.061247, , 
49.23, 0.061380, , 
49.26, 0.061491, , 
49.29, 0.061586, , 
49.32, 0.061672, , 
49.35, 0.061726, , 
49.38, 0.061811, , 
49.41, 0.061951, , 
49.44, 0.062113, , 
49.47, 0.062160, , 
49.50, 0.062271, , 
49.53, 0.062459, , 
49.56, 0.062516, , 
49.59, 0.062601, , 
49.62, 0.062744, , 
49.65, 0.062861, , 
49.68, 0.063039, , 
49.71, 0.063122, , 
49.74, 0.063305, , 
49.77, 0.063534, , 
49.80, 0.063740, , 
49.83, 0.063721, , 
49.86, 0.063880, , 
49.89, 0.064149, , 
49.92, 0.064301, , 
49.95, 0.064384, , 
49.98, 0.064584, , 
50.01, 0.064774, , 
50.04, 0.064990, , 
50.07, 0.065053, , 
50.10, 0.065247, , 
50.13, 0.065427, , 
50.16, 0.065618, , 
50.19, 0.065802, , 
50.22, 0.066027, , 
50.25, 0.066259, , 
50.28, 0.066490, , 
50.31, 0.066674, , 
50.34, 0.066849, , 
50.37, 0.067172, , 
50.40, 0.067350, , 
50.43, 0.067530, , 
50.46, 0.067791, , 
50.49, 0.068146, , 
50.52, 0.068298, , 
50.55, 0.068434, , 
50.58, 0.068815, , 
50.62, 0.069164, , 
50.64, 0.069358, , 
50.67, 0.069557, , 
50.70, 0.069871, , 
50.73, 0.070192, , 
50.76, 0.070449, , 
50.79, 0.070728, , 
50.82, 0.071016, , 
50.85, 0.071286, , 
50.88, 0.071495, , 
50.91, 0.071724, , 
50.94, 0.071939, , 
50.97, 0.072200, , 
51.00, 0.072396, , 
51.04, 0.072653, , 
51.06, 0.072951, , 
51.09, 0.073316, , 
51.12, 0.073497, , 
51.15, 0.073760, , 
51.18, 0.074020, , 
51.19, 0.074077, 16, 0.585
51.21, 0.074201, , 
51.25, 0.074312, , 
51.27, 0.074483, , 
51.30, 0.074753, , 
51.33, 0.074896, , 
51.36, 0.074969, , 
51.39, 0.075130, , 
51.42, 0.075346, , 
51.45, 0.075422, , 
51.48, 0.075416, , 
51.51, 0.075638, , 
51.54, 0.075749, , 
51.57, 0.075850, , 
51.60, 0.075876, , 
51.63, 0.075952, , 
51.67, 0.076012, , 
51.69, 0.075987, , 
51.72, 0.075958, , 
51.75, 0.075955, , 
51.78, 0.075993, , 
51.81, 0.075911, , 
51.84, 0.075927, , 
51.87, 0.075968, , 
51.90, 0.076028, , 
51.93, 0.075971, , 
51.96, 0.075857, , 
51.99, 0.075930, , 
52.02, 0.075984, , 
52.05, 0.075936, , 
52.08, 0.075841, , 
52.11, 0.075755, , 
52.14, 0.075701, , 
52.17, 0.075555, , 
52.20, 0.075489, , 
52.23, 0.075521, , 
52.26, 0.075425, , 
52.29, 0.075197, , 
52.32, 0.074991, , 
52.35, 0.074886, , 
52.38, 0.074832, , 
52.41, 0.074598, , 
52.44, 0.074398, , 
52.47, 0.074303, , 
52.50, 0.074179, , 
52.53, 0.073973, , 
52.56, 0.073776, , 
52.59, 0.073668, , 
52.62, 0.073427, , 
52.65, 0.073180, , 
52.68, 0.073040, , 
52.71, 0.073002, , 
52.74, 0.072847, , 
52.77, 0.072504, , 
52.80, 0.072254, , 
52.83, 0.072174, , 
52.87, 0.072047, , 
52.89, 0.071857, , 
52.92, 0.071638, , 
52.95, 0.071625, , 
52.98, 0.071499, , 
53.01, 0.071146, , 
53.04, 0.071042, , 
53.08, 0.071020, , 
53.10, 0.070871, , 
53.13, 0.070664, , 
53.16, 0.070518, , 
53.19, 0.070392, , 
53.22, 0.070290, , 
53.25, 0.070090, , 
53.28, 0.070014, , 
53.31, 0.070014, , 
53.34, 0.069903, , 
53.37, 0.069675, , 
53.40, 0.069557, , 
53.43, 0.069586, , 
53.46, 0.069576, , 
53.49, 0.069424, , 
53.52, 0.069266, , 
53.55, 0.069247, , 
53.58, 0.069180, , 
53.61, 0.069075, , 
53.64, 0.069047, , 
53.67, 0.069066, , 
53.70, 0.068932, , 
53.73, 0.068768, , 
53.76, 0.068736, , 
53.79, 0.068701, , 
53.82, 0.068596, , 
53.85, 0.068422, , 
53.88, 0.068514, , 
53.91, 0.068596, , 
53.94, 0.068460, , 
53.97, 0.068412, , 
54.00, 0.068466, , 
54.03, 0.068558, , 
54.06, 0.068530, , 
54.09, 0.068463, , 
54.12, 0.068565, , 
54.15, 0.068774, , 
54.18, 0.068821, , 
54.21, 0.068860, , 
54.24, 0.068983, , 
54.27, 0.069107, , 
54.30, 0.068967, , 
54.33, 0.068891, , 
54.36, 0.069158, , 
54.39, 0.069323, 17, 0.587
54.40, 0.069329, , 
54.42, 0.069364, , 
54.45, 0.069570, , 
54.48, 0.069767, , 
54.51, 0.069913, , 
54.54, 0.069846, , 
54.57, 0.069846, , 
54.60, 0.070062, , 
54.63, 0.070252, , 
54.66, 0.070296, , 
54.69, 0.070350, , 
54.72, 0.070392, , 
54.75, 0.070623, , 
54.78, 0.070744, , 
54.81, 0.070836, , 
54.84, 0.071051, , 
54.87, 0.071210, , 
54.90, 0.071384, , 
54.93, 0.071556, , 
54.96, 0.071800, , 
55.00, 0.071997, , 
55.02, 0.072066, , 
55.05, 0.072238, , 
55.08, 0.072533, , 
55.11, 0.072751, , 
55.14, 0.072916, , 
55.17, 0.073196, , 
55.21, 0.073614, , 
55.23, 0.073868, , 
55.26, 0.073995, , 
55.29, 0.074331, , 
55.32, 0.074642, , 
55.35, 0.074959, , 
55.38, 0.075162, , 
55.41, 0.075365, , 
55.44, 0.075727, , 
55.47, 0.075946, , 
55.50, 0.076161, , 
55.53, 0.076548, , 
55.56, 0.076885, , 
55.59, 0.077116, , 
55.62, 0.077291, , 
55.65, 0.077509, , 
55.68, 0.077839, , 
55.71, 0.078011, , 
55.74, 0.078188, , 
55.77, 0.078439, , 
55.80, 0.078721, , 
55.83, 0.078997, , 
55.86, 0.079108, , 
55.89, 0.079229, , 
55.92, 0.079517, , 
55.95, 0.079666, , 
55.98, 0.079742, , 
56.01, 0.079907, , 
56.04, 0.080152, , 
56.07, 0.080266, , 
56.10, 0.080348, , 
56.13, 0.080516, , 
56.16, 0.080694, , 
56.19, 0.080821, , 
56.22, 0.080875, , 
56.25, 0.080945, , 
56.28, 0.080967, , 
56.31, 0.080992, , 
56.34, 0.081011, , 
56.37, 0.081211, , 
56.40, 0.081354, , 
56.43, 0.081392, , 
56.46, 0.081360, , 
56.49, 0.081458, , 
56.52, 0.081516, , 
56.55, 0.081376, , 
56.58, 0.081179, , 
56.61, 0.081227, , 
56.64, 0.081151, , 
56.67, 0.081005, , 
56.70, 0.080954, , 
56.73, 0.081059, , 
56.76, 0.081008, , 
56.79, 0.080789, , 
56.82, 0.080618, , 
56.85, 0.080640, , 
56.88, 0.080561, , 
56.91, 0.080450, , 
56.94, 0.080348, , 
56.97, 0.080351, , 
57.00, 0.080253, , 
57.03, 0.080037, , 
57.06, 0.079860, , 
57.10, 0.079860, , 
57.12, 0.079749, , 
57.15, 0.079562, , 
57.18, 0.079463, , 
57.21, 0.079394, , 
57.24, 0.079203, , 
57.27, 0.079095, , 
57.30, 0.079019, , 
57.33, 0.078981, , 
57.36, 0.078845, , 
57.39, 0.078582, , 
57.42, 0.078505, , 
57.45, 0.078550, , 
57.48, 0.078372, , 
57.51, 0.078150, , 
57.54, 0.078074, , 
57.57, 0.078020, , 
57.59, 0.077982, 18, 0.585
57.60, 0.077947, , 
57.63, 0.077757, , 
57.66, 0.077681, , 
57.69, 0.077712, , 
57.72, 0.077560, , 
57.75, 0.077440, , 
57.78, 0.077497, , 
57.81, 0.077516, , 
57.84, 0.077421, , 
57.87, 0.077268, , 
57.90, 0.077138, , 
57.93, 0.077088, , 
57.96, 0.077043, , 
57.99, 0.076919, , 
58.02, 0.076957, , 
58.05, 0.077034, , 
58.08, 0.076980, , 
58.12, 0.076904, , 
58.14, 0.076977, , 
58.17, 0.077053, , 
58.20, 0.076996, , 
58.23, 0.077088, , 
58.26, 0.077268, , 
58.29, 0.077421, , 
58.32, 0.077408, , 
58.35, 0.077335, , 
58.38, 0.077459, , 
58.41, 0.077535, , 
58.44, 0.077557, , 
58.47, 0.077649, , 
58.50, 0.077839, , 
58.53, 0.077972, , 
58.56, 0.077941, , 
58.59, 0.077868, , 
58.62, 0.077985, , 
58.65, 0.078204, , 
58.68, 0.078245, , 
58.71, 0.078309, , 
58.74, 0.078429, , 
58.77, 0.078553, , 
58.80, 0.078686, , 
58.83, 0.078823, , 
58.86, 0.079010, , 
58.89, 0.079206, , 
58.92, 0.079257, , 
58.95, 0.079359, , 
58.98, 0.079600, , 
59.01, 0.079796, , 
59.04, 0.079920, , 
59.07, 0.080095, , 
59.10, 0.080332, , 
59.13, 0.080488, , 
59.16, 0.080634, , 
59.19, 0.080856, , 
59.22, 0.081081, , 
59.25, 0.081351, , 
59.28, 0.081477, , 
59.31, 0.081700, , 
59.34, 0.082074, , 
59.37, 0.082226, , 
59.40, 0.082353, , 
59.43, 0.082619, , 
59.46, 0.082819, , 
59.49, 0.082918, , 
59.52, 0.083051, , 
59.55, 0.083263, , 
59.58, 0.083441, , 
59.61, 0.083523, , 
59.64, 0.083600, , 
59.67, 0.083818, , 
59.70, 0.084072, , 
59.73, 0.084237, , 
59.76, 0.084253, , 
59.79, 0.084335, , 
59.82, 0.084421, , 
59.85, 0.084437, , 
59.88, 0.084434, , 
59.91, 0.084649, , 
59.94, 0.084843, , 
59.97, 0.084837, , 
60.00, 0.084776, , 
60.03, 0.084868, , 
60.06, 0.084944, , 
60.09, 0.084865, , 
60.12, 0.084856, , 
60.15, 0.084903, , 
60.18, 0.084973, , 
60.21, 0.084875, , 
60.24, 0.084846, , 
60.27, 0.084935, , 
60.30, 0.084995, , 
60.33, 0.084887, , 
60.36, 0.084840, , 
60.39, 0.084948, , 
60.42, 0.084894, , 
60.45, 0.084779, , 
60.48, 0.084526, , 
60.51, 0.084532, , 
60.54, 0.084516, , 
60.57, 0.084408, , 
60.60, 0.084335, , 
60.63, 0.084421, , 
60.66, 0.084408, , 
60.69, 0.084288, , 
60.72, 0.084158, , 
60.75, 0.084142, , 
60.78, 0.084028, , 
60.79, 0.083986, 19, 0.585
60.81, 0.083895, , 
60.84, 0.083866, , 
60.87, 0.083920, , 
60.90, 0.083958, , 
60.93, 0.083891, , 
60.96, 0.083920, , 
60.99, 0.083983, , 
61.02, 0.083955, , 
61.05, 0.083844, , 
61.08, 0.083863, , 
61.11, 0.083914, , 
61.14, 0.083904, , 
61.17, 0.083799, , 
61.20, 0.083841, , 
61.23, 0.083967, , 
61.27, 0.083961, , 
61.29, 0.083831, , 
61.32, 0.083866, , 
61.35, 0.083948, , 
61.38, 0.083980, , 
61.41, 0.083888, , 
61.44, 0.083898, , 
61.48, 0.083904, , 
61.50, 0.083863, , 
61.53, 0.083856, , 
61.56, 0.083901, , 
61.59, 0.083904, , 
61.62, 0.083891, , 
61.65, 0.083914, , 
61.68, 0.083917, , 
61.71, 0.083942, , 
61.74, 0.083964, , 
61.77, 0.083891, , 
61.80, 0.083888, , 
61.83, 0.083958, , 
61.86, 0.083898, , 
61.89, 0.083837, , 
61.92, 0.084012, , 
61.95, 0.084218, , 
61.98, 0.084250, , 
62.01, 0.084240, , 
62.04, 0.084373, , 
62.07, 0.084538, , 
62.10, 0.084557, , 
62.13, 0.084595, , 
62.16, 0.084799, , 
62.19, 0.085008, , 
62.22, 0.085074, , 
62.25, 0.085173, , 
62.28, 0.085350, , 
62.31, 0.085433, , 
62.34, 0.085515, , 
62.37, 0.085636, , 
62.40, 0.085766, , 
62.43, 0.085883, , 
62.46, 0.085937, , 
62.49, 0.086048, , 
62.52, 0.086226, , 
62.55, 0.086331, , 
62.58, 0.086391, , 
62.62, 0.086565, , 
62.64, 0.086718, , 
62.67, 0.086825, , 
62.70, 0.086879, , 
62.73, 0.087066, , 
62.76, 0.087212, , 
62.79, 0.087266, , 
62.82, 0.087257, , 
62.85, 0.087247, , 
62.88, 0.087419, , 
62.91, 0.087482, , 
62.94, 0.087612, , 
62.97, 0.087714, , 
63.00, 0.087863, , 
63.04, 0.087853, , 
63.06, 0.087818, , 
63.09, 0.087872, , 
63.12, 0.087872, , 
63.15, 0.087815, , 
63.18, 0.087771, , 
63.21, 0.087809, , 
63.24, 0.087853, , 
63.27, 0.087850, , 
63.30, 0.087831, , 
63.33, 0.087897, , 
63.36, 0.087917, , 
63.39, 0.087853, , 
63.42, 0.087853, , 
63.45, 0.087875, , 
63.48, 0.087869, , 
63.51, 0.087704, , 
63.54, 0.087457, , 
63.57, 0.087428, , 
63.60, 0.087399, , 
63.63, 0.087361, , 
63.66, 0.087361, , 
63.69, 0.087361, , 
63.72, 0.087358, , 
63.75, 0.087349, , 
63.78, 0.087279, , 
63.81, 0.087390, , 
63.84, 0.087469, , 
63.87, 0.087361, , 
63.90, 0.087282, , 
63.93, 0.087415, , 
63.96, 0.087450, , 
63.98, 0.087396, 20, 0.585
63.99, 0.087387, , 
64.02, 0.087358, , 
64.05, 0.087406, , 
64.08, 0.087352, , 
64.11, 0.087250, , 
64.14, 0.087165, , 
64.17, 0.087104, , 
64.20, 0.086997, , 
64.23, 0.086844, , 
64.26, 0.086813, , 
64.29, 0.086924, , 
64.32, 0.086927, , 
64.35, 0.086889, , 
64.38, 0.086990, , 
64.41, 0.087168, , 
64.44, 0.087276, , 
64.47, 0.087323, , 
64.50, 0.087390, , 
64.53, 0.087472, , 
64.56, 0.087419, , 
64.59, 0.087380, , 
64.62, 0.087390, , 
64.65, 0.087403, , 
64.68, 0.087390, , 
64.71, 0.087358, , 
64.74, 0.087482, , 
64.77, 0.087533, , 
64.80, 0.087514, , 
64.83, 0.087466, , 
64.86, 0.087571, , 
64.89, 0.087771, , 
64.92, 0.087799, , 
64.95, 0.087793, , 
64.98, 0.087913, , 
65.01, 0.088015, , 
65.04, 0.087872, , 
65.07, 0.087872, , 
65.10, 0.087961, , 
65.13, 0.087942, , 
65.16, 0.087888, , 
65.19, 0.087875, , 
65.22, 0.087939, , 
65.25, 0.087942, , 
65.28, 0.087885, , 
65.31, 0.087882, , 
65.34, 0.087904, , 
65.37, 0.087939, , 
65.40, 0.087920, , 
65.43, 0.087859, , 
65.46, 0.087897, , 
65.49, 0.087948, , 
65.52, 0.087866, , 
65.55, 0.087796, , 
65.58, 0.087936, , 
65.61, 0.087974, , 
65.64, 0.087780, , 
65.67, 0.087679, , 
65.70, 0.087599, , 
65.73, 0.087533, , 
65.76, 0.087377, , 
65.79, 0.087387, , 
65.82, 0.087374, , 
65.85, 0.087403, , 
65.88, 0.087365, , 
65.91, 0.087330, , 
65.94, 0.087463, , 
65.97, 0.087434, , 
66.00, 0.087387, , 
66.03, 0.087415, , 
66.06, 0.087472, , 
66.09, 0.087393, , 
66.12, 0.087361, , 
66.15, 0.087428, , 
66.18, 0.087466, , 
66.21, 0.087336, , 
66.24, 0.087095, , 
66.27, 0.087082, , 
66.30, 0.086990, , 
66.33, 0.086924, , 
66.36, 0.086921, , 
66.39, 0.086911, , 
66.42, 0.086911, , 
66.45, 0.086841, , 
66.48, 0.086860, , 
66.51, 0.086978, , 
66.54, 0.086962, , 
66.57, 0.086898, , 
66.60, 0.086895, , 
66.63, 0.086870, , 
66.66, 0.086930, , 
66.69, 0.086857, , 
66.72, 0.086879, , 
66.75, 0.086927, , 
66.78, 0.086911, , 
66.81, 0.086771, , 
66.84, 0.086794, , 
66.87, 0.086901, , 
66.90, 0.086876, , 
66.93, 0.086873, , 
66.96, 0.086892, , 
66.99, 0.086946, , 
67.02, 0.086927, , 
67.05, 0.086778, , 
67.08, 0.086670, , 
67.11, 0.086632, , 
67.14, 0.086442, , 
67.17, 0.086353, , 
67.19, 0.086419, 21, 0.588
67.20, 0.086384, , 
67.23, 0.086448, , 
67.26, 0.086388, , 
67.29, 0.086337, , 
67.32, 0.086378, , 
67.35, 0.086445, , 
67.38, 0.086388, , 
67.41, 0.086375, , 
67.44, 0.086423, , 
67.47, 0.086442, , 
67.50, 0.086394, , 
67.53, 0.086356, , 
67.56, 0.086391, , 
67.59, 0.086372, , 
67.62, 0.086299, , 
67.65, 0.086223, , 
67.68, 0.086147, , 
67.71, 0.086077, , 
67.74, 0.085937, , 
67.77, 0.085902, , 
67.80, 0.085944, , 
67.83, 0.085928, , 
67.86, 0.085826, , 
67.89, 0.085712, , 
67.92, 0.085652, , 
67.95, 0.085519, , 
67.98, 0.085388, , 
68.01, 0.085331, , 
68.04, 0.085357, , 
68.07, 0.085335, , 
68.10, 0.085103, , 
68.13, 0.085059, , 
68.16, 0.085002, , 
68.19, 0.084944, , 
68.23, 0.084894, , 
68.25, 0.084903, , 
68.28, 0.084982, , 
68.31, 0.084903, , 
68.34, 0.084719, , 
68.37, 0.084624, , 
68.40, 0.084624, , 
68.43, 0.084523, , 
68.46, 0.084367, , 
68.49, 0.084424, , 
68.52, 0.084446, , 
68.55, 0.084415, , 
68.58, 0.084329, , 
68.61, 0.084291, , 
68.64, 0.084218, , 
68.67, 0.084018, , 
68.70, 0.083936, , 
68.73, 0.083948, , 
68.76, 0.083958, , 
68.79, 0.083936, , 
68.82, 0.083917, , 
68.85, 0.083958, , 
68.88, 0.084009, , 
68.92, 0.083872, , 
68.94, 0.083869, , 
68.97, 0.083971, , 
69.00, 0.083837, , 
69.03, 0.083568, , 
69.06, 0.083454, , 
69.09, 0.083501, , 
69.12, 0.083517, , 
69.15, 0.083403, , 
69.18, 0.083368, , 
69.21, 0.083425, , 
69.24, 0.083238, , 
69.27, 0.083067, , 
69.30, 0.082994, , 
69.33, 0.082984, , 
69.36, 0.082914, , 
69.39, 0.082832, , 
69.42, 0.082791, , 
69.45, 0.082810, , 
69.48, 0.082680, , 
69.51, 0.082499, , 
69.54, 0.082439, , 
69.57, 0.082489, , 
69.60, 0.082353, , 
69.63, 0.082312, , 
69.66, 0.082343, , 
69.69, 0.082385, , 
69.72, 0.082343, , 
69.75, 0.082137, , 
69.78, 0.082067, , 
69.81, 0.082026, , 
69.84, 0.081890, , 
69.87, 0.081868, , 
69.90, 0.081896, , 
69.93, 0.081830, , 
69.96, 0.081620, , 
69.99, 0.081497, , 
70.02, 0.081509, , 
70.05, 0.081468, , 
70.09, 0.081370, , 
70.11, 0.081357, , 
70.14, 0.081306, , 
70.17, 0.081205, , 
70.20, 0.080941, , 
70.23, 0.080891, , 
70.26, 0.080967, , 
70.29, 0.080976, , 
70.32, 0.080824, , 
70.35, 0.080700, , 
70.38, 0.080662, , 
70.39, 0.080650, 22, 0.584
70.41, 0.080564, , 
70.44, 0.080358, , 
70.47, 0.080332, , 
70.50, 0.080440, , 
70.53, 0.080342, , 
70.56, 0.080107, , 
70.59, 0.080104, , 
70.62, 0.080091, , 
70.65, 0.079952, , 
70.68, 0.079923, , 
70.71, 0.079904, , 
70.74, 0.079964, , 
70.77, 0.079819, , 
70.80, 0.079536, , 
70.83, 0.079489, , 
70.86, 0.079530, , 
70.89, 0.079371, , 
70.92, 0.079248, , 
70.95, 0.079187, , 
70.98, 0.079086, , 
71.01, 0.078991, , 
71.04, 0.078908, , 
71.07, 0.078943, , 
71.10, 0.078867, , 
71.13, 0.078699, , 
71.16, 0.078505, , 
71.19, 0.078480, , 
71.22, 0.078388, , 
71.25, 0.078166, , 
71.28, 0.078039, , 
71.31, 0.078033, , 
71.34, 0.077979, , 
71.37, 0.077966, , 
71.40, 0.077906, , 
71.43, 0.077814, , 
71.46, 0.077684, , 
71.49, 0.077478, , 
71.52, 0.077405, , 
71.55, 0.077487, , 
71.58, 0.077411, , 
71.61, 0.077202, , 
71.64, 0.077126, , 
71.67, 0.077088, , 
71.70, 0.077008, , 
71.73, 0.076818, , 
71.76, 0.076774, , 
71.79, 0.076697, , 
71.82, 0.076574, , 
71.85, 0.076418, , 
71.88, 0.076412, , 
71.91, 0.076390, , 
71.94, 0.076171, , 
71.97, 0.076050, , 
72.00, 0.076066, , 
72.03, 0.076057, , 
72.06, 0.075885, , 
72.09, 0.075762, , 
72.12, 0.075698, , 
72.15, 0.075673, , 
72.18, 0.075527, , 
72.21, 0.075432, , 
72.24, 0.075517, , 
72.27, 0.075448, , 
72.30, 0.075232, , 
72.33, 0.075115, , 
72.36, 0.075102, , 
72.39, 0.075140, , 
72.42, 0.075032, , 
72.45, 0.074848, , 
72.48, 0.074712, , 
72.51, 0.074686, , 
72.54, 0.074591, , 
72.57, 0.074585, , 
72.60, 0.074579, , 
72.63, 0.074563, , 
72.66, 0.074398, , 
72.69, 0.074293, , 
72.72, 0.074239, , 
72.75, 0.074153, , 
72.78, 0.074084, , 
72.81, 0.074014, , 
72.84, 0.073950, , 
72.87, 0.073747, , 
72.90, 0.073627, , 
72.93, 0.073589, , 
72.96, 0.073595, , 
72.99, 0.073491, , 
73.02, 0.073262, , 
73.05, 0.073186, , 
73.08, 0.073170, , 
73.11, 0.073094, , 
73.14, 0.073059, , 
73.17, 0.073091, , 
73.20, 0.073113, , 
73.23, 0.073027, , 
73.26, 0.072980, , 
73.29, 0.073002, , 
73.32, 0.073069, , 
73.35, 0.072907, , 
73.38, 0.072758, , 
73.41, 0.072723, , 
73.44, 0.072720, , 
73.47, 0.072533, , 
73.50, 0.072415, , 
73.53, 0.072482, , 
73.56, 0.072536, , 
73.59, 0.072485, 23, 0.586
73.59, 0.072466, , 
73.62, 0.072437, , 
73.65, 0.072533, , 
73.68, 0.072463, , 
73.71, 0.072200, , 
73.74, 0.072031, , 
73.77, 0.072095, , 
73.80, 0.072038, , 
73.83, 0.071857, , 
73.86, 0.071591, , 
73.89, 0.071521, , 
73.92, 0.071413, , 
73.96, 0.071156, , 
73.98, 0.071067, , 
74.01, 0.070912, , 
74.04, 0.070728, , 
74.07, 0.070553, , 
74.10, 0.070414, , 
74.13, 0.070322, , 
74.16, 0.070141, , 
74.19, 0.069821, , 
74.22, 0.069621, , 
74.25, 0.069640, , 
74.28, 0.069475, , 
74.31, 0.069256, , 
74.34, 0.069113, , 
74.37, 0.068936, , 
74.40, 0.068749, , 
74.43, 0.068526, , 
74.46, 0.068492, , 
74.49, 0.068501, , 
74.52, 0.068362, , 
74.55, 0.068092, , 
74.58, 0.068067, , 
74.62, 0.068092, , 
74.64, 0.068003, , 
74.67, 0.067781, , 
74.70, 0.067743, , 
74.73, 0.067708, , 
74.76, 0.067616, , 
74.79, 0.067451, , 
74.82, 0.067486, , 
74.85, 0.067464, , 
74.88, 0.067267, , 
74.91, 0.067163, , 
74.94, 0.067150, , 
74.97, 0.067131, , 
75.00, 0.066868, , 
75.03, 0.066728, , 
75.06, 0.066706, , 
75.09, 0.066636, , 
75.12, 0.066592, , 
75.15, 0.066493, , 
75.18, 0.066465, , 
75.21, 0.066373, , 
75.24, 0.066186, , 
75.27, 0.066084, , 
75.30, 0.066125, , 
75.33, 0.066049, , 
75.36, 0.065846, , 
75.39, 0.065776, , 
75.42, 0.065729, , 
75.45, 0.065700, , 
75.48, 0.065592, , 
75.51, 0.065523, , 
75.54, 0.065481, , 
75.57, 0.065348, , 
75.60, 0.065205, , 
75.63, 0.065136, , 
75.66, 0.065120, , 
75.69, 0.064993, , 
75.72, 0.064749, , 
75.75, 0.064717, , 
75.78, 0.064685, , 
75.81, 0.064514, , 
75.84, 0.064317, , 
75.87, 0.064248, , 
75.90, 0.064263, , 
75.93, 0.064073, , 
75.96, 0.063880, , 
75.99, 0.063791, , 
76.02, 0.063734, , 
76.05, 0.063619, , 
76.08, 0.063556, , 
76.11, 0.063499, , 
76.14, 0.063385, , 
76.17, 0.063217, , 
76.20, 0.063134, , 
76.23, 0.063179, , 
76.26, 0.063194, , 
76.29, 0.063106, , 
76.32, 0.062906, , 
76.35, 0.062766, , 
76.38, 0.062776, , 
76.41, 0.062630, , 
76.44, 0.062579, , 
76.47, 0.062624, , 
76.50, 0.062551, , 
76.53, 0.062344, , 
76.56, 0.062202, , 
76.59, 0.062214, , 
76.62, 0.062224, , 
76.65, 0.062110, , 
76.68, 0.062040, , 
76.71, 0.061986, , 
76.74, 0.061875, , 
76.77, 0.061697, , 
76.79, 0.061612, 24, 0.585
76.80, 0.061612, , 
76.83, 0.061685, , 
76.86, 0.061672, , 
76.89, 0.061463, , 
76.92, 0.061301, , 
76.95, 0.061285, , 
76.98, 0.061199, , 
77.01, 0.061072, , 
77.05, 0.061079, , 
77.07, 0.061174, , 
77.10, 0.061117, , 
77.13, 0.060968, , 
77.16, 0.060831, , 
77.19, 0.060755, , 
77.22, 0.060679, , 
77.25, 0.060660, , 
77.28, 0.060593, , 
77.31, 0.060635, , 
77.34, 0.060682, , 
77.37, 0.060628, , 
77.40, 0.060574, , 
77.43, 0.060441, , 
77.46, 0.060308, , 
77.49, 0.060153, , 
77.52, 0.060130, , 
77.55, 0.060229, , 
77.58, 0.060162, , 
77.61, 0.060051, , 
77.64, 0.060023, , 
77.67, 0.060010, , 
77.70, 0.059791, , 
77.73, 0.059623, , 
77.76, 0.059582, , 
77.79, 0.059607, , 
77.82, 0.059572, , 
77.85, 0.059388, , 
77.88, 0.059372, , 
77.91, 0.059318, , 
77.94, 0.059144, , 
77.97, 0.059090, , 
78.00, 0.059119, , 
78.03, 0.059138, , 
78.06, 0.059001, , 
78.09, 0.058903, , 
78.12, 0.058808, , 
78.15, 0.058738, , 
78.18, 0.058668, , 
78.21, 0.058614, , 
78.24, 0.058579, , 
78.27, 0.058503, , 
78.30, 0.058284, , 
78.33, 0.058170, , 
78.36, 0.058199, , 
78.39, 0.058154, , 
78.42, 0.057999, , 
78.45, 0.057878, , 
78.48, 0.057856, , 
78.51, 0.057805, , 
78.54, 0.057720, , 
78.57, 0.057691, , 
78.60, 0.057777, , 
78.63, 0.057596, , 
78.66, 0.057444, , 
78.69, 0.057364, , 
78.72, 0.057301, , 
78.75, 0.057231, , 
78.78, 0.057050, , 
78.81, 0.057019, , 
78.84, 0.056917, , 
78.87, 0.056743, , 
78.90, 0.056689, , 
78.93, 0.056803, , 
78.96, 0.056803, , 
78.99, 0.056711, , 
79.03, 0.056597, , 
79.05, 0.056546, , 
79.08, 0.056483, , 
79.11, 0.056324, , 
79.14, 0.056238, , 
79.17, 0.056337, , 
79.20, 0.056261, , 
79.24, 0.056007, , 
79.26, 0.055918, , 
79.29, 0.055931, , 
79.32, 0.055896, , 
79.35, 0.055744, , 
79.38, 0.055607, , 
79.41, 0.055607, , 
79.44, 0.055506, , 
79.47, 0.055325, , 
79.50, 0.055233, , 
79.53, 0.055303, , 
79.56, 0.055192, , 
79.59, 0.055043, , 
79.62, 0.054878, , 
79.65, 0.054871, , 
79.68, 0.054779, , 
79.71, 0.054684, , 
79.74, 0.054646, , 
79.77, 0.054690, , 
79.80, 0.054611, , 
79.83, 0.054434, , 
79.86, 0.054396, , 
79.89, 0.054383, , 
79.92, 0.054269, , 
79.95, 0.054154, , 
79.98, 0.054116, 25, 0.585
79.99, 0.054129, , 
80.01, 0.054161, , 
80.04, 0.054085, , 
80.07, 0.053882, , 
80.10, 0.053802, , 
80.13, 0.053742, , 
80.16, 0.053663, , 
80.19, 0.053625, , 
80.22, 0.053688, , 
80.25, 0.053742, , 
80.28, 0.053691, , 
80.31, 0.053606, , 
80.34, 0.053647, , 
80.37, 0.053599, , 
80.40, 0.053361, , 
80.43, 0.053206, , 
80.46, 0.053181, , 
80.49, 0.053193, , 
80.52, 0.053073, , 
80.55, 0.053013, , 
80.58, 0.053171, , 
80.61, 0.053158, , 
80.64, 0.052997, , 
80.67, 0.052835, , 
80.70, 0.052863, , 
80.73, 0.052857, , 
80.76, 0.052664, , 
80.79, 0.052600, , 
80.82, 0.052591, , 
80.85, 0.052467, , 
80.88, 0.052308, , 
80.91, 0.052270, , 
80.94, 0.052235, , 
80.97, 0.052188, , 
81.00, 0.052156, , 
81.03, 0.052194, , 
81.07, 0.052242, , 
81.09, 0.052137, , 
81.12, 0.051874, , 
81.15, 0.051810, , 
81.18, 0.051883, , 
81.21, 0.051810, , 
81.24, 0.051639, , 
81.28, 0.051614, , 
81.30, 0.051585, , 
81.33, 0.051376, , 
81.36, 0.051176, , 
81.39, 0.051224, , 
81.42, 0.051328, , 
81.45, 0.051243, , 
81.48, 0.051195, , 
81.51, 0.051103, , 
81.54, 0.051027, , 
81.57, 0.050852, , 
81.60, 0.050729, , 
81.63, 0.050789, , 
81.66, 0.050713, , 
81.69, 0.050615, , 
81.72, 0.050608, , 
81.75, 0.050643, , 
81.78, 0.050627, , 
81.81, 0.050529, , 
81.84, 0.050329, , 
81.87, 0.050313, , 
81.90, 0.050335, , 
81.93, 0.050215, , 
81.96, 0.050088, , 
81.99, 0.050113, , 
82.02, 0.049983, , 
82.05, 0.049847, , 
82.08, 0.049752, , 
82.11, 0.049663, , 
82.14, 0.049641, , 
82.17, 0.049561, , 
82.20, 0.049539, , 
82.23, 0.049644, , 
82.26, 0.049606, , 
82.29, 0.049431, , 
82.32, 0.049273, , 
82.35, 0.049260, , 
82.38, 0.049184, , 
82.41, 0.049152, , 
82.44, 0.049073, , 
82.47, 0.049184, , 
82.50, 0.049200, , 
82.53, 0.049114, , 
82.56, 0.049149, , 
82.59, 0.049200, , 
82.62, 0.049108, , 
82.65, 0.048918, , 
82.68, 0.048803, , 
82.71, 0.048730, , 
82.74, 0.048667, , 
82.77, 0.048565, , 
82.80, 0.048610, , 
82.83, 0.048699, , 
82.86, 0.048664, , 
82.89, 0.048534, , 
82.92, 0.048616, , 
82.95, 0.048657, , 
82.98, 0.048515, , 
83.01, 0.048388, , 
83.04, 0.048312, , 
83.07, 0.048274, , 
83.10, 0.048223, , 
83.13, 0.048099, , 
83.16, 0.048144, , 
83.19, 0.048251, 26, 0.586
83.19, 0.048251, , 
83.22, 0.048169, , 
83.25, 0.048118, , 
83.28, 0.048201, , 
83.31, 0.048264, , 
83.34, 0.048077, , 
83.37, 0.047880, , 
83.40, 0.047845, , 
83.43, 0.047788, , 
83.46, 0.047750, , 
83.49, 0.047753, , 
83.52, 0.047744, , 
83.55, 0.047681, , 
83.58, 0.047595, , 
83.61, 0.047405, , 
83.64, 0.047389, , 
83.67, 0.047401, , 
83.70, 0.047271, , 
83.73, 0.047243, , 
83.76, 0.047281, , 
83.79, 0.047262, , 
83.82, 0.047148, , 
83.85, 0.047033, , 
83.88, 0.046980, , 
83.92, 0.046929, , 
83.94, 0.046811, , 
83.97, 0.046742, , 
84.00, 0.046783, , 
84.03, 0.046802, , 
84.06, 0.046704, , 
84.09, 0.046773, , 
84.12, 0.046764, , 
84.15, 0.046726, , 
84.18, 0.046719, , 
84.21, 0.046735, , 
84.24, 0.046834, , 
84.27, 0.046808, , 
84.30, 0.046666, , 
84.33, 0.046697, , 
84.36, 0.046802, , 
84.39, 0.046700, , 
84.42, 0.046561, , 
84.45, 0.046443, , 
84.48, 0.046428, , 
84.51, 0.046304, , 
84.54, 0.046212, , 
84.57, 0.046218, , 
84.60, 0.046266, , 
84.63, 0.046256, , 
84.66, 0.046123, , 
84.69, 0.046215, , 
84.72, 0.046250, , 
84.75, 0.046095, , 
84.78, 0.045892, , 
84.81, 0.045847, , 
84.84, 0.045850, , 
84.87, 0.045825, , 
84.90, 0.045673, , 
84.93, 0.045704, , 
84.96, 0.045768, , 
84.99, 0.045730, , 
85.02, 0.045682, , 
85.05, 0.045704, , 
85.08, 0.045714, , 
85.11, 0.045622, , 
85.14, 0.045413, , 
85.17, 0.045330, , 
85.20, 0.045321, , 
85.23, 0.045216, , 
85.26, 0.045146, , 
85.29, 0.045213, , 
85.32, 0.045203, , 
85.36, 0.045194, , 
85.38, 0.045137, , 
85.41, 0.045191, , 
85.44, 0.045273, , 
85.47, 0.045152, , 
85.50, 0.045146, , 
85.53, 0.045222, , 
85.56, 0.045213, , 
85.59, 0.045076, , 
85.62, 0.044953, , 
85.65, 0.044892, , 
85.68, 0.044858, , 
85.71, 0.044746, , 
85.74, 0.044658, , 
85.77, 0.044683, , 
85.80, 0.044743, , 
85.83, 0.044702, , 
85.87, 0.044680, , 
85.89, 0.044693, , 
85.92, 0.044654, , 
85.95, 0.044654, , 
85.98, 0.044588, , 
86.01, 0.044727, , 
86.04, 0.044689, , 
86.07, 0.044582, , 
86.10, 0.044620, , 
86.13, 0.044689, , 
86.16, 0.044731, , 
86.19, 0.044674, , 
86.22, 0.044683, , 
86.25, 0.044632, , 
86.28, 0.044661, , 
86.31, 0.044537, , 
86.34, 0.044369, , 
86.37, 0.044410, , 
86.38, 0.044388, 27, 0.585
86.40, 0.044347, , 
86.43, 0.044153, , 
86.46, 0.044153, , 
86.49, 0.044306, , 
86.52, 0.044268, , 
86.55, 0.043998, , 
86.58, 0.043900, , 
86.61, 0.043900, , 
86.64, 0.043747, , 
86.67, 0.043598, , 
86.70, 0.043627, , 
86.74, 0.043722, , 
86.76, 0.043744, , 
86.79, 0.043589, , 
86.82, 0.043592, , 
86.85, 0.043703, , 
86.88, 0.043703, , 
86.91, 0.043636, , 
86.95, 0.043605, , 
86.97, 0.043731, , 
87.00, 0.043627, , 
87.03, 0.043595, , 
87.06, 0.043646, , 
87.09, 0.043684, , 
87.12, 0.043605, , 
87.15, 0.043487, , 
87.18, 0.043395, , 
87.21, 0.043329, , 
87.24, 0.043208, , 
87.27, 0.043170, , 
87.30, 0.043195, , 
87.33, 0.043192, , 
87.36, 0.043157, , 
87.39, 0.043164, , 
87.42, 0.043138, , 
87.45, 0.043186, , 
87.49, 0.042951, , 
87.51, 0.042821, , 
87.54, 0.042815, , 
87.57, 0.042707, , 
87.60, 0.042586, , 
87.63, 0.042558, , 
87.66, 0.042567, , 
87.69, 0.042596, , 
87.72, 0.042628, , 
87.75, 0.042545, , 
87.78, 0.042577, , 
87.81, 0.042621, , 
87.84, 0.042567, , 
87.87, 0.042472, , 
87.90, 0.042618, , 
87.93, 0.042659, , 
87.96, 0.042380, , 
87.99, 0.042171, , 
88.02, 0.042177, , 
88.05, 0.042177, , 
88.08, 0.042092, , 
88.11, 0.042060, , 
88.14, 0.042101, , 
88.17, 0.042123, , 
88.20, 0.042139, , 
88.23, 0.042104, , 
88.26, 0.042098, , 
88.29, 0.042117, , 
88.32, 0.042107, , 
88.35, 0.042114, , 
88.38, 0.042142, , 
88.41, 0.042130, , 
88.44, 0.042111, , 
88.47, 0.042041, , 
88.50, 0.042145, , 
88.53, 0.042155, , 
88.56, 0.042079, , 
88.59, 0.042085, , 
88.62, 0.042218, , 
88.65, 0.042352, , 
88.68, 0.042358, , 
88.71, 0.042472, , 
88.74, 0.042637, , 
88.77, 0.042634, , 
88.80, 0.042494, , 
88.83, 0.042513, , 
88.86, 0.042650, , 
88.89, 0.042612, , 
88.92, 0.042571, , 
88.95, 0.042605, , 
88.98, 0.042634, , 
89.01, 0.042599, , 
89.04, 0.042545, , 
89.07, 0.042555, , 
89.10, 0.042640, , 
89.13, 0.042675, , 
89.16, 0.042656, , 
89.19, 0.042846, , 
89.22, 0.043049, , 
89.25, 0.043091, , 
89.28, 0.043005, , 
89.31, 0.043078, , 
89.34, 0.043141, , 
89.37, 0.043072, , 
89.40, 0.042986, , 
89.43, 0.043015, , 
89.46, 0.043110, , 
89.49, 0.043110, , 
89.52, 0.042970, , 
89.55, 0.043011, , 
89.58, 0.043097, , 
89.61, 0.043069, , 
89.64, 0.043046, , 
89.67, 0.043088, , 
89.70, 0.043069, , 
89.73, 0.043081, , 
89.76, 0.043075, , 
89.79, 0.043062, , 
89.82, 0.043100, , 
89.85, 0.043062, , 
89.88, 0.042996, , 
89.91, 0.043024, , 
89.94, 0.043075, , 
89.97, 0.043056, , 
90.00, 0.043015, , 
90.03, 0.042989, , 
90.06, 0.043110, , 
90.09, 0.043069, , 
90.12, 0.043021, , 
90.15, 0.043084, , 
90.18, 0.043161, , 
90.21, 0.043049, , 
90.24, 0.042980, , 
90.27, 0.043008, , 
90.30, 0.043072, , 
90.33, 0.043126, , 
90.36, 0.043040, , 
90.39, 0.043018, , 
90.42, 0.043002, , 
90.45, 0.042996, , 
90.48, 0.043008, , 
90.51, 0.043113, , 
90.54, 0.043138, , 
90.57, 0.043049, , 
90.60, 0.042907, , 
90.63, 0.043037, , 
90.66, 0.043094, , 
90.69, 0.043072, , 
90.72, 0.043002, , 
90.75, 0.043062, , 
90.78, 0.043062, , 
90.81, 0.043069, , 
90.84, 0.043030, , 
90.87, 0.043097, , 
90.90, 0.043214, , 
90.93, 0.043015, , 
90.96, 0.043049, , 
90.99, 0.043148, , 
91.02, 0.043199, , 
91.05, 0.043075, , 
91.08, 0.043056, , 
91.11, 0.043075, , 
91.14, 0.043132, , 
91.18, 0.043021, , 
91.20, 0.043015, , 
91.23, 0.043103, , 
91.26, 0.043113, , 
91.29, 0.043046, , 
91.32, 0.043011, , 
91.35, 0.043129, , 
91.38, 0.043183, , 
91.41, 0.043034, , 
91.44, 0.043040, , 
91.47, 0.043154, , 
91.50, 0.043113, , 
91.53, 0.043078, , 
91.56, 0.043040, , 
91.59, 0.043161, , 
91.62, 0.043145, , 
91.65, 0.043005, , 
91.68, 0.043059, , 
91.71, 0.043183, , 
91.74, 0.043132, , 
91.77, 0.043088, , 
91.80, 0.043040, , 
91.83, 0.043078, , 
91.86, 0.043107, , 
91.89, 0.042980, , 
91.92, 0.043037, , 
91.95, 0.043192, , 
91.98, 0.043113, , 
92.01, 0.042958, , 
92.04, 0.042970, , 
92.07, 0.043040, , 
92.10, 0.043002, , 
92.13, 0.043024, , 
92.16, 0.043011, , 
92.19, 0.043024, , 
92.22, 0.043094, , 
92.25, 0.042935, , 
92.28, 0.042951, , 
92.31, 0.043097, , 
92.34, 0.043100, , 
92.37, 0.042964, , 
92.40, 0.043053, , 
92.43, 0.043078, , 
92.46, 0.043037, , 
92.49, 0.042992, , 
92.52, 0.043049, , 
92.55, 0.043056, , 
92.58, 0.043065, , 
92.61, 0.042910, , 
92.64, 0.042967, , 
92.67, 0.043034, , 
92.70, 0.043056, , 
92.73, 0.042996, , 
92.76, 0.042897, , 
92.79, 0.042900, , 
92.82, 0.042802, , 
92.85, 0.042643, , 
92.88, 0.042602, , 
92.91, 0.042532, , 
92.94, 0.042523, , 
92.97, 0.042491, , 
93.00, 0.042504, , 
93.03, 0.042548, , 
93.06, 0.042539, , 
93.09, 0.042491, , 
93.12, 0.042532, , 
93.16, 0.042596, , 
93.18, 0.042510, , 
93.21, 0.042501, , 
93.24, 0.042520, , 
93.27, 0.042539, , 
93.30, 0.042510, , 
93.33, 0.042507, , 
93.36, 0.042590, , 
93.39, 0.042590, , 
93.42, 0.042526, , 
93.45, 0.042463, , 
93.48, 0.042618, , 
93.51, 0.042621, , 
93.54, 0.042494, , 
93.57, 0.042456, , 
93.60, 0.042599, , 
93.63, 0.042643, , 
93.67, 0.042555, , 
93.69, 0.042440, , 
93.72, 0.042545, , 
93.75, 0.042574, , 
93.78, 0.042529, , 
93.81, 0.042456, , 
93.84, 0.042456, , 
93.87, 0.042552, , 
93.90, 0.042517, , 
93.93, 0.042491, , 
93.96, 0.042542, , 
93.99, 0.042583, , 
94.02, 0.042536, , 
94.05, 0.042498, , 
94.08, 0.042545, , 
94.11, 0.042472, , 
94.14, 0.042263, , 
94.17, 0.042123, , 
94.20, 0.042069, , 
94.23, 0.042136, , 
94.26, 0.041974, , 
94.29, 0.041911, , 
94.32, 0.042098, , 
94.35, 0.042085, , 
94.38, 0.042085, , 
94.41, 0.042044, , 
94.44, 0.042136, , 
94.47, 0.042177, , 
94.50, 0.042098, , 
94.53, 0.042076, , 
94.56, 0.042165, , 
94.59, 0.042225, , 
94.62, 0.042126, , 
94.65, 0.042088, , 
94.68, 0.042193, , 
94.71, 0.042168, , 
94.74, 0.042117, , 
94.77, 0.042180, , 
94.80, 0.042272, , 
94.83, 0.042263, , 
94.86, 0.042133, , 
94.89, 0.042161, , 
94.92, 0.042231, , 
94.95, 0.042257, , 
94.98, 0.042184, , 
95.01, 0.042114, , 
95.04, 0.042237, , 
95.07, 0.042260, , 
95.10, 0.042177, , 
95.13, 0.042177, , 
95.16, 0.042234, , 
95.19, 0.042247, , 
95.22, 0.042126, , 
95.25, 0.042168, , 
95.28, 0.042260, , 
95.31, 0.042241, , 
95.34, 0.042174, , 
95.37, 0.042199, , 
95.40, 0.042225, , 
95.43, 0.042184, , 
95.46, 0.042069, , 
95.49, 0.042085, , 
95.52, 0.042222, , 
95.55, 0.042212, , 
95.58, 0.042079, , 
95.61, 0.042092, , 
95.64, 0.042228, , 
95.67, 0.042222, , 
95.70, 0.042073, , 
95.73, 0.042054, , 
95.76, 0.042158, , 
95.79, 0.042133, , 
95.82, 0.042095, , 
95.85, 0.042104, , 
95.88, 0.042199, , 
95.91, 0.042171, , 
95.94, 0.042126, , 
95.97, 0.042088, , 
96.00, 0.042133, , 
