Gradient Profiler Text Data File: 20240419_MV_A_30.csv
Date: 2024-04-19
Time: 15:13:04

User: jared
Experiment name: 
UV Unit: EM-1
Rotor Manufacturer: Beckman
Rotor Model: SW28.1
Speed: 28 rpm
Gradient: sucrose 10.0% to 50.0% w/v
Time: 4
w2t:  x 10^0
Sample Volume: 18 ml
Number of Tubes: 6
Volume per mm: 0.183 ml/mm

Absorbance Units Full Scale (AUFS): 2.00
Event Mark-triggered gradient; (with distance; auto start and stop)
Delay: No Delay
UV Wavelength: 254 nm
Samples / sec: 10 Hz
EM1 Speed: 0.30 mm/sec
Distance: 3.20 mm
Number: 30
Dead Volume: 0.000000 ml; Distance due to Dead Volume: 0.00 mm
Total Distance: 96.00 mm

Data Columns:
Distance(mm), Absorbance, Fraction Number, Fraction Volume(ml)
0.00, 0.096493, 0, 0.000
0.03, 0.096506, , 
0.06, 0.096478, , 
0.09, 0.096433, , 
0.12, 0.096360, , 
0.15, 0.096370, , 
0.18, 0.096452, , 
0.21, 0.096627, , 
0.24, 0.097077, , 
0.27, 0.097778, , 
0.31, 0.098485, , 
0.33, 0.099040, , 
0.36, 0.099545, , 
0.39, 0.100021, , 
0.42, 0.100649, , 
0.45, 0.101004, , 
0.48, 0.101207, , 
0.51, 0.101477, , 
0.54, 0.101946, , 
0.57, 0.103900, , 
0.60, 0.109365, , 
0.63, 0.126643, , 
0.66, 0.156472, , 
0.69, 0.201155, , 
0.72, 0.257406, , 
0.75, 0.320816, , 
0.78, 0.399508, , 
0.81, 0.469024, , 
0.84, 0.539416, , 
0.87, 0.622600, , 
0.90, 0.694365, , 
0.93, 0.766397, , 
0.96, 0.838764, , 
0.99, 0.911417, , 
1.02, 0.996409, , 
1.05, 1.069304, , 
1.08, 1.153883, , 
1.11, 1.224468, , 
1.14, 1.279428, , 
1.17, 1.344735, , 
1.20, 1.385396, , 
1.23, 1.415574, , 
1.26, 1.430590, , 
1.29, 1.439380, , 
1.32, 1.445495, , 
1.35, 1.448556, , 
1.38, 1.451842, , 
1.41, 1.453993, , 
1.44, 1.455579, , 
1.47, 1.456870, , 
1.50, 1.457364, , 
1.53, 1.457079, , 
1.56, 1.456486, , 
1.59, 1.455242, , 
1.62, 1.452616, , 
1.65, 1.449079, , 
1.68, 1.443484, , 
1.71, 1.437467, , 
1.74, 1.430171, , 
1.77, 1.421522, , 
1.80, 1.411882, , 
1.83, 1.399407, , 
1.86, 1.387585, , 
1.89, 1.374682, , 
1.92, 1.358559, , 
1.95, 1.344076, , 
1.98, 1.329060, , 
2.01, 1.313552, , 
2.04, 1.297461, , 
2.07, 1.277814, , 
2.10, 1.259835, , 
2.13, 1.237486, , 
2.16, 1.217366, , 
2.19, 1.200082, , 
2.22, 1.175208, , 
2.25, 1.153487, , 
2.28, 1.131616, , 
2.31, 1.106022, , 
2.34, 1.083920, , 
2.37, 1.058224, , 
2.40, 1.040109, , 
2.43, 1.018305, , 
2.46, 0.992406, , 
2.49, 0.969810, , 
2.52, 0.943375, , 
2.55, 0.920794, , 
2.58, 0.898466, , 
2.61, 0.876916, , 
2.64, 0.856349, , 
2.67, 0.833575, , 
2.70, 0.815064, , 
2.73, 0.797494, , 
2.76, 0.778333, , 
2.79, 0.762793, , 
2.82, 0.747752, , 
2.85, 0.733129, , 
2.88, 0.718909, , 
2.91, 0.702714, , 
2.94, 0.689141, , 
2.97, 0.673963, , 
3.00, 0.661723, , 
3.03, 0.651912, , 
3.06, 0.638507, , 
3.09, 0.627263, , 
3.12, 0.614458, , 
3.15, 0.603616, , 
3.18, 0.592727, , 
3.18, 0.590925, 1, 0.583
3.21, 0.580423, , 
3.24, 0.571916, , 
3.27, 0.560059, , 
3.30, 0.549899, , 
3.33, 0.540101, , 
3.36, 0.529351, , 
3.39, 0.520438, , 
3.42, 0.510361, , 
3.45, 0.503373, , 
3.48, 0.495161, , 
3.51, 0.485480, , 
3.54, 0.477183, , 
3.57, 0.467914, , 
3.60, 0.460168, , 
3.63, 0.452645, , 
3.66, 0.445298, , 
3.69, 0.438162, , 
3.72, 0.430086, , 
3.75, 0.423253, , 
3.78, 0.416583, , 
3.81, 0.409132, , 
3.84, 0.402836, , 
3.87, 0.396511, , 
3.90, 0.390180, , 
3.93, 0.384064, , 
3.96, 0.377251, , 
3.99, 0.371729, , 
4.02, 0.365673, , 
4.05, 0.360757, , 
4.08, 0.356732, , 
4.11, 0.350876, , 
4.14, 0.345769, , 
4.17, 0.340028, , 
4.20, 0.335229, , 
4.23, 0.330459, , 
4.27, 0.325038, , 
4.29, 0.321228, , 
4.32, 0.316014, , 
4.35, 0.311573, , 
4.38, 0.307418, , 
4.41, 0.302869, , 
4.44, 0.299044, , 
4.47, 0.295260, , 
4.50, 0.291396, , 
4.53, 0.287663, , 
4.56, 0.283197, , 
4.59, 0.279321, , 
4.62, 0.275010, , 
4.65, 0.271419, , 
4.68, 0.268365, , 
4.71, 0.264032, , 
4.74, 0.260517, , 
4.77, 0.256689, , 
4.80, 0.253365, , 
4.83, 0.249948, , 
4.86, 0.246015, , 
4.89, 0.243240, , 
4.92, 0.239224, , 
4.95, 0.235681, , 
4.98, 0.232201, , 
5.01, 0.228195, , 
5.04, 0.224630, , 
5.07, 0.220488, , 
5.10, 0.217614, , 
5.13, 0.214179, , 
5.16, 0.210261, , 
5.19, 0.206921, , 
5.22, 0.203346, , 
5.25, 0.200333, , 
5.28, 0.197355, , 
5.31, 0.194560, , 
5.34, 0.191877, , 
5.37, 0.188838, , 
5.40, 0.186091, , 
5.43, 0.183398, , 
5.46, 0.180385, , 
5.49, 0.177860, , 
5.52, 0.175332, , 
5.55, 0.172804, , 
5.58, 0.170419, , 
5.61, 0.167840, , 
5.64, 0.165496, , 
5.67, 0.162898, , 
5.70, 0.160833, , 
5.73, 0.159149, , 
5.76, 0.156684, , 
5.79, 0.154752, , 
5.82, 0.152697, , 
5.85, 0.150756, , 
5.88, 0.148821, , 
5.92, 0.146851, , 
5.94, 0.145516, , 
5.97, 0.143705, , 
6.00, 0.142074, , 
6.03, 0.140533, , 
6.06, 0.138940, , 
6.09, 0.137551, , 
6.13, 0.135857, , 
6.15, 0.134753, , 
6.18, 0.133510, , 
6.21, 0.132041, , 
6.24, 0.130836, , 
6.27, 0.129780, , 
6.30, 0.128762, , 
6.33, 0.127464, , 
6.36, 0.126281, , 
6.38, 0.125421, 2, 0.586
6.39, 0.125063, , 
6.42, 0.124035, , 
6.45, 0.123033, , 
6.48, 0.121612, , 
6.51, 0.120603, , 
6.54, 0.119417, , 
6.57, 0.118358, , 
6.60, 0.117254, , 
6.63, 0.116125, , 
6.66, 0.115427, , 
6.69, 0.114332, , 
6.72, 0.113409, , 
6.75, 0.112550, , 
6.78, 0.111560, , 
6.81, 0.110701, , 
6.84, 0.109654, , 
6.87, 0.109004, , 
6.90, 0.108331, , 
6.93, 0.107497, , 
6.96, 0.106774, , 
6.99, 0.105971, , 
7.02, 0.105426, , 
7.05, 0.104772, , 
7.08, 0.104131, , 
7.11, 0.103570, , 
7.14, 0.102996, , 
7.17, 0.102393, , 
7.20, 0.101902, , 
7.23, 0.101489, , 
7.26, 0.101013, , 
7.29, 0.100420, , 
7.32, 0.099891, , 
7.35, 0.099342, , 
7.38, 0.098774, , 
7.41, 0.098238, , 
7.44, 0.097699, , 
7.47, 0.097280, , 
7.50, 0.096909, , 
7.53, 0.096284, , 
7.56, 0.095691, , 
7.59, 0.095206, , 
7.62, 0.094657, , 
7.65, 0.094083, , 
7.68, 0.093594, , 
7.71, 0.093134, , 
7.74, 0.092700, , 
7.78, 0.092180, , 
7.80, 0.091961, , 
7.83, 0.091631, , 
7.86, 0.091228, , 
7.89, 0.090755, , 
7.92, 0.090340, , 
7.95, 0.090073, , 
7.99, 0.089693, , 
8.01, 0.089252, , 
8.04, 0.088979, , 
8.07, 0.088735, , 
8.10, 0.088364, , 
8.13, 0.087986, , 
8.16, 0.087771, , 
8.19, 0.087580, , 
8.22, 0.087314, , 
8.25, 0.087025, , 
8.28, 0.086867, , 
8.31, 0.086651, , 
8.34, 0.086324, , 
8.37, 0.085928, , 
8.40, 0.085798, , 
8.43, 0.085588, , 
8.46, 0.085319, , 
8.49, 0.084967, , 
8.52, 0.084799, , 
8.55, 0.084567, , 
8.58, 0.084367, , 
8.61, 0.084031, , 
8.64, 0.083875, , 
8.67, 0.083679, , 
8.70, 0.083368, , 
8.73, 0.083225, , 
8.76, 0.083171, , 
8.79, 0.082978, , 
8.82, 0.082705, , 
8.85, 0.082594, , 
8.88, 0.082584, , 
8.91, 0.082550, , 
8.94, 0.082426, , 
8.97, 0.082331, , 
9.00, 0.082264, , 
9.03, 0.082153, , 
9.06, 0.082080, , 
9.09, 0.082042, , 
9.12, 0.082118, , 
9.15, 0.082074, , 
9.18, 0.081988, , 
9.21, 0.082023, , 
9.24, 0.082134, , 
9.27, 0.082125, , 
9.30, 0.082026, , 
9.33, 0.082010, , 
9.36, 0.082147, , 
9.39, 0.082258, , 
9.42, 0.082321, , 
9.45, 0.082401, , 
9.48, 0.082546, , 
9.51, 0.082537, , 
9.55, 0.082575, , 
9.57, 0.082721, , 
9.59, 0.082848, 3, 0.586
9.60, 0.082937, , 
9.63, 0.083105, , 
9.66, 0.083200, , 
9.69, 0.083511, , 
9.72, 0.083742, , 
9.76, 0.083869, , 
9.78, 0.084072, , 
9.81, 0.084294, , 
9.84, 0.084481, , 
9.87, 0.084595, , 
9.90, 0.084732, , 
9.93, 0.084998, , 
9.97, 0.085195, , 
9.99, 0.085427, , 
10.02, 0.085579, , 
10.05, 0.085839, , 
10.08, 0.086102, , 
10.11, 0.086334, , 
10.14, 0.086546, , 
10.17, 0.086759, , 
10.20, 0.086974, , 
10.23, 0.087216, , 
10.26, 0.087507, , 
10.29, 0.087698, , 
10.32, 0.087885, , 
10.35, 0.087923, , 
10.38, 0.088094, , 
10.41, 0.088392, , 
10.44, 0.088545, , 
10.47, 0.088678, , 
10.50, 0.088805, , 
10.53, 0.088966, , 
10.57, 0.089077, , 
10.59, 0.089144, , 
10.62, 0.089211, , 
10.65, 0.089306, , 
10.68, 0.089382, , 
10.71, 0.089420, , 
10.74, 0.089550, , 
10.77, 0.089817, , 
10.80, 0.089829, , 
10.83, 0.089769, , 
10.86, 0.089699, , 
10.89, 0.089683, , 
10.92, 0.089522, , 
10.95, 0.089439, , 
10.98, 0.089426, , 
11.01, 0.089382, , 
11.04, 0.089227, , 
11.07, 0.089024, , 
11.10, 0.088944, , 
11.13, 0.088830, , 
11.16, 0.088665, , 
11.19, 0.088323, , 
11.22, 0.088183, , 
11.25, 0.088031, , 
11.28, 0.087656, , 
11.31, 0.087342, , 
11.34, 0.087130, , 
11.37, 0.087000, , 
11.40, 0.086638, , 
11.43, 0.086346, , 
11.46, 0.086067, , 
11.49, 0.085779, , 
11.52, 0.085350, , 
11.55, 0.085027, , 
11.58, 0.084776, , 
11.61, 0.084497, , 
11.64, 0.084148, , 
11.67, 0.083809, , 
11.70, 0.083517, , 
11.73, 0.083206, , 
11.76, 0.082740, , 
11.79, 0.082407, , 
11.82, 0.082131, , 
11.85, 0.081750, , 
11.88, 0.081392, , 
11.91, 0.081043, , 
11.94, 0.080796, , 
11.97, 0.080450, , 
12.00, 0.080006, , 
12.03, 0.079650, , 
12.06, 0.079359, , 
12.09, 0.079038, , 
12.12, 0.078550, , 
12.15, 0.078093, , 
12.18, 0.077833, , 
12.21, 0.077440, , 
12.24, 0.077065, , 
12.27, 0.076739, , 
12.30, 0.076466, , 
12.33, 0.076025, , 
12.36, 0.075597, , 
12.39, 0.075340, , 
12.42, 0.075051, , 
12.45, 0.074772, , 
12.48, 0.074429, , 
12.51, 0.074090, , 
12.54, 0.073839, , 
12.57, 0.073583, , 
12.60, 0.073215, , 
12.63, 0.072920, , 
12.66, 0.072771, , 
12.69, 0.072498, , 
12.72, 0.072142, , 
12.75, 0.071949, , 
12.78, 0.071822, , 
12.79, 0.071724, 4, 0.586
12.81, 0.071499, , 
12.84, 0.071245, , 
12.87, 0.071016, , 
12.90, 0.070829, , 
12.93, 0.070515, , 
12.96, 0.070217, , 
12.99, 0.070103, , 
13.02, 0.069906, , 
13.05, 0.069618, , 
13.08, 0.069348, , 
13.11, 0.069148, , 
13.14, 0.069021, , 
13.17, 0.068739, , 
13.20, 0.068495, , 
13.23, 0.068377, , 
13.26, 0.068244, , 
13.29, 0.067990, , 
13.32, 0.067721, , 
13.35, 0.067607, , 
13.38, 0.067419, , 
13.41, 0.067147, , 
13.45, 0.067039, , 
13.47, 0.067048, , 
13.50, 0.066934, , 
13.53, 0.066699, , 
13.56, 0.066582, , 
13.59, 0.066582, , 
13.62, 0.066487, , 
13.65, 0.066398, , 
13.68, 0.066255, , 
13.71, 0.066243, , 
13.74, 0.066078, , 
13.77, 0.065935, , 
13.80, 0.065970, , 
13.83, 0.066062, , 
13.86, 0.065878, , 
13.89, 0.065707, , 
13.92, 0.065631, , 
13.95, 0.065615, , 
13.98, 0.065494, , 
14.01, 0.065427, , 
14.04, 0.065370, , 
14.07, 0.065351, , 
14.10, 0.065180, , 
14.13, 0.065085, , 
14.16, 0.065009, , 
14.19, 0.064872, , 
14.22, 0.064704, , 
14.25, 0.064590, , 
14.28, 0.064562, , 
14.31, 0.064489, , 
14.34, 0.064282, , 
14.38, 0.064149, , 
14.40, 0.064156, , 
14.43, 0.064171, , 
14.46, 0.064029, , 
14.49, 0.063838, , 
14.52, 0.063743, , 
14.55, 0.063670, , 
14.58, 0.063515, , 
14.61, 0.063391, , 
14.64, 0.063312, , 
14.67, 0.063226, , 
14.70, 0.063049, , 
14.73, 0.063010, , 
14.76, 0.063080, , 
14.79, 0.063026, , 
14.82, 0.062807, , 
14.85, 0.062668, , 
14.88, 0.062677, , 
14.91, 0.062633, , 
14.94, 0.062421, , 
14.97, 0.062211, , 
15.00, 0.062176, , 
15.03, 0.062113, , 
15.06, 0.061919, , 
15.09, 0.061770, , 
15.12, 0.061770, , 
15.15, 0.061656, , 
15.18, 0.061555, , 
15.21, 0.061437, , 
15.24, 0.061390, , 
15.27, 0.061222, , 
15.30, 0.061025, , 
15.33, 0.060911, , 
15.36, 0.060885, , 
15.39, 0.060724, , 
15.42, 0.060593, , 
15.45, 0.060632, , 
15.48, 0.060616, , 
15.51, 0.060514, , 
15.54, 0.060333, , 
15.57, 0.060197, , 
15.60, 0.060137, , 
15.63, 0.060115, , 
15.66, 0.060115, , 
15.69, 0.060023, , 
15.72, 0.059816, , 
15.75, 0.059743, , 
15.78, 0.059699, , 
15.81, 0.059651, , 
15.84, 0.059674, , 
15.87, 0.059597, , 
15.90, 0.059493, , 
15.93, 0.059480, , 
15.97, 0.059360, , 
15.99, 0.059245, 5, 0.586
16.00, 0.059195, , 
16.02, 0.059115, , 
16.05, 0.059176, , 
16.08, 0.059198, , 
16.11, 0.059077, , 
16.14, 0.059052, , 
16.17, 0.059207, , 
16.20, 0.059230, , 
16.23, 0.059008, , 
16.26, 0.058979, , 
16.29, 0.059084, , 
16.32, 0.059144, , 
16.35, 0.059084, , 
16.38, 0.059112, , 
16.41, 0.059195, , 
16.44, 0.059207, , 
16.47, 0.059103, , 
16.50, 0.059084, , 
16.53, 0.059141, , 
16.56, 0.059077, , 
16.59, 0.059017, , 
16.62, 0.059071, , 
16.65, 0.059150, , 
16.68, 0.059268, , 
16.71, 0.059347, , 
16.74, 0.059490, , 
16.77, 0.059721, , 
16.80, 0.059829, , 
16.83, 0.059956, , 
16.86, 0.060118, , 
16.89, 0.060308, , 
16.92, 0.060416, , 
16.95, 0.060546, , 
16.98, 0.060768, , 
17.01, 0.060980, , 
17.04, 0.061117, , 
17.07, 0.061437, , 
17.10, 0.061751, , 
17.13, 0.062141, , 
17.16, 0.062351, , 
17.19, 0.062573, , 
17.22, 0.063010, , 
17.25, 0.063274, , 
17.28, 0.063639, , 
17.31, 0.064048, , 
17.34, 0.064460, , 
17.37, 0.064933, , 
17.40, 0.065374, , 
17.43, 0.065954, , 
17.46, 0.066392, , 
17.49, 0.066979, , 
17.52, 0.067467, , 
17.55, 0.068041, , 
17.58, 0.068701, , 
17.61, 0.069354, , 
17.64, 0.069856, , 
17.68, 0.070407, , 
17.70, 0.070915, , 
17.73, 0.071419, , 
17.76, 0.072009, , 
17.79, 0.072602, , 
17.82, 0.073370, , 
17.85, 0.073944, , 
17.88, 0.074410, , 
17.91, 0.074962, , 
17.94, 0.075546, , 
17.97, 0.076228, , 
18.00, 0.076732, , 
18.03, 0.077275, , 
18.06, 0.077858, , 
18.10, 0.078290, , 
18.12, 0.078743, , 
18.15, 0.079254, , 
18.18, 0.079708, , 
18.21, 0.080012, , 
18.24, 0.080278, , 
18.27, 0.080688, , 
18.30, 0.081018, , 
18.33, 0.081443, , 
18.36, 0.081696, , 
18.39, 0.082058, , 
18.42, 0.082264, , 
18.45, 0.082426, , 
18.48, 0.082629, , 
18.51, 0.082762, , 
18.54, 0.082841, , 
18.57, 0.082981, , 
18.60, 0.083200, , 
18.63, 0.083362, , 
18.66, 0.083425, , 
18.69, 0.083406, , 
18.72, 0.083450, , 
18.75, 0.083508, , 
18.78, 0.083438, , 
18.81, 0.083371, , 
18.84, 0.083473, , 
18.87, 0.083530, , 
18.91, 0.083435, , 
18.93, 0.083346, , 
18.96, 0.083206, , 
18.99, 0.083178, , 
19.02, 0.083067, , 
19.05, 0.082971, , 
19.08, 0.082879, , 
19.11, 0.082718, , 
19.14, 0.082524, , 
19.17, 0.082312, , 
19.19, 0.082283, 6, 0.585
19.20, 0.082274, , 
19.23, 0.082083, , 
19.26, 0.081722, , 
19.29, 0.081582, , 
19.32, 0.081455, , 
19.35, 0.081309, , 
19.38, 0.081119, , 
19.41, 0.080843, , 
19.44, 0.080757, , 
19.47, 0.080583, , 
19.50, 0.080298, , 
19.53, 0.080114, , 
19.56, 0.080031, , 
19.59, 0.079844, , 
19.62, 0.079454, , 
19.65, 0.079267, , 
19.68, 0.079086, , 
19.71, 0.078845, , 
19.75, 0.078639, , 
19.77, 0.078432, , 
19.80, 0.078302, , 
19.83, 0.078039, , 
19.86, 0.077731, , 
19.89, 0.077506, , 
19.92, 0.077214, , 
19.95, 0.076916, , 
19.98, 0.076593, , 
20.01, 0.076342, , 
20.04, 0.076209, , 
20.07, 0.075758, , 
20.10, 0.075432, , 
20.13, 0.075330, , 
20.16, 0.075051, , 
20.19, 0.074648, , 
20.22, 0.074363, , 
20.25, 0.074160, , 
20.28, 0.074008, , 
20.31, 0.073611, , 
20.34, 0.073253, , 
20.37, 0.073027, , 
20.40, 0.072812, , 
20.43, 0.072450, , 
20.46, 0.072212, , 
20.49, 0.071965, , 
20.52, 0.071667, , 
20.55, 0.071353, , 
20.58, 0.071048, , 
20.61, 0.070890, , 
20.64, 0.070614, , 
20.67, 0.070211, , 
20.70, 0.069951, , 
20.73, 0.069767, , 
20.76, 0.069437, , 
20.79, 0.069005, , 
20.82, 0.068790, , 
20.85, 0.068603, , 
20.88, 0.068254, , 
20.91, 0.068028, , 
20.94, 0.067794, , 
20.97, 0.067689, , 
21.00, 0.067458, , 
21.03, 0.067061, , 
21.06, 0.066909, , 
21.09, 0.066823, , 
21.12, 0.066680, , 
21.15, 0.066427, , 
21.18, 0.066182, , 
21.21, 0.066081, , 
21.24, 0.065846, , 
21.27, 0.065640, , 
21.30, 0.065618, , 
21.33, 0.065570, , 
21.36, 0.065364, , 
21.39, 0.065167, , 
21.42, 0.065209, , 
21.45, 0.065110, , 
21.48, 0.064882, , 
21.51, 0.064720, , 
21.55, 0.064733, , 
21.57, 0.064723, , 
21.60, 0.064635, , 
21.63, 0.064543, , 
21.66, 0.064539, , 
21.69, 0.064409, , 
21.72, 0.064248, , 
21.76, 0.064178, , 
21.78, 0.064194, , 
21.81, 0.064133, , 
21.84, 0.064108, , 
21.87, 0.064098, , 
21.90, 0.064190, , 
21.93, 0.064159, , 
21.96, 0.064070, , 
21.99, 0.064114, , 
22.02, 0.064200, , 
22.05, 0.064117, , 
22.08, 0.064035, , 
22.12, 0.064133, , 
22.14, 0.064241, , 
22.17, 0.064336, , 
22.20, 0.064432, , 
22.23, 0.064609, , 
22.26, 0.064638, , 
22.29, 0.064660, , 
22.32, 0.064746, , 
22.35, 0.064939, , 
22.38, 0.065167, , 
22.39, 0.065177, 7, 0.586
22.41, 0.065307, , 
22.44, 0.065440, , 
22.47, 0.065688, , 
22.50, 0.066014, , 
22.53, 0.066182, , 
22.56, 0.066423, , 
22.59, 0.066817, , 
22.62, 0.067147, , 
22.65, 0.067486, , 
22.68, 0.067946, , 
22.71, 0.068495, , 
22.74, 0.068961, , 
22.77, 0.069608, , 
22.80, 0.070265, , 
22.83, 0.071013, , 
22.86, 0.071797, , 
22.89, 0.072650, , 
22.92, 0.073827, , 
22.95, 0.074950, , 
22.98, 0.076199, , 
23.01, 0.077671, , 
23.04, 0.079219, , 
23.07, 0.080957, , 
23.10, 0.082730, , 
23.13, 0.084586, , 
23.16, 0.087006, , 
23.19, 0.089338, , 
23.22, 0.092224, , 
23.25, 0.094911, , 
23.29, 0.098045, , 
23.31, 0.101359, , 
23.34, 0.104753, , 
23.37, 0.109051, , 
23.40, 0.113130, , 
23.43, 0.117447, , 
23.46, 0.122602, , 
23.49, 0.126598, , 
23.52, 0.132501, , 
23.55, 0.137843, , 
23.58, 0.143273, , 
23.61, 0.150061, , 
23.64, 0.156173, , 
23.67, 0.163545, , 
23.70, 0.168820, , 
23.73, 0.175383, , 
23.76, 0.183439, , 
23.79, 0.190360, , 
23.82, 0.197250, , 
23.85, 0.205529, , 
23.88, 0.212555, , 
23.91, 0.220773, , 
23.94, 0.226673, , 
23.97, 0.233734, , 
24.00, 0.241927, , 
24.03, 0.248737, , 
24.06, 0.256492, , 
24.09, 0.263039, , 
24.12, 0.269326, , 
24.15, 0.275340, , 
24.18, 0.281224, , 
24.21, 0.287923, , 
24.24, 0.293366, , 
24.27, 0.298498, , 
24.30, 0.303446, , 
24.33, 0.308861, , 
24.36, 0.313225, , 
24.39, 0.318009, , 
24.42, 0.321831, , 
24.45, 0.324825, , 
24.48, 0.328670, , 
24.51, 0.331585, , 
24.54, 0.334715, , 
24.57, 0.337104, , 
24.60, 0.339194, , 
24.63, 0.340964, , 
24.66, 0.342563, , 
24.69, 0.344196, , 
24.72, 0.345262, , 
24.75, 0.346064, , 
24.78, 0.346784, , 
24.81, 0.347235, , 
24.84, 0.347514, , 
24.87, 0.347555, , 
24.90, 0.347520, , 
24.93, 0.347346, , 
24.96, 0.347032, , 
24.99, 0.346512, , 
25.02, 0.345757, , 
25.05, 0.345106, , 
25.08, 0.343968, , 
25.11, 0.342832, , 
25.14, 0.341541, , 
25.17, 0.340368, , 
25.20, 0.338912, , 
25.23, 0.337415, , 
25.26, 0.335879, , 
25.29, 0.333973, , 
25.32, 0.332140, , 
25.35, 0.330233, , 
25.38, 0.328035, , 
25.41, 0.326056, , 
25.44, 0.323848, , 
25.47, 0.321577, , 
25.50, 0.319268, , 
25.53, 0.316512, , 
25.56, 0.313961, , 
25.58, 0.311820, 8, 0.585
25.59, 0.310973, , 
25.62, 0.308528, , 
25.65, 0.306390, , 
25.68, 0.303357, , 
25.71, 0.300861, , 
25.74, 0.297956, , 
25.77, 0.295326, , 
25.80, 0.292500, , 
25.83, 0.289347, , 
25.86, 0.287288, , 
25.89, 0.283990, , 
25.92, 0.281106, , 
25.95, 0.278499, , 
25.98, 0.275628, , 
26.01, 0.272583, , 
26.04, 0.269319, , 
26.07, 0.267093, , 
26.10, 0.264362, , 
26.13, 0.261006, , 
26.16, 0.258123, , 
26.19, 0.254919, , 
26.22, 0.252109, , 
26.25, 0.249108, , 
26.28, 0.246447, , 
26.31, 0.243497, , 
26.34, 0.240268, , 
26.37, 0.237384, , 
26.40, 0.234527, , 
26.43, 0.231313, , 
26.46, 0.228468, , 
26.49, 0.225509, , 
26.52, 0.222714, , 
26.55, 0.220120, , 
26.58, 0.217052, , 
26.61, 0.214296, , 
26.64, 0.211165, , 
26.67, 0.208650, , 
26.70, 0.206560, , 
26.73, 0.203581, , 
26.76, 0.201037, , 
26.79, 0.198208, , 
26.82, 0.195759, , 
26.85, 0.193272, , 
26.88, 0.190535, , 
26.91, 0.188625, , 
26.94, 0.185971, , 
26.97, 0.183684, , 
27.00, 0.181549, , 
27.03, 0.179113, , 
27.06, 0.176975, , 
27.09, 0.174501, , 
27.12, 0.172832, , 
27.15, 0.170739, , 
27.18, 0.168350, , 
27.21, 0.166308, , 
27.24, 0.164103, , 
27.27, 0.162146, , 
27.30, 0.160154, , 
27.33, 0.158305, , 
27.36, 0.156459, , 
27.39, 0.154321, , 
27.42, 0.152354, , 
27.45, 0.150480, , 
27.48, 0.148548, , 
27.51, 0.147178, , 
27.54, 0.145135, , 
27.57, 0.143476, , 
27.60, 0.141979, , 
27.63, 0.140168, , 
27.66, 0.138522, , 
27.69, 0.136726, , 
27.72, 0.135553, , 
27.75, 0.134078, , 
27.78, 0.132273, , 
27.81, 0.130836, , 
27.84, 0.129266, , 
27.87, 0.127889, , 
27.90, 0.126417, , 
27.93, 0.125117, , 
27.96, 0.123889, , 
27.99, 0.122430, , 
28.02, 0.121219, , 
28.05, 0.120032, , 
28.08, 0.118599, , 
28.11, 0.117409, , 
28.14, 0.116201, , 
28.17, 0.115106, , 
28.20, 0.114053, , 
28.23, 0.112746, , 
28.26, 0.111598, , 
28.29, 0.110390, , 
28.32, 0.109330, , 
28.35, 0.108322, , 
28.38, 0.107005, , 
28.41, 0.106019, , 
28.44, 0.104855, , 
28.47, 0.103770, , 
28.50, 0.102787, , 
28.53, 0.101759, , 
28.56, 0.101036, , 
28.59, 0.099944, , 
28.62, 0.099040, , 
28.65, 0.098165, , 
28.68, 0.097147, , 
28.71, 0.096224, , 
28.74, 0.095234, , 
28.77, 0.094524, , 
28.79, 0.094099, 9, 0.586
28.80, 0.093664, , 
28.83, 0.092611, , 
28.86, 0.091859, , 
28.89, 0.091009, , 
28.92, 0.090232, , 
28.95, 0.089388, , 
28.98, 0.088671, , 
29.01, 0.088037, , 
29.04, 0.087254, , 
29.07, 0.086467, , 
29.10, 0.085804, , 
29.13, 0.085166, , 
29.16, 0.084497, , 
29.19, 0.083736, , 
29.22, 0.083216, , 
29.25, 0.082734, , 
29.28, 0.081960, , 
29.31, 0.081224, , 
29.34, 0.080707, , 
29.37, 0.080155, , 
29.40, 0.079568, , 
29.43, 0.078804, , 
29.46, 0.078372, , 
29.49, 0.077852, , 
29.52, 0.077224, , 
29.55, 0.076650, , 
29.59, 0.076031, , 
29.61, 0.075638, , 
29.64, 0.074994, , 
29.67, 0.074509, , 
29.70, 0.074049, , 
29.73, 0.073592, , 
29.76, 0.073123, , 
29.80, 0.072583, , 
29.82, 0.072307, , 
29.85, 0.071905, , 
29.88, 0.071273, , 
29.91, 0.070890, , 
29.94, 0.070499, , 
29.97, 0.070046, , 
30.00, 0.069548, , 
30.03, 0.069259, , 
30.06, 0.068986, , 
30.09, 0.068603, , 
30.13, 0.068203, , 
30.15, 0.067810, , 
30.18, 0.067537, , 
30.21, 0.067166, , 
30.24, 0.066807, , 
30.27, 0.066379, , 
30.30, 0.066021, , 
30.33, 0.065805, , 
30.36, 0.065364, , 
30.39, 0.065174, , 
30.42, 0.064980, , 
30.45, 0.064527, , 
30.48, 0.064168, , 
30.51, 0.063943, , 
30.54, 0.063750, , 
30.57, 0.063388, , 
30.60, 0.063001, , 
30.63, 0.062795, , 
30.66, 0.062541, , 
30.69, 0.062259, , 
30.72, 0.061992, , 
30.75, 0.061821, , 
30.78, 0.061675, , 
30.81, 0.061352, , 
30.84, 0.061110, , 
30.87, 0.060968, , 
30.90, 0.060663, , 
30.93, 0.060359, , 
30.96, 0.060241, , 
30.99, 0.060105, , 
31.02, 0.059940, , 
31.05, 0.059613, , 
31.08, 0.059458, , 
31.11, 0.059366, , 
31.14, 0.059153, , 
31.17, 0.058808, , 
31.20, 0.058605, , 
31.23, 0.058544, , 
31.26, 0.058364, , 
31.29, 0.058053, , 
31.32, 0.057920, , 
31.35, 0.057770, , 
31.38, 0.057580, , 
31.41, 0.057399, , 
31.44, 0.057225, , 
31.47, 0.057146, , 
31.50, 0.056933, , 
31.53, 0.056705, , 
31.56, 0.056587, , 
31.59, 0.056460, , 
31.62, 0.056194, , 
31.65, 0.055969, , 
31.68, 0.055909, , 
31.71, 0.055864, , 
31.74, 0.055582, , 
31.77, 0.055417, , 
31.81, 0.055334, , 
31.83, 0.055214, , 
31.86, 0.055052, , 
31.89, 0.054868, , 
31.92, 0.054881, , 
31.95, 0.054694, , 
31.98, 0.054503, 10, 0.585
31.99, 0.054475, , 
32.01, 0.054434, , 
32.04, 0.054430, , 
32.07, 0.054367, , 
32.10, 0.054196, , 
32.13, 0.054104, , 
32.16, 0.054034, , 
32.19, 0.053929, , 
32.22, 0.053748, , 
32.25, 0.053748, , 
32.28, 0.053809, , 
32.31, 0.053717, , 
32.35, 0.053517, , 
32.37, 0.053441, , 
32.40, 0.053342, , 
32.43, 0.053200, , 
32.46, 0.053143, , 
32.49, 0.053219, , 
32.52, 0.053181, , 
32.55, 0.053146, , 
32.58, 0.053127, , 
32.61, 0.053244, , 
32.64, 0.053279, , 
32.67, 0.053158, , 
32.70, 0.053127, , 
32.73, 0.053282, , 
32.76, 0.053428, , 
32.79, 0.053517, , 
32.82, 0.053542, , 
32.85, 0.053698, , 
32.88, 0.053698, , 
32.91, 0.053685, , 
32.94, 0.053812, , 
32.97, 0.054037, , 
33.00, 0.054145, , 
33.03, 0.054129, , 
33.06, 0.054240, , 
33.09, 0.054484, , 
33.12, 0.054548, , 
33.15, 0.054538, , 
33.18, 0.054678, , 
33.21, 0.054909, , 
33.24, 0.055005, , 
33.27, 0.055119, , 
33.30, 0.055287, , 
33.33, 0.055522, , 
33.36, 0.055607, , 
33.39, 0.055725, , 
33.42, 0.055899, , 
33.45, 0.056235, , 
33.48, 0.056365, , 
33.51, 0.056441, , 
33.54, 0.056663, , 
33.57, 0.056911, , 
33.61, 0.057133, , 
33.63, 0.057247, , 
33.66, 0.057536, , 
33.69, 0.057805, , 
33.72, 0.057973, , 
33.75, 0.058208, , 
33.78, 0.058548, , 
33.82, 0.058874, , 
33.84, 0.059039, , 
33.87, 0.059207, , 
33.90, 0.059379, , 
33.93, 0.059604, , 
33.96, 0.059762, , 
33.99, 0.060023, , 
34.02, 0.060276, , 
34.05, 0.060498, , 
34.08, 0.060660, , 
34.12, 0.060936, , 
34.14, 0.061260, , 
34.17, 0.061409, , 
34.20, 0.061478, , 
34.23, 0.061735, , 
34.26, 0.062046, , 
34.29, 0.062329, , 
34.32, 0.062452, , 
34.35, 0.062582, , 
34.38, 0.062820, , 
34.41, 0.062960, , 
34.44, 0.063010, , 
34.47, 0.063185, , 
34.50, 0.063480, , 
34.53, 0.063613, , 
34.56, 0.063731, , 
34.59, 0.063972, , 
34.62, 0.064171, , 
34.65, 0.064095, , 
34.68, 0.064190, , 
34.71, 0.064501, , 
34.74, 0.064654, , 
34.77, 0.064711, , 
34.80, 0.064787, , 
34.83, 0.065060, , 
34.86, 0.065133, , 
34.89, 0.065104, , 
34.92, 0.065079, , 
34.96, 0.065133, , 
34.98, 0.065120, , 
35.01, 0.065050, , 
35.04, 0.065047, , 
35.07, 0.065167, , 
35.10, 0.065183, , 
35.13, 0.065079, , 
35.16, 0.065088, , 
35.19, 0.065094, 11, 0.588
35.20, 0.065101, , 
35.22, 0.065113, , 
35.25, 0.065047, , 
35.28, 0.065018, , 
35.31, 0.064914, , 
35.34, 0.064784, , 
35.37, 0.064647, , 
35.40, 0.064612, , 
35.43, 0.064501, , 
35.46, 0.064295, , 
35.49, 0.064127, , 
35.52, 0.064127, , 
35.55, 0.063956, , 
35.58, 0.063696, , 
35.61, 0.063502, , 
35.64, 0.063401, , 
35.67, 0.063293, , 
35.70, 0.063160, , 
35.73, 0.062909, , 
35.76, 0.062735, , 
35.79, 0.062547, , 
35.82, 0.062306, , 
35.85, 0.062011, , 
35.88, 0.061840, , 
35.91, 0.061681, , 
35.94, 0.061329, , 
35.97, 0.061079, , 
36.00, 0.060961, , 
36.03, 0.060733, , 
36.06, 0.060508, , 
36.09, 0.060283, , 
36.12, 0.060083, , 
36.15, 0.059889, , 
36.18, 0.059499, , 
36.21, 0.059283, , 
36.24, 0.059185, , 
36.27, 0.058919, , 
36.30, 0.058649, , 
36.33, 0.058411, , 
36.36, 0.058240, , 
36.39, 0.058008, , 
36.42, 0.057694, , 
36.45, 0.057542, , 
36.48, 0.057431, , 
36.51, 0.057155, , 
36.54, 0.056765, , 
36.57, 0.056613, , 
36.60, 0.056483, , 
36.63, 0.056251, , 
36.66, 0.056048, , 
36.69, 0.055937, , 
36.72, 0.055769, , 
36.75, 0.055490, , 
36.78, 0.055176, , 
36.81, 0.055065, , 
36.84, 0.054941, , 
36.87, 0.054754, , 
36.90, 0.054478, , 
36.93, 0.054408, , 
36.96, 0.054291, , 
36.99, 0.054043, , 
37.02, 0.053815, , 
37.05, 0.053688, , 
37.08, 0.053533, , 
37.11, 0.053279, , 
37.14, 0.053114, , 
37.17, 0.053057, , 
37.20, 0.052882, , 
37.23, 0.052679, , 
37.26, 0.052518, , 
37.29, 0.052426, , 
37.32, 0.052318, , 
37.35, 0.052254, , 
37.38, 0.052096, , 
37.41, 0.052036, , 
37.44, 0.051861, , 
37.48, 0.051652, , 
37.50, 0.051522, , 
37.53, 0.051503, , 
37.56, 0.051325, , 
37.59, 0.051116, , 
37.62, 0.051040, , 
37.65, 0.050963, , 
37.69, 0.050833, , 
37.71, 0.050735, , 
37.74, 0.050748, , 
37.77, 0.050741, , 
37.80, 0.050602, , 
37.83, 0.050399, , 
37.86, 0.050351, , 
37.89, 0.050332, , 
37.92, 0.050224, , 
37.95, 0.050107, , 
37.98, 0.050015, , 
38.01, 0.049990, , 
38.04, 0.049825, , 
38.07, 0.049682, , 
38.10, 0.049720, , 
38.13, 0.049749, , 
38.16, 0.049644, , 
38.19, 0.049495, , 
38.22, 0.049311, , 
38.25, 0.049263, , 
38.28, 0.049203, , 
38.31, 0.049190, , 
38.34, 0.049260, , 
38.37, 0.049235, , 
38.39, 0.049251, 12, 0.585
38.40, 0.049216, , 
38.43, 0.049152, , 
38.46, 0.049219, , 
38.49, 0.049038, , 
38.52, 0.048813, , 
38.55, 0.048762, , 
38.58, 0.048775, , 
38.61, 0.048734, , 
38.64, 0.048638, , 
38.67, 0.048673, , 
38.70, 0.048724, , 
38.73, 0.048670, , 
38.76, 0.048651, , 
38.79, 0.048629, , 
38.82, 0.048721, , 
38.85, 0.048696, , 
38.88, 0.048635, , 
38.91, 0.048743, , 
38.94, 0.048791, , 
38.97, 0.048753, , 
39.00, 0.048654, , 
39.03, 0.048721, , 
39.06, 0.048724, , 
39.09, 0.048651, , 
39.12, 0.048594, , 
39.15, 0.048692, , 
39.18, 0.048718, , 
39.21, 0.048664, , 
39.24, 0.048778, , 
39.27, 0.048972, , 
39.30, 0.049117, , 
39.33, 0.049098, , 
39.36, 0.049102, , 
39.39, 0.049225, , 
39.42, 0.049235, , 
39.45, 0.049235, , 
39.48, 0.049238, , 
39.51, 0.049514, , 
39.54, 0.049682, , 
39.57, 0.049628, , 
39.60, 0.049669, , 
39.63, 0.049831, , 
39.66, 0.049926, , 
39.69, 0.049993, , 
39.72, 0.050142, , 
39.75, 0.050282, , 
39.78, 0.050418, , 
39.81, 0.050446, , 
39.84, 0.050561, , 
39.87, 0.050875, , 
39.90, 0.051024, , 
39.93, 0.051027, , 
39.96, 0.051277, , 
39.99, 0.051493, , 
40.02, 0.051623, , 
40.05, 0.051814, , 
40.08, 0.052029, , 
40.11, 0.052128, , 
40.14, 0.052378, , 
40.17, 0.052461, , 
40.20, 0.052660, , 
40.23, 0.052990, , 
40.26, 0.053225, , 
40.29, 0.053434, , 
40.32, 0.053663, , 
40.35, 0.053932, , 
40.38, 0.054088, , 
40.41, 0.054253, , 
40.44, 0.054633, , 
40.48, 0.054954, , 
40.50, 0.055128, , 
40.53, 0.055372, , 
40.56, 0.055686, , 
40.59, 0.055915, , 
40.62, 0.056108, , 
40.65, 0.056445, , 
40.69, 0.056949, , 
40.71, 0.057231, , 
40.74, 0.057393, , 
40.77, 0.057659, , 
40.80, 0.058138, , 
40.83, 0.058414, , 
40.86, 0.058633, , 
40.89, 0.058960, , 
40.92, 0.059312, , 
40.95, 0.059655, , 
40.98, 0.059870, , 
41.01, 0.060165, , 
41.04, 0.060587, , 
41.07, 0.060898, , 
41.10, 0.061152, , 
41.13, 0.061431, , 
41.16, 0.061723, , 
41.19, 0.062078, , 
41.22, 0.062224, , 
41.25, 0.062636, , 
41.28, 0.063045, , 
41.31, 0.063274, , 
41.34, 0.063464, , 
41.38, 0.063803, , 
41.40, 0.064035, , 
41.43, 0.064286, , 
41.46, 0.064539, , 
41.49, 0.064882, , 
41.52, 0.065215, , 
41.55, 0.065396, , 
41.58, 0.065637, , 
41.59, 0.065675, 13, 0.585
41.61, 0.065881, , 
41.64, 0.066087, , 
41.67, 0.066189, , 
41.70, 0.066325, , 
41.73, 0.066531, , 
41.76, 0.066668, , 
41.79, 0.066788, , 
41.82, 0.066915, , 
41.85, 0.067045, , 
41.88, 0.067128, , 
41.91, 0.067055, , 
41.94, 0.067067, , 
41.97, 0.067334, , 
42.00, 0.067445, , 
42.03, 0.067461, , 
42.06, 0.067550, , 
42.09, 0.067664, , 
42.12, 0.067648, , 
42.15, 0.067492, , 
42.18, 0.067362, , 
42.21, 0.067331, , 
42.24, 0.067302, , 
42.27, 0.067093, , 
42.30, 0.067128, , 
42.33, 0.067134, , 
42.36, 0.066899, , 
42.39, 0.066718, , 
42.42, 0.066693, , 
42.45, 0.066699, , 
42.48, 0.066509, , 
42.51, 0.066281, , 
42.54, 0.066211, , 
42.57, 0.066043, , 
42.60, 0.065814, , 
42.63, 0.065599, , 
42.66, 0.065497, , 
42.69, 0.065304, , 
42.72, 0.064977, , 
42.75, 0.064673, , 
42.78, 0.064511, , 
42.81, 0.064327, , 
42.84, 0.064019, , 
42.87, 0.063654, , 
42.90, 0.063451, , 
42.93, 0.063290, , 
42.96, 0.062957, , 
42.99, 0.062652, , 
43.02, 0.062462, , 
43.05, 0.062252, , 
43.08, 0.061989, , 
43.11, 0.061681, , 
43.14, 0.061564, , 
43.17, 0.061355, , 
43.20, 0.061044, , 
43.23, 0.060774, , 
43.26, 0.060619, , 
43.29, 0.060441, , 
43.32, 0.060118, , 
43.35, 0.059896, , 
43.38, 0.059794, , 
43.41, 0.059540, , 
43.44, 0.059226, , 
43.47, 0.058988, , 
43.50, 0.058820, , 
43.53, 0.058608, , 
43.56, 0.058287, , 
43.59, 0.058119, , 
43.62, 0.057907, , 
43.65, 0.057653, , 
43.68, 0.057355, , 
43.71, 0.057244, , 
43.74, 0.057209, , 
43.77, 0.056965, , 
43.80, 0.056698, , 
43.83, 0.056495, , 
43.86, 0.056422, , 
43.89, 0.056267, , 
43.92, 0.055978, , 
43.95, 0.055918, , 
43.98, 0.055858, , 
44.01, 0.055623, , 
44.04, 0.055426, , 
44.07, 0.055303, , 
44.10, 0.055239, , 
44.13, 0.055109, , 
44.16, 0.054966, , 
44.19, 0.054887, , 
44.22, 0.054805, , 
44.25, 0.054694, , 
44.28, 0.054573, , 
44.31, 0.054548, , 
44.34, 0.054487, , 
44.37, 0.054288, , 
44.40, 0.054193, , 
44.43, 0.054237, , 
44.46, 0.054284, , 
44.49, 0.054164, , 
44.53, 0.054043, , 
44.55, 0.053986, , 
44.58, 0.053939, , 
44.61, 0.053736, , 
44.64, 0.053672, , 
44.67, 0.053720, , 
44.70, 0.053723, , 
44.74, 0.053603, , 
44.76, 0.053603, , 
44.79, 0.053710, 14, 0.585
44.79, 0.053717, , 
44.82, 0.053780, , 
44.85, 0.053650, , 
44.88, 0.053644, , 
44.91, 0.053729, , 
44.95, 0.053704, , 
44.97, 0.053628, , 
45.00, 0.053641, , 
45.03, 0.053729, , 
45.06, 0.053783, , 
45.09, 0.053641, , 
45.12, 0.053653, , 
45.16, 0.053755, , 
45.18, 0.053707, , 
45.21, 0.053583, , 
45.24, 0.053615, , 
45.27, 0.053672, , 
45.30, 0.053679, , 
45.33, 0.053691, , 
45.36, 0.053707, , 
45.39, 0.053666, , 
45.42, 0.053707, , 
45.45, 0.053812, , 
45.48, 0.053996, , 
45.51, 0.054129, , 
45.54, 0.054135, , 
45.57, 0.054018, , 
45.60, 0.054110, , 
45.63, 0.054205, , 
45.66, 0.054196, , 
45.69, 0.054284, , 
45.72, 0.054462, , 
45.75, 0.054665, , 
45.78, 0.054716, , 
45.81, 0.054874, , 
45.84, 0.055087, , 
45.87, 0.055322, , 
45.90, 0.055385, , 
45.93, 0.055458, , 
45.96, 0.055801, , 
45.99, 0.055943, , 
46.02, 0.055921, , 
46.05, 0.056077, , 
46.08, 0.056251, , 
46.11, 0.056495, , 
46.14, 0.056571, , 
46.17, 0.056816, , 
46.20, 0.057190, , 
46.23, 0.057371, , 
46.26, 0.057596, , 
46.29, 0.057812, , 
46.32, 0.058062, , 
46.35, 0.058370, , 
46.38, 0.058386, , 
46.41, 0.058690, , 
46.44, 0.058966, , 
46.47, 0.059176, , 
46.50, 0.059350, , 
46.53, 0.059591, , 
46.56, 0.059918, , 
46.59, 0.060092, , 
46.62, 0.060232, , 
46.65, 0.060476, , 
46.68, 0.060752, , 
46.71, 0.060974, , 
46.74, 0.061050, , 
46.77, 0.061310, , 
46.80, 0.061754, , 
46.84, 0.061970, , 
46.86, 0.062160, , 
46.89, 0.062509, , 
46.92, 0.062830, , 
46.95, 0.063144, , 
46.98, 0.063309, , 
47.01, 0.063645, , 
47.04, 0.063930, , 
47.07, 0.064171, , 
47.10, 0.064517, , 
47.13, 0.064885, , 
47.16, 0.065205, , 
47.19, 0.065447, , 
47.22, 0.065688, , 
47.25, 0.065957, , 
47.28, 0.066278, , 
47.31, 0.066484, , 
47.34, 0.066636, , 
47.37, 0.066931, , 
47.40, 0.067210, , 
47.43, 0.067394, , 
47.46, 0.067543, , 
47.49, 0.067743, , 
47.52, 0.068086, , 
47.55, 0.068203, , 
47.58, 0.068336, , 
47.61, 0.068637, , 
47.64, 0.068790, , 
47.67, 0.068828, , 
47.70, 0.068872, , 
47.73, 0.069021, , 
47.76, 0.069151, , 
47.79, 0.069148, , 
47.82, 0.069199, , 
47.85, 0.069386, , 
47.88, 0.069411, , 
47.91, 0.069481, , 
47.94, 0.069437, , 
47.97, 0.069475, , 
47.98, 0.069497, 15, 0.585
48.00, 0.069522, , 
48.03, 0.069437, , 
48.06, 0.069377, , 
48.09, 0.069335, , 
48.12, 0.069247, , 
48.15, 0.069075, , 
48.18, 0.068913, , 
48.21, 0.068840, , 
48.24, 0.068742, , 
48.27, 0.068603, , 
48.30, 0.068384, , 
48.33, 0.068314, , 
48.36, 0.068225, , 
48.39, 0.067902, , 
48.42, 0.067743, , 
48.45, 0.067670, , 
48.48, 0.067404, , 
48.51, 0.067105, , 
48.54, 0.066864, , 
48.57, 0.066706, , 
48.60, 0.066519, , 
48.63, 0.066201, , 
48.66, 0.066046, , 
48.69, 0.065840, , 
48.72, 0.065621, , 
48.75, 0.065301, , 
48.78, 0.065056, , 
48.81, 0.064910, , 
48.84, 0.064707, , 
48.87, 0.064365, , 
48.90, 0.064263, , 
48.93, 0.064086, , 
48.96, 0.063784, , 
48.99, 0.063540, , 
49.02, 0.063413, , 
49.05, 0.063172, , 
49.08, 0.062868, , 
49.11, 0.062560, , 
49.15, 0.062341, , 
49.17, 0.062227, , 
49.20, 0.061967, , 
49.23, 0.061751, , 
49.26, 0.061710, , 
49.29, 0.061577, , 
49.32, 0.061253, , 
49.35, 0.060984, , 
49.38, 0.060917, , 
49.41, 0.060781, , 
49.44, 0.060549, , 
49.47, 0.060352, , 
49.50, 0.060165, , 
49.53, 0.060042, , 
49.56, 0.059807, , 
49.59, 0.059588, , 
49.62, 0.059515, , 
49.65, 0.059429, , 
49.68, 0.059198, , 
49.71, 0.059125, , 
49.74, 0.059125, , 
49.77, 0.058982, , 
49.80, 0.058893, , 
49.83, 0.058795, , 
49.86, 0.058732, , 
49.90, 0.058684, , 
49.92, 0.058636, , 
49.95, 0.058640, , 
49.98, 0.058570, , 
50.01, 0.058535, , 
50.04, 0.058310, , 
50.07, 0.058189, , 
50.11, 0.058192, , 
50.13, 0.058307, , 
50.16, 0.058411, , 
50.19, 0.058497, , 
50.22, 0.058652, , 
50.25, 0.058579, , 
50.28, 0.058535, , 
50.31, 0.058586, , 
50.34, 0.058605, , 
50.37, 0.058624, , 
50.40, 0.058525, , 
50.43, 0.058567, , 
50.46, 0.058709, , 
50.49, 0.058643, , 
50.52, 0.058617, , 
50.55, 0.058792, , 
50.58, 0.059001, , 
50.61, 0.059039, , 
50.64, 0.059052, , 
50.67, 0.059306, , 
50.70, 0.059474, , 
50.73, 0.059544, , 
50.76, 0.059575, , 
50.79, 0.059753, , 
50.82, 0.059950, , 
50.85, 0.060115, , 
50.88, 0.060264, , 
50.91, 0.060416, , 
50.94, 0.060549, , 
50.97, 0.060752, , 
51.00, 0.060911, , 
51.03, 0.061117, , 
51.06, 0.061380, , 
51.09, 0.061659, , 
51.12, 0.061802, , 
51.15, 0.062046, , 
51.18, 0.062325, , 
51.19, 0.062389, 16, 0.587
51.21, 0.062547, , 
51.24, 0.062712, , 
51.27, 0.063058, , 
51.30, 0.063350, , 
51.33, 0.063537, , 
51.36, 0.063727, , 
51.39, 0.064054, , 
51.42, 0.064346, , 
51.45, 0.064527, , 
51.48, 0.064707, , 
51.51, 0.065113, , 
51.54, 0.065386, , 
51.57, 0.065558, , 
51.60, 0.065827, , 
51.63, 0.066144, , 
51.66, 0.066430, , 
51.69, 0.066633, , 
51.72, 0.066883, , 
51.75, 0.067236, , 
51.78, 0.067483, , 
51.81, 0.067667, , 
51.84, 0.067879, , 
51.87, 0.068292, , 
51.90, 0.068526, , 
51.93, 0.068647, , 
51.96, 0.068869, , 
51.99, 0.069031, , 
52.02, 0.069310, , 
52.05, 0.069522, , 
52.08, 0.069754, , 
52.11, 0.070106, , 
52.14, 0.070223, , 
52.17, 0.070306, , 
52.20, 0.070398, , 
52.23, 0.070528, , 
52.26, 0.070702, , 
52.29, 0.070753, , 
52.32, 0.070836, , 
52.35, 0.070937, , 
52.38, 0.070921, , 
52.41, 0.070883, , 
52.44, 0.070921, , 
52.47, 0.071026, , 
52.50, 0.070950, , 
52.53, 0.070886, , 
52.56, 0.070931, , 
52.59, 0.070972, , 
52.62, 0.070928, , 
52.65, 0.070839, , 
52.68, 0.070858, , 
52.71, 0.070956, , 
52.74, 0.070934, , 
52.77, 0.070788, , 
52.80, 0.070737, , 
52.84, 0.070629, , 
52.86, 0.070414, , 
52.89, 0.070258, , 
52.92, 0.070160, , 
52.95, 0.070062, , 
52.98, 0.069897, , 
53.01, 0.069624, , 
53.04, 0.069541, , 
53.07, 0.069450, , 
53.10, 0.069224, , 
53.13, 0.068955, , 
53.16, 0.068860, , 
53.19, 0.068726, , 
53.22, 0.068498, , 
53.25, 0.068308, , 
53.28, 0.068149, , 
53.31, 0.067924, , 
53.34, 0.067689, , 
53.37, 0.067451, , 
53.40, 0.067327, , 
53.43, 0.067169, , 
53.46, 0.066909, , 
53.49, 0.066725, , 
53.52, 0.066668, , 
53.55, 0.066512, , 
53.58, 0.066293, , 
53.61, 0.066144, , 
53.64, 0.066119, , 
53.67, 0.065979, , 
53.70, 0.065656, , 
53.73, 0.065567, , 
53.76, 0.065564, , 
53.79, 0.065453, , 
53.82, 0.065224, , 
53.85, 0.065113, , 
53.88, 0.065123, , 
53.91, 0.064980, , 
53.94, 0.064768, , 
53.97, 0.064669, , 
54.00, 0.064644, , 
54.03, 0.064558, , 
54.06, 0.064422, , 
54.09, 0.064498, , 
54.12, 0.064565, , 
54.15, 0.064504, , 
54.18, 0.064349, , 
54.21, 0.064282, , 
54.24, 0.064232, , 
54.27, 0.064140, , 
54.30, 0.063965, , 
54.33, 0.064035, , 
54.36, 0.064225, , 
54.39, 0.064324, 17, 0.585
54.39, 0.064352, , 
54.42, 0.064384, , 
54.45, 0.064428, , 
54.48, 0.064514, , 
54.51, 0.064504, , 
54.54, 0.064473, , 
54.57, 0.064546, , 
54.60, 0.064676, , 
54.63, 0.064688, , 
54.66, 0.064806, , 
54.69, 0.065018, , 
54.72, 0.065063, , 
54.75, 0.065104, , 
54.78, 0.065240, , 
54.81, 0.065380, , 
54.84, 0.065516, , 
54.87, 0.065615, , 
54.91, 0.065757, , 
54.93, 0.065910, , 
54.96, 0.066068, , 
54.99, 0.066208, , 
55.02, 0.066360, , 
55.05, 0.066573, , 
55.08, 0.066738, , 
55.11, 0.066896, , 
55.14, 0.067096, , 
55.17, 0.067362, , 
55.20, 0.067581, , 
55.23, 0.067727, , 
55.26, 0.067956, , 
55.29, 0.068314, , 
55.32, 0.068498, , 
55.35, 0.068565, , 
55.38, 0.068761, , 
55.41, 0.069101, , 
55.44, 0.069373, , 
55.47, 0.069561, , 
55.50, 0.069798, , 
55.53, 0.069928, , 
55.56, 0.070170, , 
55.59, 0.070341, , 
55.62, 0.070522, , 
55.65, 0.070775, , 
55.68, 0.070959, , 
55.71, 0.071067, , 
55.74, 0.071337, , 
55.77, 0.071549, , 
55.80, 0.071676, , 
55.83, 0.071790, , 
55.86, 0.071946, , 
55.89, 0.072196, , 
55.92, 0.072304, , 
55.95, 0.072399, , 
55.98, 0.072552, , 
56.01, 0.072647, , 
56.04, 0.072612, , 
56.07, 0.072663, , 
56.10, 0.072885, , 
56.13, 0.073008, , 
56.16, 0.073046, , 
56.19, 0.072996, , 
56.22, 0.073126, , 
56.25, 0.073138, , 
56.28, 0.073110, , 
56.31, 0.072983, , 
56.34, 0.072977, , 
56.37, 0.072907, , 
56.40, 0.072679, , 
56.43, 0.072634, , 
56.46, 0.072653, , 
56.49, 0.072634, , 
56.52, 0.072602, , 
56.55, 0.072453, , 
56.58, 0.072418, , 
56.61, 0.072345, , 
56.64, 0.072155, , 
56.67, 0.072127, , 
56.70, 0.072250, , 
56.73, 0.072311, , 
56.76, 0.072171, , 
56.79, 0.072028, , 
56.82, 0.071984, , 
56.85, 0.071822, , 
56.88, 0.071632, , 
56.91, 0.071651, , 
56.94, 0.071597, , 
56.97, 0.071429, , 
57.00, 0.071378, , 
57.03, 0.071327, , 
57.06, 0.071254, , 
57.09, 0.071013, , 
57.12, 0.070826, , 
57.15, 0.070785, , 
57.18, 0.070763, , 
57.21, 0.070604, , 
57.24, 0.070293, , 
57.27, 0.070239, , 
57.30, 0.070300, , 
57.33, 0.070277, , 
57.36, 0.070131, , 
57.39, 0.070020, , 
57.42, 0.069948, , 
57.45, 0.069814, , 
57.48, 0.069732, , 
57.51, 0.069716, , 
57.54, 0.069738, , 
57.57, 0.069700, , 
57.59, 0.069653, 18, 0.585
57.61, 0.069595, , 
57.63, 0.069595, , 
57.66, 0.069697, , 
57.69, 0.069618, , 
57.72, 0.069668, , 
57.75, 0.069687, , 
57.78, 0.069703, , 
57.81, 0.069710, , 
57.84, 0.069751, , 
57.87, 0.069979, , 
57.90, 0.070087, , 
57.93, 0.070068, , 
57.96, 0.070071, , 
57.99, 0.070204, , 
58.02, 0.070265, , 
58.05, 0.070287, , 
58.08, 0.070433, , 
58.11, 0.070658, , 
58.14, 0.070731, , 
58.17, 0.070753, , 
58.20, 0.070880, , 
58.23, 0.071099, , 
58.26, 0.071191, , 
58.29, 0.071267, , 
58.32, 0.071426, , 
58.35, 0.071603, , 
58.38, 0.071794, , 
58.41, 0.071863, , 
58.44, 0.072054, , 
58.47, 0.072295, , 
58.50, 0.072387, , 
58.53, 0.072469, , 
58.56, 0.072710, , 
58.59, 0.072859, , 
58.62, 0.073005, , 
58.65, 0.073100, , 
58.68, 0.073256, , 
58.71, 0.073513, , 
58.74, 0.073614, , 
58.77, 0.073694, , 
58.80, 0.073871, , 
58.83, 0.073966, , 
58.86, 0.073944, , 
58.89, 0.073973, , 
58.92, 0.074236, , 
58.95, 0.074414, , 
58.98, 0.074429, , 
59.01, 0.074490, , 
59.04, 0.074515, , 
59.07, 0.074544, , 
59.10, 0.074477, , 
59.13, 0.074407, , 
59.16, 0.074559, , 
59.19, 0.074566, , 
59.22, 0.074439, , 
59.25, 0.074407, , 
59.28, 0.074515, , 
59.31, 0.074528, , 
59.34, 0.074452, , 
59.37, 0.074442, , 
59.40, 0.074531, , 
59.43, 0.074515, , 
59.46, 0.074382, , 
59.49, 0.074407, , 
59.52, 0.074502, , 
59.55, 0.074518, , 
59.58, 0.074442, , 
59.61, 0.074442, , 
59.64, 0.074521, , 
59.67, 0.074474, , 
59.70, 0.074452, , 
59.73, 0.074477, , 
59.76, 0.074528, , 
59.79, 0.074493, , 
59.82, 0.074344, , 
59.85, 0.074220, , 
59.88, 0.074182, , 
59.91, 0.074049, , 
59.94, 0.073884, , 
59.97, 0.073938, , 
60.00, 0.074052, , 
60.03, 0.074042, , 
60.06, 0.073928, , 
60.09, 0.073770, , 
60.12, 0.073725, , 
60.15, 0.073614, , 
60.18, 0.073487, , 
60.21, 0.073570, , 
60.24, 0.073636, , 
60.27, 0.073494, , 
60.30, 0.073424, , 
60.34, 0.073516, , 
60.36, 0.073516, , 
60.39, 0.073484, , 
60.42, 0.073472, , 
60.45, 0.073481, , 
60.48, 0.073551, , 
60.51, 0.073586, , 
60.55, 0.073706, , 
60.57, 0.073862, , 
60.60, 0.073954, , 
60.63, 0.073922, , 
60.66, 0.073916, , 
60.69, 0.074036, , 
60.72, 0.074077, , 
60.75, 0.073957, , 
60.78, 0.073998, 19, 0.585
60.78, 0.073998, , 
60.81, 0.074147, , 
60.84, 0.074277, , 
60.87, 0.074328, , 
60.90, 0.074395, , 
60.93, 0.074521, , 
60.96, 0.074452, , 
60.99, 0.074360, , 
61.02, 0.074407, , 
61.05, 0.074534, , 
61.08, 0.074468, , 
61.11, 0.074559, , 
61.14, 0.074686, , 
61.17, 0.074921, , 
61.20, 0.074899, , 
61.23, 0.074804, , 
61.26, 0.074889, , 
61.29, 0.074946, , 
61.32, 0.074969, , 
61.35, 0.075026, , 
61.38, 0.075299, , 
61.41, 0.075425, , 
61.44, 0.075378, , 
61.47, 0.075318, , 
61.50, 0.075400, , 
61.53, 0.075451, , 
61.56, 0.075460, , 
61.59, 0.075384, , 
61.62, 0.075476, , 
61.65, 0.075495, , 
61.68, 0.075441, , 
61.71, 0.075425, , 
61.74, 0.075476, , 
61.77, 0.075530, , 
61.80, 0.075368, , 
61.83, 0.075378, , 
61.86, 0.075457, , 
61.89, 0.075467, , 
61.92, 0.075457, , 
61.95, 0.075473, , 
61.98, 0.075483, , 
62.01, 0.075473, , 
62.04, 0.075419, , 
62.07, 0.075425, , 
62.10, 0.075321, , 
62.13, 0.075184, , 
62.16, 0.075010, , 
62.19, 0.074953, , 
62.22, 0.074988, , 
62.25, 0.074975, , 
62.28, 0.074950, , 
62.31, 0.075007, , 
62.34, 0.075013, , 
62.37, 0.074899, , 
62.40, 0.074915, , 
62.43, 0.074883, , 
62.46, 0.074959, , 
62.49, 0.074972, , 
62.52, 0.074883, , 
62.55, 0.074899, , 
62.58, 0.075038, , 
62.61, 0.074937, , 
62.64, 0.074902, , 
62.67, 0.074918, , 
62.70, 0.074943, , 
62.73, 0.074908, , 
62.76, 0.074896, , 
62.79, 0.074953, , 
62.82, 0.075007, , 
62.85, 0.074918, , 
62.88, 0.074867, , 
62.91, 0.074937, , 
62.94, 0.075042, , 
62.97, 0.074956, , 
63.00, 0.074877, , 
63.03, 0.074972, , 
63.06, 0.074994, , 
63.09, 0.074934, , 
63.12, 0.074915, , 
63.15, 0.075013, , 
63.18, 0.074981, , 
63.21, 0.074883, , 
63.24, 0.074867, , 
63.27, 0.074931, , 
63.30, 0.074966, , 
63.33, 0.074899, , 
63.36, 0.074829, , 
63.39, 0.074981, , 
63.42, 0.074978, , 
63.45, 0.074959, , 
63.48, 0.074972, , 
63.51, 0.075000, , 
63.54, 0.075035, , 
63.57, 0.074905, , 
63.60, 0.074905, , 
63.63, 0.074972, , 
63.66, 0.074975, , 
63.69, 0.074896, , 
63.72, 0.074931, , 
63.75, 0.074988, , 
63.78, 0.074959, , 
63.81, 0.074851, , 
63.84, 0.074886, , 
63.87, 0.074988, , 
63.90, 0.074924, , 
63.93, 0.074921, , 
63.96, 0.074927, , 
63.99, 0.074842, 20, 0.588
64.00, 0.074829, , 
64.02, 0.074677, , 
64.05, 0.074566, , 
64.08, 0.074477, , 
64.11, 0.074502, , 
64.14, 0.074474, , 
64.17, 0.074382, , 
64.20, 0.074426, , 
64.23, 0.074521, , 
64.26, 0.074398, , 
64.29, 0.074382, , 
64.32, 0.074429, , 
64.35, 0.074509, , 
64.38, 0.074372, , 
64.41, 0.074112, , 
64.44, 0.074042, , 
64.47, 0.074068, , 
64.50, 0.073944, , 
64.53, 0.073919, , 
64.56, 0.073944, , 
64.59, 0.074014, , 
64.62, 0.073893, , 
64.65, 0.073897, , 
64.68, 0.073982, , 
64.71, 0.074042, , 
64.74, 0.073922, , 
64.77, 0.073881, , 
64.80, 0.074046, , 
64.83, 0.074036, , 
64.86, 0.073916, , 
64.89, 0.073954, , 
64.92, 0.073973, , 
64.95, 0.073973, , 
64.98, 0.073954, , 
65.01, 0.073925, , 
65.04, 0.074042, , 
65.07, 0.074004, , 
65.10, 0.073909, , 
65.13, 0.073928, , 
65.16, 0.073982, , 
65.19, 0.073957, , 
65.22, 0.073957, , 
65.25, 0.073954, , 
65.28, 0.074074, , 
65.31, 0.073982, , 
65.34, 0.073849, , 
65.37, 0.073887, , 
65.40, 0.073989, , 
65.43, 0.073887, , 
65.46, 0.073640, , 
65.49, 0.073529, , 
65.52, 0.073576, , 
65.55, 0.073456, , 
65.58, 0.073421, , 
65.61, 0.073459, , 
65.64, 0.073484, , 
65.67, 0.073529, , 
65.70, 0.073421, , 
65.73, 0.073456, , 
65.76, 0.073491, , 
65.79, 0.073341, , 
65.82, 0.073154, , 
65.85, 0.073037, , 
65.88, 0.073002, , 
65.91, 0.072935, , 
65.94, 0.072885, , 
65.97, 0.072894, , 
66.00, 0.072802, , 
66.03, 0.072640, , 
66.06, 0.072545, , 
66.09, 0.072472, , 
66.12, 0.072485, , 
66.15, 0.072526, , 
66.18, 0.072453, , 
66.21, 0.072457, , 
66.25, 0.072444, , 
66.27, 0.072450, , 
66.30, 0.072387, , 
66.33, 0.072273, , 
66.36, 0.072133, , 
66.39, 0.072038, , 
66.42, 0.072009, , 
66.46, 0.072076, , 
66.48, 0.072079, , 
66.51, 0.071971, , 
66.54, 0.071946, , 
66.57, 0.071965, , 
66.60, 0.071933, , 
66.63, 0.071756, , 
66.66, 0.071625, , 
66.69, 0.071670, , 
66.72, 0.071603, , 
66.75, 0.071514, , 
66.78, 0.071543, , 
66.81, 0.071603, , 
66.84, 0.071540, , 
66.87, 0.071464, , 
66.90, 0.071413, , 
66.93, 0.071340, , 
66.96, 0.071210, , 
66.99, 0.071077, , 
67.02, 0.071058, , 
67.05, 0.071105, , 
67.08, 0.071070, , 
67.11, 0.071029, , 
67.14, 0.071055, , 
67.17, 0.071118, , 
67.19, 0.071115, 21, 0.585
67.20, 0.071077, , 
67.23, 0.070972, , 
67.26, 0.071064, , 
67.29, 0.071150, , 
67.32, 0.071096, , 
67.35, 0.070982, , 
67.38, 0.071013, , 
67.41, 0.071064, , 
67.44, 0.070902, , 
67.47, 0.070687, , 
67.50, 0.070614, , 
67.53, 0.070604, , 
67.56, 0.070591, , 
67.59, 0.070468, , 
67.62, 0.070503, , 
67.65, 0.070506, , 
67.68, 0.070423, , 
67.71, 0.070255, , 
67.74, 0.070236, , 
67.77, 0.070189, , 
67.80, 0.070043, , 
67.83, 0.069967, , 
67.86, 0.070052, , 
67.89, 0.070033, , 
67.92, 0.069909, , 
67.95, 0.069710, , 
67.98, 0.069722, , 
68.01, 0.069687, , 
68.04, 0.069583, , 
68.07, 0.069545, , 
68.10, 0.069586, , 
68.13, 0.069662, , 
68.16, 0.069662, , 
68.19, 0.069630, , 
68.22, 0.069630, , 
68.25, 0.069691, , 
68.28, 0.069602, , 
68.32, 0.069624, , 
68.34, 0.069611, , 
68.37, 0.069624, , 
68.40, 0.069399, , 
68.43, 0.069272, , 
68.46, 0.069199, , 
68.49, 0.069212, , 
68.53, 0.069145, , 
68.55, 0.069116, , 
68.58, 0.069132, , 
68.61, 0.069021, , 
68.64, 0.068840, , 
68.67, 0.068739, , 
68.70, 0.068764, , 
68.74, 0.068742, , 
68.76, 0.068504, , 
68.79, 0.068368, , 
68.82, 0.068301, , 
68.85, 0.068228, , 
68.88, 0.068130, , 
68.91, 0.068108, , 
68.95, 0.068152, , 
68.97, 0.068184, , 
69.00, 0.068143, , 
69.03, 0.068016, , 
69.06, 0.067908, , 
69.09, 0.067838, , 
69.12, 0.067664, , 
69.16, 0.067600, , 
69.18, 0.067676, , 
69.21, 0.067642, , 
69.24, 0.067654, , 
69.27, 0.067616, , 
69.30, 0.067645, , 
69.33, 0.067638, , 
69.36, 0.067515, , 
69.39, 0.067308, , 
69.42, 0.067280, , 
69.45, 0.067178, , 
69.48, 0.067080, , 
69.51, 0.067131, , 
69.54, 0.067156, , 
69.57, 0.067071, , 
69.60, 0.066772, , 
69.63, 0.066690, , 
69.66, 0.066665, , 
69.69, 0.066636, , 
69.72, 0.066598, , 
69.75, 0.066630, , 
69.78, 0.066633, , 
69.81, 0.066487, , 
69.84, 0.066316, , 
69.87, 0.066287, , 
69.90, 0.066255, , 
69.93, 0.066252, , 
69.96, 0.066179, , 
69.99, 0.066122, , 
70.02, 0.066071, , 
70.05, 0.066094, , 
70.08, 0.066087, , 
70.11, 0.066056, , 
70.14, 0.066103, , 
70.17, 0.065986, , 
70.20, 0.065849, , 
70.23, 0.065751, , 
70.26, 0.065707, , 
70.29, 0.065684, , 
70.32, 0.065605, , 
70.35, 0.065665, , 
70.38, 0.065662, 22, 0.585
70.39, 0.065650, , 
70.41, 0.065602, , 
70.44, 0.065456, , 
70.47, 0.065393, , 
70.50, 0.065374, , 
70.53, 0.065209, , 
70.56, 0.065139, , 
70.59, 0.065186, , 
70.62, 0.065202, , 
70.65, 0.065094, , 
70.69, 0.064996, , 
70.71, 0.064885, , 
70.74, 0.064847, , 
70.77, 0.064711, , 
70.80, 0.064635, , 
70.83, 0.064704, , 
70.86, 0.064711, , 
70.89, 0.064660, , 
70.92, 0.064555, , 
70.95, 0.064428, , 
70.98, 0.064368, , 
71.01, 0.064244, , 
71.04, 0.064124, , 
71.07, 0.064165, , 
71.10, 0.064213, , 
71.13, 0.064165, , 
71.16, 0.064111, , 
71.19, 0.064175, , 
71.22, 0.064209, , 
71.25, 0.064079, , 
71.28, 0.063876, , 
71.31, 0.063842, , 
71.34, 0.063791, , 
71.37, 0.063718, , 
71.40, 0.063677, , 
71.43, 0.063648, , 
71.46, 0.063600, , 
71.49, 0.063378, , 
71.52, 0.063271, , 
71.55, 0.063283, , 
71.58, 0.063239, , 
71.61, 0.063166, , 
71.64, 0.063163, , 
71.67, 0.063169, , 
71.70, 0.063042, , 
71.73, 0.062817, , 
71.76, 0.062706, , 
71.79, 0.062798, , 
71.82, 0.062766, , 
71.85, 0.062681, , 
71.88, 0.062712, , 
71.91, 0.062709, , 
71.94, 0.062652, , 
71.97, 0.062611, , 
72.00, 0.062646, , 
72.03, 0.062674, , 
72.06, 0.062662, , 
72.09, 0.062528, , 
72.12, 0.062357, , 
72.15, 0.062297, , 
72.18, 0.062252, , 
72.21, 0.062145, , 
72.24, 0.062110, , 
72.27, 0.062249, , 
72.30, 0.062179, , 
72.33, 0.061919, , 
72.36, 0.061789, , 
72.39, 0.061815, , 
72.42, 0.061777, , 
72.45, 0.061640, , 
72.48, 0.061532, , 
72.51, 0.061434, , 
72.54, 0.061291, , 
72.57, 0.061222, , 
72.60, 0.061202, , 
72.63, 0.061202, , 
72.66, 0.061256, , 
72.69, 0.061123, , 
72.72, 0.060984, , 
72.75, 0.060974, , 
72.78, 0.060806, , 
72.81, 0.060638, , 
72.84, 0.060657, , 
72.87, 0.060768, , 
72.90, 0.060720, , 
72.93, 0.060609, , 
72.97, 0.060692, , 
72.99, 0.060733, , 
73.02, 0.060727, , 
73.05, 0.060657, , 
73.08, 0.060695, , 
73.11, 0.060689, , 
73.14, 0.060501, , 
73.18, 0.060295, , 
73.20, 0.060257, , 
73.23, 0.060327, , 
73.26, 0.060219, , 
73.29, 0.060146, , 
73.32, 0.060118, , 
73.35, 0.060146, , 
73.39, 0.059934, , 
73.41, 0.059766, , 
73.44, 0.059724, , 
73.47, 0.059734, , 
73.50, 0.059639, , 
73.53, 0.059578, , 
73.56, 0.059617, , 
73.58, 0.059639, 23, 0.585
73.60, 0.059617, , 
73.62, 0.059480, , 
73.65, 0.059322, , 
73.68, 0.059309, , 
73.71, 0.059309, , 
73.74, 0.059252, , 
73.77, 0.059157, , 
73.80, 0.059261, , 
73.83, 0.059299, , 
73.86, 0.059230, , 
73.89, 0.059160, , 
73.92, 0.059198, , 
73.95, 0.059166, , 
73.98, 0.058976, , 
74.01, 0.058770, , 
74.04, 0.058798, , 
74.07, 0.058770, , 
74.10, 0.058725, , 
74.13, 0.058627, , 
74.16, 0.058735, , 
74.19, 0.058716, , 
74.22, 0.058560, , 
74.25, 0.058418, , 
74.28, 0.058364, , 
74.31, 0.058322, , 
74.34, 0.058202, , 
74.37, 0.058100, , 
74.40, 0.058053, , 
74.43, 0.057923, , 
74.46, 0.057726, , 
74.49, 0.057653, , 
74.52, 0.057545, , 
74.55, 0.057422, , 
74.58, 0.057282, , 
74.61, 0.057190, , 
74.64, 0.057285, , 
74.67, 0.057165, , 
74.70, 0.056952, , 
74.73, 0.056832, , 
74.76, 0.056822, , 
74.79, 0.056822, , 
74.82, 0.056724, , 
74.85, 0.056638, , 
74.88, 0.056740, , 
74.91, 0.056755, , 
74.94, 0.056708, , 
74.97, 0.056708, , 
75.00, 0.056686, , 
75.03, 0.056603, , 
75.06, 0.056457, , 
75.09, 0.056318, , 
75.12, 0.056302, , 
75.15, 0.056280, , 
75.19, 0.056204, , 
75.21, 0.056143, , 
75.24, 0.056083, , 
75.27, 0.055943, , 
75.30, 0.055823, , 
75.33, 0.055744, , 
75.36, 0.055718, , 
75.39, 0.055534, , 
75.42, 0.055357, , 
75.45, 0.055230, , 
75.48, 0.055341, , 
75.51, 0.055284, , 
75.54, 0.055128, , 
75.57, 0.054979, , 
75.60, 0.054960, , 
75.63, 0.054849, , 
75.66, 0.054779, , 
75.69, 0.054703, , 
75.72, 0.054773, , 
75.75, 0.054729, , 
75.78, 0.054627, , 
75.81, 0.054678, , 
75.84, 0.054722, , 
75.87, 0.054608, , 
75.90, 0.054338, , 
75.93, 0.054313, , 
75.96, 0.054326, , 
75.99, 0.054250, , 
76.02, 0.054145, , 
76.05, 0.054139, , 
76.08, 0.054202, , 
76.11, 0.054094, , 
76.14, 0.053910, , 
76.17, 0.053904, , 
76.20, 0.053818, , 
76.23, 0.053660, , 
76.26, 0.053596, , 
76.29, 0.053663, , 
76.32, 0.053685, , 
76.35, 0.053545, , 
76.38, 0.053346, , 
76.41, 0.053327, , 
76.44, 0.053352, , 
76.47, 0.053260, , 
76.50, 0.053212, , 
76.53, 0.053174, , 
76.56, 0.053241, , 
76.59, 0.053168, , 
76.62, 0.052978, , 
76.65, 0.052892, , 
76.68, 0.052879, , 
76.71, 0.052727, , 
76.74, 0.052800, , 
76.77, 0.052819, , 
76.78, 0.052822, 24, 0.586
76.80, 0.052838, , 
76.83, 0.052724, , 
76.86, 0.052714, , 
76.89, 0.052800, , 
76.92, 0.052810, , 
76.95, 0.052667, , 
76.98, 0.052483, , 
77.01, 0.052394, , 
77.04, 0.052293, , 
77.07, 0.052216, , 
77.10, 0.052178, , 
77.13, 0.052264, , 
77.16, 0.052178, , 
77.19, 0.052004, , 
77.22, 0.051887, , 
77.25, 0.051912, , 
77.28, 0.051810, , 
77.31, 0.051741, , 
77.34, 0.051734, , 
77.37, 0.051766, , 
77.40, 0.051620, , 
77.43, 0.051373, , 
77.46, 0.051277, , 
77.49, 0.051344, , 
77.52, 0.051300, , 
77.55, 0.051220, , 
77.58, 0.051179, , 
77.61, 0.051312, , 
77.64, 0.051300, , 
77.67, 0.051154, , 
77.70, 0.051160, , 
77.73, 0.051201, , 
77.76, 0.051109, , 
77.79, 0.050891, , 
77.82, 0.050805, , 
77.85, 0.050821, , 
77.88, 0.050726, , 
77.91, 0.050637, , 
77.94, 0.050573, , 
77.97, 0.050529, , 
78.00, 0.050402, , 
78.03, 0.050234, , 
78.06, 0.050202, , 
78.09, 0.050294, , 
78.12, 0.050151, , 
78.15, 0.050009, , 
78.18, 0.049929, , 
78.21, 0.049803, , 
78.24, 0.049764, , 
78.27, 0.049698, , 
78.30, 0.049698, , 
78.33, 0.049717, , 
78.36, 0.049619, , 
78.39, 0.049425, , 
78.42, 0.049362, , 
78.45, 0.049362, , 
78.48, 0.049225, , 
78.51, 0.049184, , 
78.54, 0.049168, , 
78.57, 0.049263, , 
78.60, 0.049194, , 
78.63, 0.049117, , 
78.66, 0.049222, , 
78.69, 0.049216, , 
78.72, 0.049184, , 
78.75, 0.049175, , 
78.78, 0.049232, , 
78.81, 0.049251, , 
78.84, 0.049038, , 
78.87, 0.048813, , 
78.90, 0.048772, , 
78.93, 0.048768, , 
78.96, 0.048654, , 
78.99, 0.048575, , 
79.02, 0.048768, , 
79.05, 0.048803, , 
79.08, 0.048623, , 
79.11, 0.048467, , 
79.14, 0.048454, , 
79.17, 0.048347, , 
79.20, 0.048217, , 
79.23, 0.048140, , 
79.26, 0.048239, , 
79.29, 0.048207, , 
79.32, 0.048125, , 
79.35, 0.048042, , 
79.38, 0.047969, , 
79.41, 0.047874, , 
79.44, 0.047744, , 
79.47, 0.047693, , 
79.50, 0.047719, , 
79.53, 0.047687, , 
79.56, 0.047595, , 
79.59, 0.047661, , 
79.62, 0.047750, , 
79.65, 0.047627, , 
79.68, 0.047351, , 
79.71, 0.047275, , 
79.74, 0.047313, , 
79.77, 0.047249, , 
79.80, 0.047100, , 
79.83, 0.047078, , 
79.86, 0.047192, , 
79.89, 0.047240, , 
79.92, 0.047091, , 
79.95, 0.047084, , 
79.98, 0.047154, , 
79.99, 0.047154, 25, 0.587
80.01, 0.047103, , 
80.04, 0.046891, , 
80.07, 0.046786, , 
80.10, 0.046789, , 
80.13, 0.046694, , 
80.16, 0.046666, , 
80.19, 0.046662, , 
80.22, 0.046748, , 
80.25, 0.046707, , 
80.28, 0.046545, , 
80.31, 0.046488, , 
80.34, 0.046478, , 
80.37, 0.046256, , 
80.40, 0.046139, , 
80.43, 0.046145, , 
80.46, 0.046228, , 
80.49, 0.046225, , 
80.52, 0.046133, , 
80.55, 0.046237, , 
80.58, 0.046285, , 
80.61, 0.046142, , 
80.64, 0.046126, , 
80.67, 0.046177, , 
80.70, 0.046237, , 
80.73, 0.046187, , 
80.76, 0.046101, , 
80.79, 0.046196, , 
80.82, 0.046136, , 
80.85, 0.046006, , 
80.88, 0.045809, , 
80.91, 0.045720, , 
80.94, 0.045679, , 
80.97, 0.045606, , 
81.00, 0.045574, , 
81.03, 0.045704, , 
81.06, 0.045689, , 
81.09, 0.045654, , 
81.12, 0.045635, , 
81.15, 0.045701, , 
81.18, 0.045739, , 
81.21, 0.045641, , 
81.24, 0.045593, , 
81.27, 0.045479, , 
81.30, 0.045378, , 
81.33, 0.045213, , 
81.36, 0.045083, , 
81.39, 0.045168, , 
81.42, 0.045216, , 
81.45, 0.045175, , 
81.48, 0.045124, , 
81.51, 0.045254, , 
81.54, 0.045248, , 
81.57, 0.045108, , 
81.60, 0.045099, , 
81.63, 0.045165, , 
81.66, 0.045175, , 
81.69, 0.045073, , 
81.72, 0.045152, , 
81.75, 0.045219, , 
81.78, 0.045092, , 
81.81, 0.044791, , 
81.84, 0.044670, , 
81.87, 0.044743, , 
81.90, 0.044734, , 
81.93, 0.044654, , 
81.96, 0.044616, , 
81.99, 0.044708, , 
82.02, 0.044626, , 
82.05, 0.044654, , 
82.08, 0.044613, , 
82.11, 0.044715, , 
82.14, 0.044699, , 
82.17, 0.044515, , 
82.20, 0.044537, , 
82.23, 0.044610, , 
82.26, 0.044528, , 
82.29, 0.044585, , 
82.32, 0.044654, , 
82.35, 0.044680, , 
82.38, 0.044613, , 
82.41, 0.044537, , 
82.44, 0.044639, , 
82.47, 0.044566, , 
82.50, 0.044309, , 
82.53, 0.044217, , 
82.56, 0.044245, , 
82.59, 0.044191, , 
82.62, 0.044090, , 
82.65, 0.044084, , 
82.68, 0.044125, , 
82.71, 0.044191, , 
82.74, 0.044166, , 
82.77, 0.044045, , 
82.80, 0.044157, , 
82.83, 0.044217, , 
82.86, 0.044125, , 
82.89, 0.044030, , 
82.92, 0.044103, , 
82.95, 0.044118, , 
82.98, 0.043953, , 
83.01, 0.043770, , 
83.04, 0.043766, , 
83.07, 0.043712, , 
83.10, 0.043551, , 
83.13, 0.043475, , 
83.16, 0.043535, , 
83.19, 0.043586, 26, 0.586
83.20, 0.043595, , 
83.22, 0.043557, , 
83.25, 0.043567, , 
83.28, 0.043611, , 
83.31, 0.043659, , 
83.34, 0.043563, , 
83.37, 0.043513, , 
83.40, 0.043532, , 
83.43, 0.043601, , 
83.46, 0.043506, , 
83.49, 0.043471, , 
83.52, 0.043532, , 
83.55, 0.043547, , 
83.58, 0.043528, , 
83.61, 0.043544, , 
83.64, 0.043611, , 
83.67, 0.043567, , 
83.70, 0.043297, , 
83.73, 0.043202, , 
83.76, 0.043173, , 
83.79, 0.043119, , 
83.82, 0.043027, , 
83.85, 0.043034, , 
83.88, 0.043110, , 
83.91, 0.043053, , 
83.94, 0.042942, , 
83.97, 0.042850, , 
84.00, 0.042716, , 
84.03, 0.042624, , 
84.06, 0.042460, , 
84.09, 0.042539, , 
84.12, 0.042605, , 
84.15, 0.042498, , 
84.18, 0.042463, , 
84.21, 0.042520, , 
84.24, 0.042593, , 
84.27, 0.042542, , 
84.30, 0.042552, , 
84.33, 0.042624, , 
84.36, 0.042897, , 
84.39, 0.043008, , 
84.42, 0.042989, , 
84.45, 0.042983, , 
84.48, 0.043030, , 
84.51, 0.042983, , 
84.54, 0.042935, , 
84.57, 0.042973, , 
84.60, 0.043078, , 
84.63, 0.043116, , 
84.66, 0.043027, , 
84.69, 0.043049, , 
84.72, 0.043091, , 
84.75, 0.043107, , 
84.78, 0.043008, , 
84.81, 0.043088, , 
84.84, 0.043107, , 
84.87, 0.043091, , 
84.90, 0.043040, , 
84.93, 0.043084, , 
84.96, 0.043151, , 
84.99, 0.043084, , 
85.02, 0.043049, , 
85.05, 0.043122, , 
85.08, 0.043103, , 
85.11, 0.043100, , 
85.14, 0.042951, , 
85.17, 0.043021, , 
85.20, 0.043164, , 
85.23, 0.043135, , 
85.26, 0.043078, , 
85.29, 0.043116, , 
85.33, 0.043132, , 
85.35, 0.043069, , 
85.38, 0.042964, , 
85.41, 0.043056, , 
85.44, 0.043040, , 
85.47, 0.043046, , 
85.50, 0.043043, , 
85.53, 0.043119, , 
85.56, 0.043164, , 
85.60, 0.043062, , 
85.62, 0.043043, , 
85.65, 0.043081, , 
85.68, 0.043135, , 
85.71, 0.043126, , 
85.74, 0.043094, , 
85.77, 0.043069, , 
85.80, 0.043053, , 
85.83, 0.043037, , 
85.86, 0.043091, , 
85.89, 0.043180, , 
85.92, 0.043103, , 
85.95, 0.042964, , 
85.98, 0.043018, , 
86.01, 0.043088, , 
86.04, 0.043081, , 
86.07, 0.043053, , 
86.10, 0.043053, , 
86.13, 0.043103, , 
86.16, 0.043069, , 
86.19, 0.043059, , 
86.22, 0.043103, , 
86.25, 0.043151, , 
86.28, 0.043103, , 
86.31, 0.043043, , 
86.34, 0.043065, , 
86.37, 0.043173, , 
86.40, 0.043173, , 
86.43, 0.043008, , 
86.46, 0.043062, , 
86.49, 0.043100, , 
86.52, 0.043122, , 
86.55, 0.043084, , 
86.58, 0.043078, , 
86.61, 0.043161, , 
86.64, 0.043126, , 
86.67, 0.043015, , 
86.70, 0.043075, , 
86.73, 0.043180, , 
86.76, 0.043119, , 
86.79, 0.043030, , 
86.82, 0.043097, , 
86.85, 0.043176, , 
86.88, 0.043135, , 
86.91, 0.043005, , 
86.94, 0.043094, , 
86.97, 0.043205, , 
87.00, 0.043167, , 
87.03, 0.043072, , 
87.06, 0.043084, , 
87.09, 0.043199, , 
87.12, 0.043107, , 
87.15, 0.043018, , 
87.18, 0.043053, , 
87.21, 0.043138, , 
87.24, 0.043135, , 
87.27, 0.043065, , 
87.30, 0.043097, , 
87.33, 0.043138, , 
87.36, 0.043113, , 
87.39, 0.043065, , 
87.42, 0.043199, , 
87.45, 0.043233, , 
87.48, 0.043186, , 
87.51, 0.043094, , 
87.54, 0.043154, , 
87.57, 0.043205, , 
87.60, 0.043113, , 
87.63, 0.043189, , 
87.67, 0.043224, , 
87.69, 0.043221, , 
87.72, 0.043126, , 
87.75, 0.043110, , 
87.78, 0.043161, , 
87.81, 0.043218, , 
87.84, 0.043132, , 
87.87, 0.043122, , 
87.90, 0.043132, , 
87.93, 0.043157, , 
87.96, 0.043129, , 
87.99, 0.043097, , 
88.02, 0.043161, , 
88.05, 0.043176, , 
88.08, 0.043157, , 
88.11, 0.043211, , 
88.14, 0.043243, , 
88.17, 0.043176, , 
88.20, 0.043088, , 
88.23, 0.043132, , 
88.26, 0.043230, , 
88.29, 0.043183, , 
88.33, 0.043084, , 
88.35, 0.043103, , 
88.38, 0.043189, , 
88.41, 0.043167, , 
88.44, 0.043122, , 
88.47, 0.043170, , 
88.50, 0.043281, , 
88.54, 0.043164, , 
88.56, 0.043113, , 
88.59, 0.043157, , 
88.62, 0.043221, , 
88.65, 0.043189, , 
88.68, 0.043094, , 
88.71, 0.043167, , 
88.74, 0.043205, , 
88.77, 0.043211, , 
88.80, 0.043211, , 
88.83, 0.043243, , 
88.86, 0.043186, , 
88.89, 0.043157, , 
88.92, 0.043154, , 
88.95, 0.043195, , 
88.98, 0.043208, , 
89.01, 0.043157, , 
89.04, 0.043138, , 
89.07, 0.043167, , 
89.10, 0.043256, , 
89.13, 0.043151, , 
89.16, 0.043100, , 
89.19, 0.043287, , 
89.22, 0.043319, , 
89.25, 0.043195, , 
89.28, 0.043195, , 
89.31, 0.043338, , 
89.34, 0.043341, , 
89.37, 0.043268, , 
89.40, 0.043189, , 
89.44, 0.043306, , 
89.46, 0.043360, , 
89.49, 0.043272, , 
89.52, 0.043284, , 
89.55, 0.043325, , 
89.58, 0.043303, , 
89.61, 0.043243, , 
89.64, 0.043272, , 
89.67, 0.043357, , 
89.70, 0.043370, , 
89.73, 0.043240, , 
89.76, 0.043218, , 
89.79, 0.043332, , 
89.82, 0.043316, , 
89.85, 0.043195, , 
89.88, 0.043218, , 
89.91, 0.043357, , 
89.94, 0.043348, , 
89.97, 0.043253, , 
90.00, 0.043300, , 
90.03, 0.043402, , 
90.06, 0.043351, , 
90.09, 0.043195, , 
90.12, 0.043240, , 
90.15, 0.043275, , 
90.18, 0.043253, , 
90.21, 0.043240, , 
90.24, 0.043262, , 
90.27, 0.043278, , 
90.30, 0.043291, , 
90.33, 0.043122, , 
90.36, 0.043205, , 
90.39, 0.043297, , 
90.42, 0.043224, , 
90.45, 0.043195, , 
90.48, 0.043249, , 
90.51, 0.043316, , 
90.54, 0.043205, , 
90.57, 0.043230, , 
90.60, 0.043249, , 
90.63, 0.043329, , 
90.66, 0.043221, , 
90.69, 0.043151, , 
90.72, 0.043157, , 
90.75, 0.043246, , 
90.78, 0.043202, , 
90.81, 0.043176, , 
90.84, 0.043157, , 
90.87, 0.043148, , 
90.90, 0.043129, , 
90.93, 0.043122, , 
90.96, 0.043141, , 
90.99, 0.043167, , 
91.02, 0.043113, , 
91.05, 0.043049, , 
91.08, 0.043072, , 
91.11, 0.043129, , 
91.14, 0.043084, , 
91.17, 0.043024, , 
91.20, 0.043148, , 
91.23, 0.043211, , 
91.26, 0.043119, , 
91.29, 0.043091, , 
91.32, 0.043211, , 
91.36, 0.043180, , 
91.38, 0.043103, , 
91.42, 0.043113, , 
91.44, 0.043161, , 
91.47, 0.043218, , 
91.50, 0.043100, , 
91.53, 0.043110, , 
91.56, 0.043221, , 
91.59, 0.043176, , 
91.62, 0.043113, , 
91.65, 0.043145, , 
91.68, 0.043154, , 
91.71, 0.043211, , 
91.74, 0.043151, , 
91.77, 0.043148, , 
91.80, 0.043218, , 
91.83, 0.043208, , 
91.86, 0.043126, , 
91.89, 0.043186, , 
91.92, 0.043243, , 
91.95, 0.043164, , 
91.98, 0.043059, , 
92.01, 0.043084, , 
92.04, 0.043202, , 
92.07, 0.043126, , 
92.10, 0.043100, , 
92.13, 0.043211, , 
92.16, 0.043233, , 
92.19, 0.043208, , 
92.22, 0.043154, , 
92.25, 0.043170, , 
92.28, 0.043294, , 
92.31, 0.043192, , 
92.34, 0.043116, , 
92.37, 0.043167, , 
92.40, 0.043173, , 
92.43, 0.043062, , 
92.46, 0.043005, , 
92.49, 0.043145, , 
92.52, 0.043272, , 
92.55, 0.043180, , 
92.58, 0.043103, , 
92.61, 0.043100, , 
92.64, 0.043116, , 
92.67, 0.043103, , 
92.70, 0.043037, , 
92.73, 0.043157, , 
92.76, 0.043167, , 
92.79, 0.043129, , 
92.82, 0.043088, , 
92.85, 0.043116, , 
92.88, 0.043100, , 
92.91, 0.043091, , 
92.94, 0.043110, , 
92.97, 0.043173, , 
93.00, 0.043208, , 
93.03, 0.043046, , 
93.06, 0.043011, , 
93.10, 0.043173, , 
93.12, 0.043205, , 
93.15, 0.043161, , 
93.18, 0.043202, , 
93.21, 0.043202, , 
93.24, 0.043189, , 
93.27, 0.043164, , 
93.30, 0.043126, , 
93.33, 0.043122, , 
93.36, 0.043119, , 
93.39, 0.043183, , 
93.42, 0.043164, , 
93.45, 0.043170, , 
93.48, 0.043138, , 
93.51, 0.043164, , 
93.54, 0.043138, , 
93.57, 0.043224, , 
93.60, 0.043126, , 
93.63, 0.043084, , 
93.66, 0.043180, , 
93.69, 0.043335, , 
93.72, 0.043414, , 
93.75, 0.043538, , 
93.78, 0.043541, , 
93.81, 0.043601, , 
93.84, 0.043573, , 
93.87, 0.043589, , 
93.90, 0.043627, , 
93.93, 0.043617, , 
93.96, 0.043639, , 
93.99, 0.043624, , 
94.02, 0.043731, , 
94.05, 0.043795, , 
94.08, 0.043690, , 
94.11, 0.043700, , 
94.15, 0.043795, , 
94.17, 0.043823, , 
94.20, 0.043687, , 
94.23, 0.043649, , 
94.26, 0.043744, , 
94.29, 0.043795, , 
94.32, 0.043684, , 
94.35, 0.043716, , 
94.38, 0.043693, , 
94.41, 0.043750, , 
94.44, 0.043665, , 
94.47, 0.043684, , 
94.50, 0.043757, , 
94.53, 0.043776, , 
94.56, 0.043728, , 
94.59, 0.043684, , 
94.62, 0.043776, , 
94.65, 0.043833, , 
94.68, 0.043693, , 
94.71, 0.043722, , 
94.74, 0.043827, , 
94.77, 0.043779, , 
94.81, 0.043706, , 
94.83, 0.043735, , 
94.86, 0.043865, , 
94.89, 0.043833, , 
94.92, 0.043741, , 
94.95, 0.043741, , 
94.98, 0.043833, , 
95.02, 0.043817, , 
95.04, 0.043757, , 
95.07, 0.043725, , 
95.10, 0.043779, , 
95.13, 0.043779, , 
95.16, 0.043782, , 
95.19, 0.043754, , 
95.22, 0.043833, , 
95.25, 0.043782, , 
95.28, 0.043630, , 
95.31, 0.043674, , 
95.34, 0.043744, , 
95.37, 0.043643, , 
95.40, 0.043598, , 
95.43, 0.043725, , 
95.46, 0.043798, , 
95.49, 0.043636, , 
95.52, 0.043554, , 
95.55, 0.043563, , 
95.58, 0.043639, , 
95.61, 0.043573, , 
95.64, 0.043567, , 
95.67, 0.043725, , 
95.70, 0.043671, , 
95.73, 0.043579, , 
95.76, 0.043532, , 
95.79, 0.043633, , 
95.82, 0.043697, , 
95.85, 0.043557, , 
95.88, 0.043538, , 
95.91, 0.043624, , 
95.94, 0.043601, , 
95.98, 0.043519, , 
96.00, 0.043522, , 
